SpectraSuite Data File
++++++++++++++++++++++++++++++++++++
Date: Mon May 20 12:13:59 CDT 2013
User: Students
Dark Spectrum Present: Yes
Reference Spectrum Present: Yes
Number of Sampled Component Spectra: 1
Spectrometers: USB4H00887
Integration Time (usec): 60000 (USB4H00887)
Spectra Averaged: 5 (USB4H00887)
Boxcar Smoothing: 5 (USB4H00887)
Correct for Electrical Dark: No (USB4H00887)
Strobe/Lamp Enabled: No (USB4H00887)
Correct for Detector Non-linearity: No (USB4H00887)
Correct for Stray Light: No (USB4H00887)
Number of Pixels in Processed Spectrum: 3648
>>>>>Begin Processed Spectral Data<<<<<
345.83	0.012
346.05	0.012
346.26	0.012
346.48	-0.000
346.70	-0.000
346.92	-0.013
347.14	0.026
347.35	0.031
347.57	0.125
347.79	-0.185
348.01	-0.177
348.23	-0.269
348.44	-0.000
348.66	0.181
348.88	-0.392
349.10	-0.161
349.32	0.129
349.53	-0.028
349.75	-0.048
349.97	-0.062
350.19	-0.057
350.41	-0.056
350.62	1.018
350.84	-0.041
351.06	-0.042
351.28	-0.060
351.50	-0.232
351.71	-0.131
351.93	-0.113
352.15	-0.027
352.37	-0.051
352.58	0.014
352.80	0.026
353.02	0.045
353.24	0.087
353.46	0.398
353.67	-0.227
353.89	0.108
354.11	0.103
354.33	0.117
354.54	0.212
354.76	0.387
354.98	1.025
355.20	0.583
355.41	0.169
355.63	0.354
355.85	0.167
356.07	-0.000
356.28	0.120
356.50	0.175
356.72	0.070
356.94	0.162
357.15	0.148
357.37	-0.000
357.59	0.045
357.81	0.030
358.02	0.059
358.24	0.028
358.46	0.093
358.68	0.067
358.89	0.036
359.11	-0.000
359.33	0.022
359.55	-0.436
359.76	0.093
359.98	0.112
360.20	0.136
360.42	0.130
360.63	0.149
360.85	0.110
361.07	0.524
361.29	0.087
361.50	0.267
361.72	0.107
361.94	0.307
362.15	0.124
362.37	0.084
362.59	0.079
362.81	0.131
363.02	0.209
363.24	0.275
363.46	0.178
363.68	0.265
363.89	0.171
364.11	0.230
364.33	0.359
364.54	0.197
364.76	0.238
364.98	0.243
365.20	0.247
365.41	0.152
365.63	0.195
365.85	0.117
366.06	0.289
366.28	0.279
366.50	0.195
366.71	0.061
366.93	0.093
367.15	0.092
367.37	0.095
367.58	0.123
367.80	0.152
368.02	0.390
368.23	0.159
368.45	0.167
368.67	0.139
368.88	0.144
369.10	-0.000
369.32	0.132
369.53	0.070
369.75	0.097
369.97	0.173
370.19	0.133
370.40	0.053
370.62	0.106
370.84	0.060
371.05	0.423
371.27	0.112
371.49	0.119
371.70	0.162
371.92	0.250
372.14	0.110
372.35	0.136
372.57	0.138
372.79	0.378
373.00	0.084
373.22	0.126
373.44	0.080
373.65	0.065
373.87	0.118
374.09	0.398
374.30	0.105
374.52	0.123
374.74	0.078
374.95	0.263
375.17	0.086
375.39	-0.000
375.60	0.094
375.82	0.177
376.04	0.075
376.25	0.069
376.47	0.050
376.68	0.102
376.90	0.056
377.12	0.129
377.33	0.097
377.55	0.253
377.77	0.146
377.98	0.236
378.20	0.131
378.42	0.163
378.63	0.234
378.85	-0.000
379.07	0.166
379.28	0.876
379.50	0.416
379.71	0.208
379.93	0.136
380.15	0.186
380.36	0.279
380.58	0.225
380.80	0.721
381.01	0.167
381.23	0.132
381.44	0.146
381.66	0.169
381.88	0.188
382.09	-0.084
382.31	0.137
382.53	0.138
382.74	0.687
382.96	0.169
383.17	0.136
383.39	0.175
383.61	0.236
383.82	0.161
384.04	0.192
384.25	0.262
384.47	0.233
384.69	0.239
384.90	0.236
385.12	0.512
385.33	0.325
385.55	0.238
385.77	0.360
385.98	0.178
386.20	0.241
386.41	0.198
386.63	0.218
386.85	0.188
387.06	0.213
387.28	0.306
387.49	0.214
387.71	0.161
387.93	0.161
388.14	0.538
388.36	0.206
388.57	0.193
388.79	0.225
389.01	-0.000
389.22	0.295
389.44	0.266
389.65	0.222
389.87	0.224
390.08	0.256
390.30	0.188
390.52	0.361
390.73	0.387
390.95	0.257
391.16	0.238
391.38	-0.000
391.59	0.258
391.81	0.216
392.03	0.209
392.24	0.248
392.46	0.222
392.67	0.198
392.89	0.272
393.10	0.403
393.32	0.293
393.53	0.353
393.75	0.216
393.97	0.247
394.18	0.339
394.40	0.281
394.61	0.290
394.83	0.242
395.04	0.306
395.26	0.209
395.47	0.329
395.69	0.271
395.91	0.291
396.12	0.365
396.34	0.374
396.55	0.233
396.77	0.364
396.98	-0.000
397.20	0.446
397.41	0.474
397.63	0.332
397.84	0.297
398.06	0.282
398.27	0.283
398.49	0.326
398.71	0.240
398.92	0.298
399.14	0.388
399.35	0.499
399.57	0.475
399.78	0.316
400.00	0.294
400.21	0.371
400.43	0.281
400.64	0.305
400.86	0.705
401.07	0.369
401.29	0.301
401.50	0.309
401.72	0.437
401.93	0.281
402.15	0.354
402.36	0.318
402.58	0.264
402.79	0.308
403.01	0.508
403.22	0.396
403.44	0.264
403.65	0.451
403.87	0.507
404.08	0.395
404.30	0.641
404.51	0.335
404.73	0.423
404.94	0.351
405.16	0.352
405.37	0.284
405.59	0.526
405.80	0.331
406.02	0.407
406.23	0.418
406.45	0.459
406.66	0.488
406.88	0.319
407.09	0.482
407.31	0.395
407.52	0.483
407.74	0.383
407.95	0.455
408.17	0.421
408.38	0.444
408.60	0.288
408.81	0.502
409.03	0.373
409.24	0.371
409.45	0.437
409.67	0.415
409.88	0.378
410.10	0.478
410.31	0.396
410.53	0.376
410.74	0.542
410.96	0.531
411.17	0.541
411.39	0.411
411.60	0.377
411.82	0.438
412.03	0.431
412.24	0.420
412.46	0.625
412.67	0.499
412.89	0.488
413.10	0.475
413.32	0.440
413.53	0.516
413.75	0.544
413.96	0.403
414.17	0.552
414.39	0.550
414.60	0.446
414.82	0.592
415.03	0.461
415.25	0.520
415.46	0.355
415.68	0.497
415.89	1.008
416.10	0.779
416.32	0.402
416.53	0.481
416.75	0.456
416.96	0.555
417.18	0.477
417.39	0.452
417.60	0.454
417.82	0.672
418.03	0.581
418.25	0.480
418.46	0.495
418.67	0.453
418.89	0.483
419.10	0.501
419.32	0.676
419.53	0.605
419.75	0.517
419.96	0.460
420.17	0.570
420.39	0.516
420.60	0.528
420.82	0.669
421.03	0.537
421.24	0.444
421.46	0.491
421.67	0.537
421.89	0.466
422.10	0.504
422.31	0.493
422.53	0.707
422.74	0.534
422.96	0.428
423.17	0.481
423.38	0.596
423.60	0.499
423.81	0.626
424.03	0.522
424.24	0.586
424.45	0.573
424.67	0.568
424.88	0.511
425.09	0.548
425.31	0.505
425.52	0.525
425.74	0.594
425.95	0.654
426.16	0.509
426.38	0.595
426.59	0.543
426.80	0.619
427.02	0.658
427.23	0.509
427.45	0.677
427.66	0.644
427.87	0.499
428.09	0.532
428.30	0.587
428.51	0.565
428.73	0.628
428.94	0.551
429.15	0.546
429.37	0.517
429.58	0.547
429.79	0.506
430.01	0.623
430.22	0.619
430.44	0.637
430.65	0.575
430.86	0.627
431.08	0.613
431.29	0.566
431.50	0.682
431.72	0.950
431.93	0.746
432.14	0.543
432.36	0.592
432.57	0.604
432.78	0.626
433.00	0.568
433.21	0.564
433.42	0.706
433.64	0.604
433.85	0.682
434.06	0.550
434.28	0.568
434.49	0.591
434.70	0.604
434.92	0.615
435.13	0.653
435.34	0.678
435.56	0.633
435.77	0.635
435.98	0.836
436.20	0.693
436.41	0.592
436.62	0.586
436.83	0.673
437.05	0.772
437.26	0.675
437.47	0.598
437.69	0.646
437.90	0.599
438.11	0.583
438.33	0.639
438.54	0.657
438.75	0.850
438.97	0.826
439.18	0.605
439.39	0.635
439.60	0.685
439.82	0.644
440.03	0.595
440.24	0.868
440.46	0.647
440.67	0.619
440.88	0.661
441.10	0.618
441.31	0.625
441.52	0.682
441.73	0.771
441.95	0.679
442.16	0.627
442.37	1.004
442.58	0.610
442.80	0.593
443.01	0.777
443.22	0.711
443.44	0.606
443.65	0.720
443.86	0.715
444.07	0.762
444.29	0.650
444.50	0.825
444.71	0.630
444.92	0.593
445.14	0.755
445.35	0.809
445.56	0.623
445.78	0.730
445.99	0.726
446.20	0.624
446.41	0.704
446.63	0.702
446.84	0.661
447.05	0.660
447.26	0.794
447.48	0.673
447.69	0.630
447.90	0.726
448.11	0.643
448.33	0.664
448.54	0.691
448.75	0.721
448.96	0.738
449.18	0.784
449.39	0.700
449.60	0.675
449.81	0.820
450.03	0.706
450.24	0.765
450.45	0.719
450.66	0.704
450.87	0.731
451.09	0.683
451.30	0.659
451.51	0.738
451.72	0.748
451.94	0.770
452.15	0.837
452.36	0.702
452.57	0.725
452.78	0.730
453.00	0.768
453.21	0.719
453.42	0.690
453.63	0.793
453.85	0.749
454.06	0.740
454.27	0.878
454.48	0.779
454.69	0.703
454.91	0.775
455.12	0.674
455.33	0.751
455.54	0.769
455.75	0.750
455.97	0.780
456.18	0.769
456.39	0.775
456.60	0.800
456.81	0.738
457.03	0.748
457.24	0.741
457.45	0.829
457.66	0.776
457.87	0.735
458.09	0.749
458.30	0.660
458.51	0.786
458.72	0.811
458.93	0.826
459.15	0.730
459.36	0.798
459.57	0.825
459.78	0.878
459.99	0.783
460.20	0.740
460.42	0.829
460.63	0.786
460.84	0.763
461.05	0.787
461.26	0.844
461.47	0.755
461.69	0.809
461.90	0.848
462.11	0.806
462.32	0.865
462.53	0.800
462.74	0.895
462.96	0.774
463.17	0.767
463.38	0.803
463.59	0.921
463.80	0.767
464.01	0.791
464.23	0.884
464.44	0.843
464.65	0.855
464.86	0.883
465.07	0.895
465.28	0.845
465.49	0.871
465.71	0.825
465.92	0.870
466.13	0.918
466.34	0.844
466.55	0.901
466.76	0.855
466.97	0.878
467.19	0.857
467.40	0.894
467.61	0.910
467.82	0.824
468.03	0.803
468.24	0.872
468.45	0.904
468.66	0.887
468.88	0.896
469.09	0.899
469.30	0.950
469.51	0.875
469.72	0.920
469.93	0.883
470.14	0.856
470.35	0.956
470.57	0.902
470.78	0.836
470.99	0.972
471.20	0.902
471.41	0.859
471.62	0.912
471.83	0.881
472.04	0.913
472.25	0.957
472.47	0.870
472.68	0.877
472.89	0.883
473.10	0.929
473.31	0.880
473.52	0.945
473.73	0.962
473.94	0.878
474.15	0.907
474.36	0.905
474.57	0.929
474.79	0.905
475.00	0.900
475.21	0.884
475.42	0.980
475.63	0.878
475.84	0.908
476.05	0.921
476.26	0.890
476.47	0.924
476.68	0.970
476.89	0.899
477.10	0.947
477.32	0.937
477.53	0.994
477.74	0.908
477.95	0.953
478.16	0.898
478.37	0.939
478.58	0.944
478.79	0.956
479.00	0.963
479.21	0.920
479.42	0.963
479.63	0.966
479.84	0.929
480.05	0.931
480.26	0.957
480.47	0.981
480.69	0.985
480.90	0.951
481.11	0.950
481.32	1.010
481.53	0.944
481.74	0.999
481.95	0.964
482.16	0.980
482.37	0.988
482.58	0.952
482.79	0.969
483.00	0.998
483.21	0.940
483.42	0.913
483.63	0.991
483.84	1.021
484.05	1.009
484.26	0.981
484.47	0.981
484.68	0.941
484.89	0.948
485.10	0.998
485.31	0.976
485.52	0.983
485.73	0.981
485.94	1.026
486.15	0.973
486.37	0.995
486.58	0.958
486.79	0.969
487.00	1.021
487.21	1.013
487.42	1.008
487.63	1.013
487.84	1.031
488.05	1.028
488.26	0.981
488.47	0.986
488.68	1.015
488.89	0.988
489.10	0.979
489.31	0.992
489.52	1.028
489.73	0.995
489.94	1.031
490.15	0.985
490.36	1.027
490.57	0.979
490.78	0.962
490.99	1.002
491.20	1.082
491.41	1.037
491.62	0.976
491.83	1.008
492.04	1.004
492.25	1.015
492.45	1.016
492.66	1.040
492.87	1.028
493.08	1.015
493.29	0.997
493.50	0.987
493.71	0.995
493.92	0.992
494.13	1.005
494.34	1.026
494.55	1.032
494.76	1.063
494.97	1.054
495.18	1.016
495.39	1.033
495.60	0.980
495.81	0.982
496.02	1.001
496.23	0.995
496.44	1.027
496.65	1.017
496.86	1.021
497.07	1.046
497.28	1.041
497.49	0.991
497.70	0.991
497.91	1.015
498.12	0.997
498.32	1.043
498.53	1.025
498.74	1.017
498.95	1.042
499.16	0.997
499.37	1.002
499.58	1.011
499.79	1.042
500.00	1.038
500.21	1.067
500.42	1.008
500.63	1.010
500.84	1.030
501.05	1.006
501.26	1.032
501.46	1.073
501.67	1.035
501.88	1.042
502.09	1.016
502.30	1.026
502.51	1.076
502.72	1.029
502.93	1.043
503.14	1.067
503.35	1.039
503.56	1.034
503.77	1.066
503.97	1.042
504.18	1.037
504.39	1.073
504.60	1.039
504.81	1.067
505.02	1.058
505.23	1.063
505.44	1.041
505.65	1.048
505.86	1.029
506.07	1.094
506.27	1.050
506.48	1.057
506.69	1.040
506.90	1.063
507.11	1.064
507.32	1.037
507.53	1.045
507.74	1.038
507.95	1.052
508.15	1.058
508.36	1.066
508.57	1.079
508.78	1.060
508.99	1.057
509.20	1.030
509.41	1.051
509.62	1.040
509.82	1.035
510.03	1.046
510.24	1.042
510.45	1.067
510.66	1.057
510.87	1.052
511.08	1.012
511.29	1.055
511.49	1.031
511.70	1.078
511.91	1.012
512.12	1.011
512.33	1.045
512.54	1.066
512.75	1.045
512.95	1.070
513.16	1.060
513.37	1.037
513.58	1.077
513.79	1.039
514.00	1.047
514.20	1.064
514.41	1.051
514.62	1.018
514.83	1.057
515.04	1.050
515.25	1.031
515.46	1.045
515.66	1.044
515.87	1.055
516.08	1.026
516.29	1.050
516.50	1.033
516.71	1.029
516.91	1.039
517.12	1.056
517.33	1.041
517.54	1.027
517.75	1.028
517.95	1.046
518.16	1.058
518.37	1.022
518.58	1.028
518.79	0.999
519.00	1.029
519.20	1.038
519.41	1.010
519.62	1.030
519.83	1.039
520.04	1.002
520.24	0.998
520.45	1.007
520.66	1.030
520.87	0.993
521.08	0.992
521.28	0.997
521.49	1.015
521.70	0.986
521.91	1.001
522.12	0.982
522.32	1.006
522.53	0.987
522.74	0.975
522.95	0.986
523.16	0.989
523.36	0.999
523.57	0.978
523.78	0.971
523.99	0.976
524.20	0.967
524.40	0.981
524.61	0.988
524.82	0.962
525.03	0.969
525.23	0.969
525.44	0.952
525.65	0.949
525.86	0.975
526.06	0.946
526.27	0.947
526.48	0.959
526.69	0.939
526.90	0.942
527.10	0.979
527.31	0.931
527.52	0.923
527.73	0.916
527.93	0.926
528.14	0.931
528.35	0.920
528.56	0.920
528.76	0.912
528.97	0.902
529.18	0.892
529.39	0.893
529.59	0.896
529.80	0.926
530.01	0.901
530.22	0.899
530.42	0.869
530.63	0.887
530.84	0.865
531.05	0.880
531.25	0.884
531.46	0.876
531.67	0.854
531.88	0.874
532.08	0.867
532.29	0.861
532.50	0.854
532.70	0.848
532.91	0.839
533.12	0.842
533.33	0.867
533.53	0.837
533.74	0.837
533.95	0.842
534.15	0.829
534.36	0.832
534.57	0.814
534.78	0.815
534.98	0.825
535.19	0.794
535.40	0.796
535.60	0.814
535.81	0.794
536.02	0.796
536.23	0.787
536.43	0.790
536.64	0.776
536.85	0.784
537.05	0.794
537.26	0.772
537.47	0.776
537.67	0.765
537.88	0.759
538.09	0.767
538.30	0.757
538.50	0.749
538.71	0.761
538.92	0.747
539.12	0.743
539.33	0.738
539.54	0.739
539.74	0.744
539.95	0.734
540.16	0.730
540.36	0.720
540.57	0.721
540.78	0.713
540.98	0.711
541.19	0.711
541.40	0.698
541.60	0.709
541.81	0.702
542.02	0.702
542.22	0.691
542.43	0.688
542.64	0.683
542.84	0.682
543.05	0.674
543.26	0.674
543.46	0.676
543.67	0.674
543.88	0.669
544.08	0.659
544.29	0.654
544.50	0.653
544.70	0.653
544.91	0.644
545.12	0.646
545.32	0.642
545.53	0.647
545.74	0.636
545.94	0.633
546.15	0.631
546.35	0.628
546.56	0.624
546.77	0.622
546.97	0.620
547.18	0.612
547.39	0.613
547.59	0.610
547.80	0.606
548.01	0.610
548.21	0.604
548.42	0.596
548.62	0.596
548.83	0.593
549.04	0.589
549.24	0.582
549.45	0.581
549.65	0.578
549.86	0.573
550.07	0.573
550.27	0.570
550.48	0.578
550.69	0.563
550.89	0.564
551.10	0.559
551.30	0.557
551.51	0.558
551.72	0.547
551.92	0.549
552.13	0.548
552.33	0.549
552.54	0.543
552.75	0.536
552.95	0.537
553.16	0.530
553.36	0.529
553.57	0.526
553.78	0.524
553.98	0.524
554.19	0.514
554.39	0.511
554.60	0.514
554.80	0.514
555.01	0.506
555.22	0.509
555.42	0.506
555.63	0.499
555.83	0.503
556.04	0.497
556.25	0.499
556.45	0.490
556.66	0.488
556.86	0.491
557.07	0.488
557.27	0.487
557.48	0.481
557.68	0.479
557.89	0.480
558.10	0.476
558.30	0.474
558.51	0.472
558.71	0.469
558.92	0.465
559.12	0.467
559.33	0.471
559.54	0.465
559.74	0.461
559.95	0.458
560.15	0.457
560.36	0.456
560.56	0.450
560.77	0.450
560.97	0.449
561.18	0.444
561.38	0.443
561.59	0.445
561.79	0.441
562.00	0.438
562.21	0.436
562.41	0.434
562.62	0.433
562.82	0.431
563.03	0.428
563.23	0.428
563.44	0.428
563.64	0.425
563.85	0.426
564.05	0.419
564.26	0.419
564.46	0.418
564.67	0.419
564.87	0.415
565.08	0.411
565.28	0.410
565.49	0.411
565.69	0.407
565.90	0.404
566.10	0.407
566.31	0.400
566.51	0.402
566.72	0.403
566.92	0.396
567.13	0.396
567.33	0.395
567.54	0.393
567.74	0.393
567.95	0.388
568.15	0.390
568.36	0.389
568.56	0.388
568.77	0.382
568.97	0.381
569.18	0.380
569.38	0.379
569.59	0.379
569.79	0.376
570.00	0.374
570.20	0.373
570.41	0.371
570.61	0.369
570.82	0.370
571.02	0.366
571.23	0.367
571.43	0.363
571.64	0.361
571.84	0.361
572.05	0.359
572.25	0.358
572.45	0.356
572.66	0.353
572.86	0.352
573.07	0.351
573.27	0.351
573.48	0.350
573.68	0.346
573.89	0.346
574.09	0.346
574.30	0.344
574.50	0.342
574.70	0.343
574.91	0.340
575.11	0.340
575.32	0.340
575.52	0.336
575.73	0.335
575.93	0.335
576.14	0.334
576.34	0.332
576.54	0.331
576.75	0.329
576.95	0.328
577.16	0.326
577.36	0.326
577.57	0.325
577.77	0.323
577.97	0.320
578.18	0.322
578.38	0.318
578.59	0.317
578.79	0.316
579.00	0.316
579.20	0.314
579.40	0.313
579.61	0.312
579.81	0.311
580.02	0.309
580.22	0.308
580.42	0.306
580.63	0.306
580.83	0.305
581.04	0.303
581.24	0.302
581.45	0.301
581.65	0.301
581.85	0.300
582.06	0.298
582.26	0.297
582.47	0.296
582.67	0.296
582.87	0.295
583.08	0.293
583.28	0.293
583.48	0.291
583.69	0.288
583.89	0.288
584.10	0.289
584.30	0.287
584.50	0.285
584.71	0.284
584.91	0.284
585.12	0.281
585.32	0.282
585.52	0.279
585.73	0.278
585.93	0.278
586.13	0.277
586.34	0.276
586.54	0.275
586.75	0.274
586.95	0.273
587.15	0.273
587.36	0.271
587.56	0.270
587.76	0.270
587.97	0.269
588.17	0.267
588.37	0.267
588.58	0.267
588.78	0.264
588.98	0.265
589.19	0.264
589.39	0.262
589.60	0.263
589.80	0.260
590.00	0.260
590.21	0.260
590.41	0.258
590.61	0.258
590.82	0.257
591.02	0.256
591.22	0.254
591.43	0.255
591.63	0.253
591.83	0.252
592.04	0.251
592.24	0.251
592.44	0.249
592.65	0.247
592.85	0.247
593.05	0.247
593.26	0.246
593.46	0.245
593.66	0.245
593.86	0.244
594.07	0.243
594.27	0.244
594.47	0.242
594.68	0.241
594.88	0.243
595.08	0.242
595.29	0.242
595.49	0.240
595.69	0.239
595.90	0.238
596.10	0.239
596.30	0.238
596.50	0.236
596.71	0.236
596.91	0.235
597.11	0.235
597.32	0.234
597.52	0.233
597.72	0.233
597.93	0.232
598.13	0.230
598.33	0.231
598.53	0.230
598.74	0.229
598.94	0.228
599.14	0.228
599.35	0.228
599.55	0.227
599.75	0.226
599.95	0.224
600.16	0.225
600.36	0.223
600.56	0.224
600.76	0.223
600.97	0.221
601.17	0.220
601.37	0.220
601.58	0.219
601.78	0.219
601.98	0.218
602.18	0.217
602.39	0.217
602.59	0.217
602.79	0.215
602.99	0.216
603.20	0.215
603.40	0.215
603.60	0.215
603.80	0.214
604.01	0.214
604.21	0.213
604.41	0.212
604.61	0.211
604.82	0.211
605.02	0.212
605.22	0.211
605.42	0.210
605.62	0.210
605.83	0.209
606.03	0.208
606.23	0.208
606.43	0.208
606.64	0.208
606.84	0.207
607.04	0.207
607.24	0.206
607.45	0.206
607.65	0.205
607.85	0.206
608.05	0.204
608.25	0.204
608.46	0.203
608.66	0.203
608.86	0.202
609.06	0.201
609.26	0.200
609.47	0.201
609.67	0.200
609.87	0.200
610.07	0.199
610.28	0.197
610.48	0.197
610.68	0.197
610.88	0.196
611.08	0.197
611.29	0.196
611.49	0.195
611.69	0.195
611.89	0.193
612.09	0.193
612.29	0.193
612.50	0.193
612.70	0.192
612.90	0.191
613.10	0.191
613.30	0.190
613.51	0.191
613.71	0.190
613.91	0.195
614.11	0.190
614.31	0.189
614.51	0.189
614.72	0.188
614.92	0.188
615.12	0.189
615.32	0.189
615.52	0.188
615.72	0.189
615.93	0.188
616.13	0.187
616.33	0.187
616.53	0.187
616.73	0.186
616.93	0.185
617.14	0.185
617.34	0.185
617.54	0.185
617.74	0.185
617.94	0.184
618.14	0.183
618.34	0.183
618.55	0.182
618.75	0.183
618.95	0.183
619.15	0.184
619.35	0.183
619.55	0.182
619.75	0.182
619.96	0.181
620.16	0.181
620.36	0.180
620.56	0.180
620.76	0.180
620.96	0.179
621.16	0.178
621.36	0.178
621.57	0.178
621.77	0.178
621.97	0.177
622.17	0.177
622.37	0.177
622.57	0.177
622.77	0.177
622.97	0.176
623.18	0.176
623.38	0.176
623.58	0.176
623.78	0.175
623.98	0.175
624.18	0.174
624.38	0.174
624.58	0.174
624.78	0.174
624.98	0.174
625.19	0.174
625.39	0.173
625.59	0.173
625.79	0.173
625.99	0.172
626.19	0.172
626.39	0.172
626.59	0.172
626.79	0.172
626.99	0.172
627.19	0.171
627.40	0.172
627.60	0.171
627.80	0.171
628.00	0.171
628.20	0.170
628.40	0.170
628.60	0.170
628.80	0.169
629.00	0.169
629.20	0.168
629.40	0.168
629.60	0.167
629.80	0.167
630.00	0.167
630.20	0.167
630.41	0.167
630.61	0.167
630.81	0.167
631.01	0.167
631.21	0.167
631.41	0.167
631.61	0.167
631.81	0.167
632.01	0.166
632.21	0.166
632.41	0.165
632.61	0.165
632.81	0.165
633.01	0.165
633.21	0.164
633.41	0.164
633.61	0.163
633.81	0.163
634.01	0.162
634.21	0.162
634.41	0.161
634.61	0.162
634.81	0.161
635.01	0.161
635.22	0.161
635.42	0.160
635.62	0.160
635.82	0.160
636.02	0.160
636.22	0.160
636.42	0.159
636.62	0.159
636.82	0.159
637.02	0.159
637.22	0.159
637.42	0.158
637.62	0.158
637.82	0.158
638.02	0.157
638.22	0.157
638.42	0.157
638.62	0.156
638.82	0.156
639.02	0.156
639.22	0.156
639.42	0.155
639.62	0.155
639.82	0.154
640.02	0.154
640.22	0.154
640.42	0.154
640.62	0.154
640.82	0.154
641.02	0.154
641.22	0.154
641.42	0.153
641.61	0.153
641.81	0.154
642.01	0.154
642.21	0.154
642.41	0.154
642.61	0.154
642.81	0.153
643.01	0.153
643.21	0.153
643.41	0.153
643.61	0.153
643.81	0.152
644.01	0.151
644.21	0.150
644.41	0.150
644.61	0.150
644.81	0.150
645.01	0.150
645.21	0.150
645.41	0.149
645.61	0.149
645.81	0.149
646.01	0.148
646.21	0.149
646.40	0.148
646.60	0.149
646.80	0.149
647.00	0.148
647.20	0.147
647.40	0.147
647.60	0.147
647.80	0.147
648.00	0.147
648.20	0.146
648.40	0.146
648.60	0.146
648.80	0.146
649.00	0.146
649.20	0.146
649.39	0.146
649.59	0.145
649.79	0.145
649.99	0.145
650.19	0.144
650.39	0.144
650.59	0.144
650.79	0.143
650.99	0.143
651.19	0.142
651.39	0.142
651.58	0.142
651.78	0.142
651.98	0.142
652.18	0.142
652.38	0.142
652.58	0.142
652.78	0.141
652.98	0.141
653.18	0.142
653.38	0.142
653.57	0.142
653.77	0.142
653.97	0.141
654.17	0.140
654.37	0.140
654.57	0.140
654.77	0.140
654.97	0.140
655.16	0.140
655.36	0.139
655.56	0.139
655.76	0.138
655.96	0.139
656.16	0.138
656.36	0.138
656.56	0.138
656.75	0.138
656.95	0.137
657.15	0.137
657.35	0.137
657.55	0.136
657.75	0.137
657.95	0.137
658.14	0.136
658.34	0.137
658.54	0.137
658.74	0.136
658.94	0.136
659.14	0.136
659.34	0.136
659.53	0.135
659.73	0.135
659.93	0.134
660.13	0.134
660.33	0.134
660.53	0.133
660.72	0.134
660.92	0.133
661.12	0.133
661.32	0.133
661.52	0.132
661.72	0.132
661.91	0.131
662.11	0.131
662.31	0.131
662.51	0.131
662.71	0.131
662.90	0.130
663.10	0.130
663.30	0.130
663.50	0.130
663.70	0.129
663.90	0.130
664.09	0.130
664.29	0.129
664.49	0.129
664.69	0.128
664.89	0.128
665.08	0.128
665.28	0.128
665.48	0.128
665.68	0.127
665.88	0.128
666.07	0.127
666.27	0.127
666.47	0.127
666.67	0.127
666.87	0.127
667.06	0.126
667.26	0.126
667.46	0.126
667.66	0.126
667.85	0.126
668.05	0.126
668.25	0.126
668.45	0.126
668.65	0.126
668.84	0.125
669.04	0.125
669.24	0.125
669.44	0.124
669.63	0.123
669.83	0.123
670.03	0.122
670.23	0.122
670.42	0.121
670.62	0.121
670.82	0.120
671.02	0.120
671.22	0.120
671.41	0.120
671.61	0.120
671.81	0.120
672.01	0.120
672.20	0.120
672.40	0.119
672.60	0.119
672.80	0.120
672.99	0.120
673.19	0.119
673.39	0.120
673.58	0.119
673.78	0.119
673.98	0.119
674.18	0.119
674.37	0.119
674.57	0.119
674.77	0.119
674.97	0.118
675.16	0.119
675.36	0.118
675.56	0.117
675.75	0.117
675.95	0.117
676.15	0.117
676.35	0.117
676.54	0.117
676.74	0.116
676.94	0.117
677.13	0.116
677.33	0.115
677.53	0.116
677.73	0.116
677.92	0.115
678.12	0.115
678.32	0.115
678.51	0.115
678.71	0.115
678.91	0.114
679.11	0.113
679.30	0.114
679.50	0.113
679.70	0.113
679.89	0.113
680.09	0.113
680.29	0.113
680.48	0.113
680.68	0.112
680.88	0.113
681.07	0.113
681.27	0.112
681.47	0.112
681.66	0.112
681.86	0.112
682.06	0.111
682.25	0.111
682.45	0.110
682.65	0.110
682.84	0.109
683.04	0.109
683.24	0.109
683.43	0.109
683.63	0.109
683.83	0.109
684.02	0.109
684.22	0.109
684.42	0.108
684.61	0.108
684.81	0.108
685.01	0.108
685.20	0.108
685.40	0.108
685.60	0.108
685.79	0.108
685.99	0.108
686.19	0.107
686.38	0.107
686.58	0.107
686.77	0.107
686.97	0.107
687.17	0.107
687.36	0.107
687.56	0.107
687.76	0.106
687.95	0.106
688.15	0.106
688.34	0.106
688.54	0.105
688.74	0.105
688.93	0.105
689.13	0.104
689.33	0.105
689.52	0.104
689.72	0.104
689.91	0.104
690.11	0.104
690.31	0.103
690.50	0.104
690.70	0.104
690.89	0.104
691.09	0.103
691.29	0.103
691.48	0.103
691.68	0.103
691.87	0.103
692.07	0.103
692.27	0.103
692.46	0.103
692.66	0.102
692.85	0.102
693.05	0.102
693.25	0.102
693.44	0.102
693.64	0.102
693.83	0.102
694.03	0.101
694.22	0.101
694.42	0.101
694.62	0.101
694.81	0.101
695.01	0.101
695.20	0.101
695.40	0.100
695.59	0.100
695.79	0.100
695.99	0.100
696.18	0.100
696.38	0.100
696.57	0.100
696.77	0.099
696.96	0.100
697.16	0.100
697.36	0.100
697.55	0.099
697.75	0.099
697.94	0.099
698.14	0.099
698.33	0.099
698.53	0.099
698.72	0.098
698.92	0.098
699.11	0.098
699.31	0.097
699.51	0.098
699.70	0.097
699.90	0.097
700.09	0.097
700.29	0.097
700.48	0.097
700.68	0.097
700.87	0.097
701.07	0.097
701.26	0.097
701.46	0.096
701.65	0.096
701.85	0.096
702.04	0.095
702.24	0.095
702.43	0.095
702.63	0.095
702.82	0.095
703.02	0.095
703.21	0.095
703.41	0.094
703.60	0.094
703.80	0.094
703.99	0.094
704.19	0.095
704.38	0.095
704.58	0.094
704.77	0.094
704.97	0.094
705.16	0.094
705.36	0.094
705.55	0.094
705.75	0.093
705.94	0.094
706.14	0.094
706.33	0.093
706.53	0.094
706.72	0.094
706.92	0.093
707.11	0.093
707.31	0.093
707.50	0.093
707.70	0.093
707.89	0.093
708.09	0.093
708.28	0.093
708.48	0.093
708.67	0.092
708.86	0.092
709.06	0.092
709.25	0.092
709.45	0.092
709.64	0.092
709.84	0.092
710.03	0.091
710.23	0.091
710.42	0.091
710.62	0.091
710.81	0.091
711.00	0.091
711.20	0.091
711.39	0.091
711.59	0.091
711.78	0.091
711.98	0.091
712.17	0.091
712.37	0.091
712.56	0.091
712.75	0.091
712.95	0.091
713.14	0.091
713.34	0.091
713.53	0.091
713.73	0.091
713.92	0.091
714.11	0.091
714.31	0.091
714.50	0.090
714.70	0.091
714.89	0.090
715.08	0.091
715.28	0.091
715.47	0.090
715.67	0.090
715.86	0.090
716.06	0.091
716.25	0.090
716.44	0.090
716.64	0.090
716.83	0.090
717.03	0.089
717.22	0.089
717.41	0.089
717.61	0.089
717.80	0.089
717.99	0.089
718.19	0.089
718.38	0.089
718.58	0.088
718.77	0.088
718.96	0.088
719.16	0.088
719.35	0.088
719.55	0.088
719.74	0.088
719.93	0.088
720.13	0.087
720.32	0.087
720.51	0.088
720.71	0.088
720.90	0.088
721.10	0.088
721.29	0.087
721.48	0.087
721.68	0.088
721.87	0.088
722.06	0.088
722.26	0.088
722.45	0.088
722.64	0.088
722.84	0.088
723.03	0.088
723.22	0.088
723.42	0.088
723.61	0.088
723.80	0.088
724.00	0.088
724.19	0.088
724.38	0.088
724.58	0.088
724.77	0.088
724.96	0.088
725.16	0.088
725.35	0.088
725.54	0.088
725.74	0.088
725.93	0.088
726.12	0.088
726.32	0.088
726.51	0.088
726.70	0.088
726.90	0.088
727.09	0.087
727.28	0.087
727.48	0.088
727.67	0.088
727.86	0.088
728.06	0.088
728.25	0.088
728.44	0.088
728.64	0.088
728.83	0.088
729.02	0.088
729.21	0.088
729.41	0.088
729.60	0.088
729.79	0.088
729.99	0.088
730.18	0.088
730.37	0.088
730.56	0.087
730.76	0.087
730.95	0.087
731.14	0.087
731.34	0.087
731.53	0.087
731.72	0.087
731.91	0.087
732.11	0.087
732.30	0.088
732.49	0.088
732.69	0.088
732.88	0.088
733.07	0.088
733.26	0.088
733.46	0.088
733.65	0.088
733.84	0.088
734.03	0.088
734.23	0.088
734.42	0.088
734.61	0.088
734.80	0.088
735.00	0.088
735.19	0.088
735.38	0.088
735.57	0.088
735.77	0.088
735.96	0.087
736.15	0.087
736.34	0.087
736.54	0.087
736.73	0.087
736.92	0.087
737.11	0.087
737.31	0.087
737.50	0.088
737.69	0.088
737.88	0.088
738.07	0.088
738.27	0.088
738.46	0.088
738.65	0.088
738.84	0.088
739.04	0.088
739.23	0.088
739.42	0.088
739.61	0.088
739.80	0.088
740.00	0.088
740.19	0.088
740.38	0.088
740.57	0.088
740.76	0.088
740.96	0.087
741.15	0.087
741.34	0.087
741.53	0.087
741.72	0.087
741.92	0.087
742.11	0.087
742.30	0.087
742.49	0.087
742.68	0.087
742.88	0.087
743.07	0.087
743.26	0.087
743.45	0.087
743.64	0.086
743.84	0.086
744.03	0.086
744.22	0.086
744.41	0.085
744.60	0.085
744.79	0.085
744.99	0.085
745.18	0.085
745.37	0.085
745.56	0.085
745.75	0.085
745.94	0.085
746.14	0.085
746.33	0.085
746.52	0.086
746.71	0.086
746.90	0.085
747.09	0.085
747.28	0.085
747.48	0.085
747.67	0.085
747.86	0.085
748.05	0.085
748.24	0.085
748.43	0.084
748.62	0.084
748.82	0.084
749.01	0.084
749.20	0.084
749.39	0.084
749.58	0.084
749.77	0.084
749.96	0.084
750.16	0.084
750.35	0.084
750.54	0.084
750.73	0.084
750.92	0.085
751.11	0.084
751.30	0.084
751.49	0.084
751.68	0.084
751.88	0.084
752.07	0.084
752.26	0.084
752.45	0.084
752.64	0.084
752.83	0.084
753.02	0.084
753.21	0.084
753.40	0.083
753.60	0.084
753.79	0.084
753.98	0.084
754.17	0.084
754.36	0.083
754.55	0.083
754.74	0.083
754.93	0.083
755.12	0.083
755.31	0.083
755.50	0.083
755.70	0.082
755.89	0.082
756.08	0.082
756.27	0.082
756.46	0.083
756.65	0.082
756.84	0.082
757.03	0.082
757.22	0.081
757.41	0.081
757.60	0.081
757.79	0.082
757.98	0.082
758.17	0.082
758.36	0.082
758.56	0.081
758.75	0.081
758.94	0.082
759.13	0.082
759.32	0.082
759.51	0.082
759.70	0.082
759.89	0.081
760.08	0.081
760.27	0.081
760.46	0.081
760.65	0.081
760.84	0.081
761.03	0.081
761.22	0.081
761.41	0.082
761.60	0.081
761.79	0.082
761.98	0.082
762.17	0.081
762.36	0.081
762.55	0.081
762.74	0.081
762.93	0.081
763.12	0.080
763.31	0.080
763.50	0.080
763.69	0.080
763.88	0.080
764.07	0.080
764.26	0.080
764.45	0.080
764.64	0.080
764.83	0.079
765.02	0.080
765.21	0.080
765.40	0.080
765.59	0.080
765.78	0.080
765.97	0.080
766.16	0.080
766.35	0.080
766.54	0.080
766.73	0.080
766.92	0.081
767.11	0.080
767.30	0.081
767.49	0.081
767.68	0.081
767.87	0.081
768.06	0.081
768.25	0.080
768.44	0.081
768.63	0.081
768.82	0.081
769.01	0.080
769.20	0.080
769.39	0.080
769.58	0.080
769.77	0.080
769.96	0.080
770.15	0.080
770.34	0.080
770.53	0.079
770.72	0.079
770.91	0.079
771.10	0.079
771.29	0.079
771.47	0.079
771.66	0.079
771.85	0.079
772.04	0.079
772.23	0.079
772.42	0.078
772.61	0.079
772.80	0.079
772.99	0.078
773.18	0.078
773.37	0.079
773.56	0.079
773.75	0.079
773.94	0.078
774.13	0.078
774.31	0.078
774.50	0.078
774.69	0.079
774.88	0.078
775.07	0.078
775.26	0.078
775.45	0.078
775.64	0.078
775.83	0.077
776.02	0.078
776.21	0.078
776.40	0.078
776.58	0.078
776.77	0.078
776.96	0.078
777.15	0.078
777.34	0.078
777.53	0.078
777.72	0.078
777.91	0.078
778.10	0.078
778.28	0.078
778.47	0.078
778.66	0.078
778.85	0.077
779.04	0.077
779.23	0.077
779.42	0.077
779.61	0.077
779.79	0.077
779.98	0.077
780.17	0.077
780.36	0.077
780.55	0.076
780.74	0.076
780.93	0.076
781.12	0.076
781.30	0.076
781.49	0.076
781.68	0.076
781.87	0.076
782.06	0.076
782.25	0.076
782.44	0.076
782.62	0.076
782.81	0.077
783.00	0.076
783.19	0.076
783.38	0.076
783.57	0.076
783.75	0.076
783.94	0.076
784.13	0.076
784.32	0.076
784.51	0.076
784.70	0.076
784.88	0.076
785.07	0.076
785.26	0.076
785.45	0.076
785.64	0.075
785.83	0.076
786.01	0.075
786.20	0.075
786.39	0.075
786.58	0.075
786.77	0.075
786.95	0.075
787.14	0.075
787.33	0.075
787.52	0.075
787.71	0.075
787.90	0.075
788.08	0.075
788.27	0.075
788.46	0.075
788.65	0.075
788.84	0.075
789.02	0.075
789.21	0.075
789.40	0.075
789.59	0.075
789.77	0.076
789.96	0.075
790.15	0.075
790.34	0.075
790.53	0.075
790.71	0.075
790.90	0.075
791.09	0.075
791.28	0.075
791.46	0.075
791.65	0.075
791.84	0.075
792.03	0.074
792.22	0.074
792.40	0.074
792.59	0.074
792.78	0.074
792.97	0.074
793.15	0.074
793.34	0.074
793.53	0.074
793.72	0.073
793.90	0.073
794.09	0.074
794.28	0.074
794.47	0.074
794.65	0.074
794.84	0.074
795.03	0.074
795.22	0.074
795.40	0.074
795.59	0.073
795.78	0.074
795.97	0.074
796.15	0.074
796.34	0.074
796.53	0.074
796.71	0.074
796.90	0.074
797.09	0.075
797.28	0.075
797.46	0.075
797.65	0.075
797.84	0.074
798.02	0.074
798.21	0.074
798.40	0.074
798.59	0.073
798.77	0.073
798.96	0.073
799.15	0.072
799.33	0.073
799.52	0.073
799.71	0.073
799.90	0.073
800.08	0.073
800.27	0.073
800.46	0.072
800.64	0.072
800.83	0.072
801.02	0.072
801.20	0.072
801.39	0.072
801.58	0.072
801.76	0.072
801.95	0.072
802.14	0.072
802.32	0.073
802.51	0.073
802.70	0.072
802.88	0.072
803.07	0.073
803.26	0.072
803.44	0.072
803.63	0.073
803.82	0.073
804.00	0.072
804.19	0.073
804.38	0.073
804.56	0.073
804.75	0.073
804.94	0.073
805.12	0.073
805.31	0.073
805.50	0.073
805.68	0.073
805.87	0.073
806.06	0.073
806.24	0.073
806.43	0.072
806.62	0.073
806.80	0.073
806.99	0.072
807.17	0.072
807.36	0.072
807.55	0.072
807.73	0.072
807.92	0.073
808.11	0.073
808.29	0.072
808.48	0.072
808.66	0.072
808.85	0.072
809.04	0.072
809.22	0.072
809.41	0.072
809.59	0.072
809.78	0.072
809.97	0.071
810.15	0.071
810.34	0.072
810.53	0.071
810.71	0.071
810.90	0.071
811.08	0.071
811.27	0.071
811.45	0.071
811.64	0.071
811.83	0.071
812.01	0.071
812.20	0.071
812.38	0.071
812.57	0.071
812.76	0.071
812.94	0.071
813.13	0.071
813.31	0.071
813.50	0.071
813.68	0.071
813.87	0.071
814.06	0.071
814.24	0.071
814.43	0.071
814.61	0.071
814.80	0.071
814.98	0.071
815.17	0.071
815.36	0.071
815.54	0.071
815.73	0.072
815.91	0.072
816.10	0.072
816.28	0.072
816.47	0.071
816.65	0.071
816.84	0.071
817.03	0.072
817.21	0.072
817.40	0.072
817.58	0.072
817.77	0.072
817.95	0.071
818.14	0.072
818.32	0.072
818.51	0.072
818.69	0.072
818.88	0.072
819.06	0.072
819.25	0.072
819.43	0.072
819.62	0.072
819.80	0.071
819.99	0.072
820.18	0.072
820.36	0.071
820.55	0.072
820.73	0.072
820.92	0.071
821.10	0.071
821.29	0.071
821.47	0.071
821.66	0.071
821.84	0.071
822.03	0.072
822.21	0.072
822.40	0.072
822.58	0.072
822.77	0.072
822.95	0.072
823.14	0.072
823.32	0.072
823.50	0.073
823.69	0.073
823.87	0.073
824.06	0.073
824.24	0.073
824.43	0.073
824.61	0.073
824.80	0.073
824.98	0.073
825.17	0.073
825.35	0.073
825.54	0.074
825.72	0.073
825.91	0.073
826.09	0.073
826.28	0.073
826.46	0.073
826.64	0.073
826.83	0.074
827.01	0.074
827.20	0.074
827.38	0.074
827.57	0.074
827.75	0.074
827.94	0.074
828.12	0.075
828.31	0.075
828.49	0.075
828.67	0.075
828.86	0.075
829.04	0.075
829.23	0.075
829.41	0.075
829.60	0.075
829.78	0.076
829.96	0.076
830.15	0.076
830.33	0.076
830.52	0.077
830.70	0.076
830.88	0.076
831.07	0.076
831.25	0.077
831.44	0.076
831.62	0.076
831.81	0.076
831.99	0.076
832.17	0.076
832.36	0.076
832.54	0.076
832.73	0.076
832.91	0.076
833.09	0.076
833.28	0.076
833.46	0.076
833.65	0.077
833.83	0.077
834.01	0.077
834.20	0.077
834.38	0.077
834.56	0.077
834.75	0.078
834.93	0.078
835.12	0.078
835.30	0.078
835.48	0.078
835.67	0.078
835.85	0.078
836.03	0.078
836.22	0.077
836.40	0.078
836.59	0.078
836.77	0.078
836.95	0.078
837.14	0.078
837.32	0.077
837.50	0.077
837.69	0.077
837.87	0.077
838.05	0.078
838.24	0.078
838.42	0.078
838.60	0.078
838.79	0.079
838.97	0.078
839.15	0.079
839.34	0.079
839.52	0.079
839.70	0.079
839.89	0.079
840.07	0.079
840.25	0.079
840.44	0.079
840.62	0.079
840.80	0.079
840.99	0.078
841.17	0.078
841.35	0.078
841.54	0.078
841.72	0.078
841.90	0.078
842.09	0.078
842.27	0.078
842.45	0.078
842.64	0.079
842.82	0.079
843.00	0.079
843.19	0.079
843.37	0.079
843.55	0.079
843.73	0.079
843.92	0.078
844.10	0.079
844.28	0.079
844.47	0.079
844.65	0.079
844.83	0.079
845.01	0.080
845.20	0.080
845.38	0.080
845.56	0.080
845.75	0.080
845.93	0.080
846.11	0.080
846.29	0.080
846.48	0.080
846.66	0.081
846.84	0.080
847.02	0.080
847.21	0.080
847.39	0.080
847.57	0.080
847.76	0.080
847.94	0.080
848.12	0.080
848.30	0.080
848.49	0.080
848.67	0.080
848.85	0.080
849.03	0.080
849.22	0.080
849.40	0.080
849.58	0.080
849.76	0.081
849.95	0.081
850.13	0.080
850.31	0.080
850.49	0.080
850.67	0.080
850.86	0.080
851.04	0.080
851.22	0.080
851.40	0.080
851.59	0.080
851.77	0.080
851.95	0.080
852.13	0.080
852.31	0.080
852.50	0.081
852.68	0.081
852.86	0.081
853.04	0.081
853.23	0.081
853.41	0.081
853.59	0.081
853.77	0.081
853.95	0.081
854.14	0.081
854.32	0.081
854.50	0.081
854.68	0.080
854.86	0.080
855.04	0.080
855.23	0.080
855.41	0.080
855.59	0.081
855.77	0.081
855.95	0.081
856.14	0.081
856.32	0.081
856.50	0.081
856.68	0.081
856.86	0.081
857.04	0.080
857.23	0.080
857.41	0.080
857.59	0.080
857.77	0.080
857.95	0.080
858.13	0.080
858.32	0.080
858.50	0.080
858.68	0.080
858.86	0.080
859.04	0.080
859.22	0.080
859.41	0.081
859.59	0.081
859.77	0.081
859.95	0.081
860.13	0.081
860.31	0.081
860.49	0.081
860.68	0.081
860.86	0.081
861.04	0.081
861.22	0.081
861.40	0.081
861.58	0.081
861.76	0.081
861.94	0.081
862.13	0.081
862.31	0.081
862.49	0.081
862.67	0.082
862.85	0.082
863.03	0.082
863.21	0.082
863.39	0.082
863.57	0.083
863.76	0.083
863.94	0.083
864.12	0.082
864.30	0.082
864.48	0.082
864.66	0.082
864.84	0.082
865.02	0.082
865.20	0.082
865.38	0.082
865.57	0.082
865.75	0.082
865.93	0.082
866.11	0.082
866.29	0.082
866.47	0.083
866.65	0.083
866.83	0.083
867.01	0.083
867.19	0.082
867.37	0.082
867.55	0.083
867.73	0.083
867.92	0.083
868.10	0.083
868.28	0.083
868.46	0.083
868.64	0.082
868.82	0.082
869.00	0.083
869.18	0.083
869.36	0.082
869.54	0.082
869.72	0.083
869.90	0.082
870.08	0.082
870.26	0.082
870.44	0.083
870.62	0.082
870.80	0.083
870.98	0.083
871.16	0.083
871.34	0.083
871.53	0.083
871.71	0.083
871.89	0.083
872.07	0.083
872.25	0.083
872.43	0.083
872.61	0.084
872.79	0.083
872.97	0.084
873.15	0.083
873.33	0.084
873.51	0.084
873.69	0.084
873.87	0.084
874.05	0.084
874.23	0.084
874.41	0.083
874.59	0.084
874.77	0.084
874.95	0.084
875.13	0.084
875.31	0.083
875.49	0.084
875.67	0.083
875.85	0.084
876.03	0.084
876.21	0.084
876.39	0.084
876.57	0.084
876.75	0.084
876.93	0.084
877.11	0.084
877.29	0.084
877.47	0.084
877.65	0.084
877.82	0.084
878.00	0.084
878.18	0.084
878.36	0.084
878.54	0.084
878.72	0.084
878.90	0.084
879.08	0.085
879.26	0.085
879.44	0.085
879.62	0.085
879.80	0.085
879.98	0.085
880.16	0.085
880.34	0.085
880.52	0.085
880.70	0.085
880.88	0.085
881.06	0.085
881.24	0.085
881.42	0.085
881.59	0.085
881.77	0.084
881.95	0.084
882.13	0.085
882.31	0.085
882.49	0.084
882.67	0.085
882.85	0.085
883.03	0.085
883.21	0.085
883.39	0.085
883.57	0.085
883.75	0.086
883.92	0.085
884.10	0.086
884.28	0.086
884.46	0.086
884.64	0.086
884.82	0.086
885.00	0.086
885.18	0.086
885.36	0.086
885.54	0.086
885.71	0.086
885.89	0.086
886.07	0.086
886.25	0.086
886.43	0.086
886.61	0.086
886.79	0.086
886.97	0.086
887.15	0.086
887.32	0.086
887.50	0.086
887.68	0.086
887.86	0.086
888.04	0.087
888.22	0.087
888.40	0.087
888.57	0.087
888.75	0.087
888.93	0.087
889.11	0.087
889.29	0.087
889.47	0.087
889.65	0.087
889.82	0.087
890.00	0.087
890.18	0.087
890.36	0.087
890.54	0.087
890.72	0.087
890.90	0.088
891.07	0.087
891.25	0.087
891.43	0.087
891.61	0.087
891.79	0.087
891.97	0.087
892.14	0.087
892.32	0.087
892.50	0.088
892.68	0.088
892.86	0.088
893.03	0.088
893.21	0.088
893.39	0.089
893.57	0.089
893.75	0.089
893.93	0.089
894.10	0.089
894.28	0.089
894.46	0.089
894.64	0.089
894.82	0.088
894.99	0.088
895.17	0.088
895.35	0.088
895.53	0.088
895.71	0.088
895.88	0.088
896.06	0.088
896.24	0.088
896.42	0.088
896.59	0.088
896.77	0.088
896.95	0.088
897.13	0.088
897.31	0.088
897.48	0.088
897.66	0.089
897.84	0.089
898.02	0.089
898.19	0.089
898.37	0.089
898.55	0.089
898.73	0.090
898.91	0.090
899.08	0.090
899.26	0.089
899.44	0.090
899.62	0.089
899.79	0.090
899.97	0.090
900.15	0.090
900.33	0.090
900.50	0.089
900.68	0.089
900.86	0.089
901.04	0.090
901.21	0.090
901.39	0.090
901.57	0.090
901.74	0.090
901.92	0.090
902.10	0.090
902.28	0.090
902.45	0.090
902.63	0.090
902.81	0.090
902.99	0.090
903.16	0.091
903.34	0.091
903.52	0.091
903.69	0.091
903.87	0.091
904.05	0.091
904.22	0.092
904.40	0.092
904.58	0.092
904.76	0.092
904.93	0.092
905.11	0.092
905.29	0.092
905.46	0.092
905.64	0.092
905.82	0.092
905.99	0.091
906.17	0.091
906.35	0.092
906.53	0.092
906.70	0.092
906.88	0.092
907.06	0.092
907.23	0.092
907.41	0.092
907.59	0.092
907.76	0.093
907.94	0.093
908.12	0.093
908.29	0.093
908.47	0.093
908.65	0.093
908.82	0.093
909.00	0.093
909.18	0.093
909.35	0.093
909.53	0.093
909.71	0.093
909.88	0.093
910.06	0.093
910.23	0.093
910.41	0.094
910.59	0.093
910.76	0.093
910.94	0.093
911.12	0.093
911.29	0.093
911.47	0.093
911.65	0.094
911.82	0.094
912.00	0.094
912.17	0.094
912.35	0.094
912.53	0.094
912.70	0.094
912.88	0.094
913.06	0.095
913.23	0.095
913.41	0.095
913.58	0.095
913.76	0.095
913.94	0.095
914.11	0.095
914.29	0.095
914.46	0.096
914.64	0.096
914.82	0.096
914.99	0.096
915.17	0.096
915.34	0.096
915.52	0.096
915.70	0.096
915.87	0.096
916.05	0.096
916.22	0.096
916.40	0.096
916.57	0.096
916.75	0.097
916.93	0.097
917.10	0.097
917.28	0.097
917.45	0.097
917.63	0.097
917.80	0.097
917.98	0.097
918.16	0.097
918.33	0.097
918.51	0.098
918.68	0.097
918.86	0.098
919.03	0.098
919.21	0.098
919.39	0.099
919.56	0.099
919.74	0.099
919.91	0.099
920.09	0.100
920.26	0.100
920.44	0.100
920.61	0.100
920.79	0.100
920.96	0.100
921.14	0.101
921.31	0.101
921.49	0.101
921.67	0.101
921.84	0.102
922.02	0.101
922.19	0.102
922.37	0.102
922.54	0.102
922.72	0.102
922.89	0.103
923.07	0.103
923.24	0.103
923.42	0.103
923.59	0.103
923.77	0.104
923.94	0.104
924.12	0.104
924.29	0.105
924.47	0.105
924.64	0.106
924.82	0.106
924.99	0.106
925.17	0.107
925.34	0.107
925.52	0.108
925.69	0.108
925.87	0.108
926.04	0.109
926.22	0.109
926.39	0.109
926.57	0.109
926.74	0.109
926.91	0.110
927.09	0.110
927.26	0.110
927.44	0.110
927.61	0.111
927.79	0.111
927.96	0.112
928.14	0.112
928.31	0.112
928.49	0.112
928.66	0.113
928.84	0.113
929.01	0.113
929.18	0.114
929.36	0.115
929.53	0.115
929.71	0.116
929.88	0.116
930.06	0.116
930.23	0.117
930.41	0.117
930.58	0.118
930.75	0.118
930.93	0.118
931.10	0.119
931.28	0.119
931.45	0.120
931.63	0.120
931.80	0.120
931.97	0.121
932.15	0.122
932.32	0.122
932.50	0.123
932.67	0.123
932.84	0.124
933.02	0.124
933.19	0.124
933.37	0.125
933.54	0.125
933.71	0.126
933.89	0.127
934.06	0.127
934.24	0.127
934.41	0.127
934.58	0.128
934.76	0.129
934.93	0.129
935.11	0.130
935.28	0.130
935.45	0.130
935.63	0.131
935.80	0.131
935.98	0.131
936.15	0.131
936.32	0.132
936.50	0.132
936.67	0.133
936.84	0.133
937.02	0.134
937.19	0.135
937.36	0.136
937.54	0.136
937.71	0.137
937.89	0.137
938.06	0.138
938.23	0.139
938.41	0.140
938.58	0.140
938.75	0.140
938.93	0.141
939.10	0.141
939.27	0.141
939.45	0.142
939.62	0.142
939.79	0.143
939.97	0.143
940.14	0.144
940.31	0.145
940.49	0.145
940.66	0.145
940.83	0.146
941.01	0.147
941.18	0.148
941.35	0.148
941.53	0.149
941.70	0.150
941.87	0.150
942.05	0.150
942.22	0.151
942.39	0.152
942.57	0.152
942.74	0.153
942.91	0.153
943.08	0.154
943.26	0.155
943.43	0.156
943.60	0.157
943.78	0.157
943.95	0.158
944.12	0.158
944.29	0.159
944.47	0.159
944.64	0.160
944.81	0.162
944.99	0.162
945.16	0.163
945.33	0.163
945.50	0.163
945.68	0.164
945.85	0.165
946.02	0.167
946.20	0.167
946.37	0.168
946.54	0.169
946.71	0.170
946.89	0.170
947.06	0.171
947.23	0.171
947.40	0.173
947.58	0.173
947.75	0.174
947.92	0.175
948.09	0.175
948.27	0.176
948.44	0.178
948.61	0.179
948.78	0.179
948.96	0.181
949.13	0.182
949.30	0.183
949.47	0.184
949.65	0.186
949.82	0.188
949.99	0.188
950.16	0.190
950.33	0.191
950.51	0.192
950.68	0.194
950.85	0.194
951.02	0.196
951.20	0.196
951.37	0.198
951.54	0.198
951.71	0.199
951.88	0.200
952.06	0.201
952.23	0.202
952.40	0.203
952.57	0.204
952.74	0.206
952.92	0.207
953.09	0.209
953.26	0.210
953.43	0.211
953.60	0.212
953.77	0.213
953.95	0.214
954.12	0.216
954.29	0.216
954.46	0.219
954.63	0.220
954.81	0.221
954.98	0.221
955.15	0.223
955.32	0.225
955.49	0.225
955.66	0.226
955.84	0.228
956.01	0.228
956.18	0.231
956.35	0.232
956.52	0.232
956.69	0.234
956.87	0.235
957.04	0.235
957.21	0.238
957.38	0.238
957.55	0.239
957.72	0.240
957.89	0.241
958.07	0.241
958.24	0.243
958.41	0.245
958.58	0.245
958.75	0.245
958.92	0.246
959.09	0.246
959.26	0.247
959.44	0.248
959.61	0.249
959.78	0.249
959.95	0.251
960.12	0.251
960.29	0.253
960.46	0.252
960.63	0.253
960.81	0.253
960.98	0.254
961.15	0.255
961.32	0.256
961.49	0.255
961.66	0.257
961.83	0.257
962.00	0.257
962.17	0.258
962.34	0.258
962.52	0.259
962.69	0.259
962.86	0.259
963.03	0.259
963.20	0.260
963.37	0.259
963.54	0.260
963.71	0.259
963.88	0.260
964.05	0.260
964.22	0.262
964.39	0.260
964.56	0.261
964.74	0.262
964.91	0.261
965.08	0.262
965.25	0.263
965.42	0.263
965.59	0.264
965.76	0.264
965.93	0.265
966.10	0.263
966.27	0.264
966.44	0.263
966.61	0.265
966.78	0.265
966.95	0.264
967.12	0.265
967.29	0.267
967.46	0.266
967.63	0.266
967.80	0.267
967.97	0.266
968.14	0.266
968.32	0.267
968.49	0.267
968.66	0.266
968.83	0.267
969.00	0.267
969.17	0.266
969.34	0.267
969.51	0.268
969.68	0.267
969.85	0.268
970.02	0.268
970.19	0.268
970.36	0.268
970.53	0.268
970.70	0.266
970.87	0.267
971.04	0.266
971.21	0.267
971.38	0.267
971.55	0.267
971.72	0.267
971.89	0.268
972.06	0.267
972.23	0.267
972.40	0.267
972.57	0.267
972.74	0.267
972.91	0.268
973.07	0.267
973.24	0.267
973.41	0.267
973.58	0.265
973.75	0.278
973.92	0.266
974.09	0.266
974.26	0.266
974.43	0.265
974.60	0.266
974.77	0.266
974.94	0.265
975.11	0.266
975.28	0.267
975.45	0.266
975.62	0.267
975.79	0.269
975.96	0.267
976.13	0.266
976.30	0.268
976.47	0.266
976.64	0.267
976.80	0.268
976.97	0.268
977.14	0.267
977.31	0.267
977.48	0.267
977.65	0.267
977.82	0.265
977.99	0.267
978.16	0.267
978.33	0.266
978.50	0.265
978.67	0.265
978.83	0.265
979.00	0.265
979.17	0.265
979.34	0.264
979.51	0.264
979.68	0.264
979.85	0.263
980.02	0.264
980.19	0.262
980.36	0.264
980.52	0.266
980.69	0.264
980.86	0.264
981.03	0.264
981.20	0.263
981.37	0.264
981.54	0.264
981.71	0.263
981.88	0.263
982.04	0.263
982.21	0.262
982.38	0.263
982.55	0.262
982.72	0.261
982.89	0.262
983.06	0.260
983.22	0.260
983.39	0.261
983.56	0.260
983.73	0.259
983.90	0.258
984.07	0.260
984.24	0.258
984.40	0.258
984.57	0.256
984.74	0.258
984.91	0.259
985.08	0.257
985.25	0.255
985.41	0.256
985.58	0.255
985.75	0.257
985.92	0.256
986.09	0.255
986.26	0.255
986.42	0.254
986.59	0.252
986.76	0.254
986.93	0.254
987.10	0.254
987.27	0.252
987.43	0.251
987.60	0.252
987.77	0.252
987.94	0.251
988.11	0.252
988.27	0.252
988.44	0.252
988.61	0.251
988.78	0.250
988.95	0.250
989.11	0.252
989.28	0.251
989.45	0.250
989.62	0.249
989.79	0.249
989.95	0.248
990.12	0.249
990.29	0.249
990.46	0.247
990.62	0.246
990.79	0.246
990.96	0.247
991.13	0.247
991.30	0.245
991.46	0.245
991.63	0.243
991.80	0.242
991.97	0.242
992.13	0.243
992.30	0.244
992.47	0.241
992.64	0.241
992.80	0.241
992.97	0.242
993.14	0.239
993.31	0.236
993.47	0.239
993.64	0.238
993.81	0.238
993.98	0.238
994.14	0.237
994.31	0.236
994.48	0.237
994.64	0.237
994.81	0.236
994.98	0.236
995.15	0.233
995.31	0.233
995.48	0.233
995.65	0.234
995.82	0.231
995.98	0.231
996.15	0.232
996.32	0.234
996.48	0.233
996.65	0.233
996.82	0.231
996.99	0.232
997.15	0.232
997.32	0.232
997.49	0.231
997.65	0.232
997.82	0.231
997.99	0.229
998.15	0.229
998.32	0.229
998.49	0.228
998.65	0.228
998.82	0.227
998.99	0.225
999.15	0.226
999.32	0.225
999.49	0.224
999.65	0.224
999.82	0.222
999.99	0.222
1000.15	0.222
1000.32	0.222
1000.49	0.223
1000.65	0.220
1000.82	0.220
1000.99	0.221
1001.15	0.221
1001.32	0.221
1001.49	0.221
1001.65	0.221
1001.82	0.223
1001.99	0.220
1002.15	0.219
1002.32	0.219
1002.49	0.220
1002.65	0.219
1002.82	0.217
1002.99	0.216
1003.15	0.219
1003.32	0.218
1003.48	0.217
1003.65	0.218
1003.82	0.216
1003.98	0.214
1004.15	0.214
1004.32	0.214
1004.48	0.214
1004.65	0.216
1004.81	0.214
1004.98	0.211
1005.15	0.212
1005.31	0.212
1005.48	0.209
1005.64	0.209
1005.81	0.212
1005.98	0.208
1006.14	0.208
1006.31	0.208
1006.47	0.206
1006.64	0.205
1006.81	0.205
1006.97	0.205
1007.14	0.205
1007.30	0.206
1007.47	0.205
1007.63	0.204
1007.80	0.203
1007.97	0.203
1008.13	0.202
1008.30	0.202
1008.46	0.202
1008.63	0.201
1008.79	0.201
1008.96	0.201
1009.13	0.203
1009.29	0.200
1009.46	0.201
1009.62	0.200
1009.79	0.198
1009.95	0.198
1010.12	0.198
1010.28	0.198
1010.45	0.198
1010.62	0.197
1010.78	0.195
1010.95	0.193
1011.11	0.194
1011.28	0.193
1011.44	0.196
1011.61	0.194
1011.77	0.193
1011.94	0.193
1012.10	0.193
1012.27	0.193
1012.43	0.193
1012.60	0.192
1012.76	0.193
1012.93	0.192
1013.10	0.190
1013.26	0.188
1013.43	0.189
1013.59	0.197
1013.76	0.190
1013.92	0.189
1014.09	0.187
1014.25	0.188
1014.42	0.189
1014.58	0.188
1014.75	0.190
1014.91	0.188
1015.08	0.190
1015.24	0.186
1015.41	0.188
1015.57	0.188
1015.73	0.185
1015.90	0.183
1016.06	0.185
1016.23	0.184
1016.39	0.184
1016.56	0.184
1016.72	0.184
1016.89	0.183
1017.05	0.186
1017.22	0.182
1017.38	0.182
1017.55	0.181
1017.71	0.183
1017.88	0.182
1018.04	0.183
1018.21	0.180
1018.37	0.180
1018.53	0.180
1018.70	0.179
1018.86	0.178
1019.03	0.179
1019.19	0.178
1019.36	0.178
1019.52	0.179
1019.69	0.180
1019.85	0.178
1020.01	0.178
1020.18	0.177
1020.34	0.177
1020.51	0.176
1020.67	0.178
1020.84	0.175
1021.00	0.176
1021.16	0.174
1021.33	0.174
1021.49	0.172
1021.66	0.173
1021.82	0.172
1021.98	0.172
1022.15	0.171
1022.31	0.170
1022.48	0.169
1022.64	0.171
1022.80	0.170
1022.97	0.168
1023.13	0.168
1023.30	0.169
1023.46	0.170
1023.62	0.166
1023.79	0.168
1023.95	0.169
1024.12	0.168
1024.28	0.166
1024.44	0.166
1024.61	0.165
1024.77	0.164
1024.93	0.163
1025.10	0.163
1025.26	0.161
1025.43	0.162
1025.59	0.158
1025.75	0.162
1025.92	0.161
1026.08	0.162
1026.24	0.162
1026.41	0.163
1026.57	0.161
1026.73	0.158
1026.90	0.161
1027.06	0.159
1027.23	0.161
1027.39	0.161
1027.55	0.161
1027.72	0.160
1027.88	0.159
1028.04	0.159
1028.21	0.159
1028.37	0.153
1028.53	0.159
1028.70	0.156
1028.86	0.154
1029.02	0.154
1029.19	0.155
1029.35	0.153
1029.51	0.153
1029.67	0.152
1029.84	0.153
1030.00	0.148
1030.16	0.148
1030.33	0.151
1030.49	0.148
1030.65	0.146
1030.82	0.161
1030.98	0.147
1031.14	0.147
1031.31	0.148
1031.47	0.145
1031.63	0.148
1031.79	0.149
1031.96	0.151
1032.12	0.153
1032.28	0.150
1032.45	0.154
1032.61	0.152
1032.77	0.152
1032.93	0.150
1033.10	0.150
1033.26	0.153
1033.42	0.152
1033.58	0.151
1033.75	0.152
1033.91	0.150
1034.07	0.152
1034.24	0.150
1034.40	0.148
1034.56	0.147
1034.72	0.147
1034.89	0.146
1035.05	0.144
1035.21	0.142
1035.37	0.142
1035.54	0.144
1035.70	0.142
1035.86	0.142
1036.02	0.144
1036.19	0.142
1036.35	0.140
1036.51	0.144
1036.67	0.142
1036.83	0.142
1037.00	0.141
1037.16	0.141
1037.32	0.142
1037.48	0.141
1037.65	0.145
1037.81	0.140
1037.97	0.140
1038.13	0.141
1038.29	0.139
1038.46	0.137
1038.62	0.142
1038.78	0.140
1038.94	0.138
1039.10	0.141
1039.27	0.136
1039.43	0.138
1039.59	0.139
1039.75	0.138
1039.91	0.136
1040.08	0.137
1040.24	0.139
1040.40	0.140
1040.56	0.138
1040.72	0.132
1040.89	0.134
1041.05	0.136
1041.21	0.135
1041.37	0.132
1041.53	0.139
1041.69	0.137
1041.86	0.136
1042.02	0.133
1042.18	0.132
1042.34	0.134
1042.50	0.138
1042.66	0.136
1042.83	0.135
1042.99	0.138
1043.15	0.133
1043.31	0.132
1043.47	0.135
1043.63	0.132
1043.79	0.132
1043.96	0.133
1044.12	0.137
1044.28	0.133
1044.44	0.135
1044.60	0.130
1044.76	0.128
1044.92	0.132
1045.09	0.134
1045.25	0.130
1045.41	0.131
1045.57	0.127
1045.73	0.127
1045.89	0.127
1046.05	0.129
1046.21	0.130
1046.38	0.131
1046.54	0.139
1046.70	0.131
1046.86	0.124
>>>>>End Processed Spectral Data<<<<<
