SpectraSuite Data File
++++++++++++++++++++++++++++++++++++
Date: Mon May 20 12:14:03 CDT 2013
User: Students
Dark Spectrum Present: Yes
Reference Spectrum Present: Yes
Number of Sampled Component Spectra: 1
Spectrometers: USB4H00887
Integration Time (usec): 60000 (USB4H00887)
Spectra Averaged: 5 (USB4H00887)
Boxcar Smoothing: 5 (USB4H00887)
Correct for Electrical Dark: No (USB4H00887)
Strobe/Lamp Enabled: No (USB4H00887)
Correct for Detector Non-linearity: No (USB4H00887)
Correct for Stray Light: No (USB4H00887)
Number of Pixels in Processed Spectrum: 3648
>>>>>Begin Processed Spectral Data<<<<<
345.83	-0.044
346.05	-0.044
346.26	-0.044
346.48	-0.000
346.70	0.263
346.92	0.125
347.14	0.095
347.35	0.091
347.57	0.782
347.79	-0.355
348.01	-0.238
348.23	-0.397
348.44	-0.000
348.66	0.338
348.88	-0.418
349.10	-0.197
349.32	0.062
349.53	-0.008
349.75	-0.060
349.97	-0.052
350.19	0.006
350.41	-0.026
350.62	-0.100
350.84	0.009
351.06	-0.004
351.28	-0.012
351.50	-0.136
351.71	-0.027
351.93	0.001
352.15	0.039
352.37	0.277
352.58	0.081
352.80	0.090
353.02	0.129
353.24	0.161
353.46	-0.000
353.67	-0.245
353.89	0.108
354.11	0.084
354.33	0.106
354.54	0.126
354.76	0.208
354.98	0.240
355.20	0.208
355.41	0.070
355.63	0.138
355.85	0.075
356.07	-0.000
356.28	0.085
356.50	0.129
356.72	0.037
356.94	0.123
357.15	0.155
357.37	-0.000
357.59	0.065
357.81	0.032
358.02	0.065
358.24	0.044
358.46	0.123
358.68	0.081
358.89	0.066
359.11	-0.000
359.33	0.044
359.55	-0.411
359.76	0.090
359.98	0.108
360.20	0.164
360.42	0.144
360.63	0.167
360.85	0.090
361.07	0.476
361.29	0.054
361.50	0.170
361.72	0.072
361.94	0.254
362.15	0.107
362.37	0.066
362.59	0.050
362.81	0.080
363.02	0.137
363.24	0.290
363.46	0.208
363.68	0.296
363.89	0.187
364.11	0.271
364.33	0.370
364.54	0.229
364.76	0.272
364.98	0.285
365.20	0.274
365.41	0.173
365.63	0.199
365.85	0.126
366.06	0.334
366.28	0.321
366.50	0.188
366.71	0.073
366.93	0.087
367.15	0.093
367.37	0.097
367.58	0.160
367.80	0.158
368.02	0.443
368.23	0.154
368.45	0.154
368.67	0.131
368.88	0.155
369.10	-0.000
369.32	0.158
369.53	0.089
369.75	0.128
369.97	0.235
370.19	0.180
370.40	0.068
370.62	0.163
370.84	0.073
371.05	0.486
371.27	0.108
371.49	0.152
371.70	0.175
371.92	0.256
372.14	0.138
372.35	0.157
372.57	0.179
372.79	0.476
373.00	0.115
373.22	0.203
373.44	0.169
373.65	0.129
373.87	0.158
374.09	0.791
374.30	0.130
374.52	0.117
374.74	0.077
374.95	0.236
375.17	0.095
375.39	-0.000
375.60	0.121
375.82	0.212
376.04	0.098
376.25	0.118
376.47	0.073
376.68	0.187
376.90	0.117
377.12	0.255
377.33	0.149
377.55	0.329
377.77	0.169
377.98	0.260
378.20	0.148
378.42	0.178
378.63	0.219
378.85	-0.000
379.07	0.153
379.28	0.676
379.50	0.375
379.71	0.192
379.93	0.129
380.15	0.148
380.36	0.200
380.58	0.151
380.80	0.396
381.01	0.123
381.23	0.097
381.44	0.108
381.66	0.120
381.88	0.126
382.09	-0.067
382.31	0.106
382.53	0.118
382.74	0.631
382.96	0.171
383.17	0.139
383.39	0.202
383.61	0.276
383.82	0.189
384.04	0.232
384.25	0.288
384.47	0.259
384.69	0.246
384.90	0.236
385.12	0.449
385.33	0.272
385.55	0.224
385.77	0.328
385.98	0.168
386.20	0.231
386.41	0.195
386.63	0.241
386.85	0.205
387.06	0.254
387.28	0.403
387.49	0.283
387.71	0.201
387.93	0.179
388.14	0.590
388.36	0.236
388.57	0.217
388.79	0.248
389.01	-0.000
389.22	0.305
389.44	0.277
389.65	0.220
389.87	0.207
390.08	0.256
390.30	0.192
390.52	0.410
390.73	0.435
390.95	0.301
391.16	0.289
391.38	-0.000
391.59	0.330
391.81	0.270
392.03	0.253
392.24	0.307
392.46	0.257
392.67	0.227
392.89	0.291
393.10	0.428
393.32	0.298
393.53	0.324
393.75	0.212
393.97	0.244
394.18	0.330
394.40	0.297
394.61	0.296
394.83	0.257
395.04	0.301
395.26	0.210
395.47	0.314
395.69	0.262
395.91	0.284
396.12	0.337
396.34	0.335
396.55	0.217
396.77	0.320
396.98	-0.000
397.20	0.414
397.41	0.482
397.63	0.326
397.84	0.289
398.06	0.262
398.27	0.286
398.49	0.343
398.71	0.254
398.92	0.314
399.14	0.410
399.35	0.526
399.57	0.487
399.78	0.317
400.00	0.303
400.21	0.398
400.43	0.314
400.64	0.316
400.86	0.734
401.07	0.391
401.29	0.339
401.50	0.358
401.72	0.536
401.93	0.338
402.15	0.419
402.36	0.379
402.58	0.295
402.79	0.337
403.01	0.597
403.22	0.447
403.44	0.286
403.65	0.460
403.87	0.522
404.08	0.400
404.30	0.652
404.51	0.340
404.73	0.421
404.94	0.364
405.16	0.363
405.37	0.276
405.59	0.482
405.80	0.304
406.02	0.369
406.23	0.359
406.45	0.392
406.66	0.419
406.88	0.283
407.09	0.434
407.31	0.362
407.52	0.443
407.74	0.364
407.95	0.442
408.17	0.414
408.38	0.442
408.60	0.292
408.81	0.486
409.03	0.367
409.24	0.363
409.45	0.415
409.67	0.386
409.88	0.351
410.10	0.459
410.31	0.394
410.53	0.385
410.74	0.533
410.96	0.521
411.17	0.574
411.39	0.429
411.60	0.392
411.82	0.463
412.03	0.449
412.24	0.421
412.46	0.611
412.67	0.504
412.89	0.485
413.10	0.480
413.32	0.426
413.53	0.480
413.75	0.495
413.96	0.375
414.17	0.496
414.39	0.493
414.60	0.410
414.82	0.542
415.03	0.404
415.25	0.444
415.46	0.314
415.68	0.442
415.89	0.801
416.10	0.642
416.32	0.365
416.53	0.427
416.75	0.407
416.96	0.495
417.18	0.427
417.39	0.415
417.60	0.420
417.82	0.632
418.03	0.563
418.25	0.461
418.46	0.484
418.67	0.439
418.89	0.473
419.10	0.494
419.32	0.670
419.53	0.610
419.75	0.503
419.96	0.439
420.17	0.522
420.39	0.483
420.60	0.498
420.82	0.616
421.03	0.496
421.24	0.420
421.46	0.470
421.67	0.504
421.89	0.436
422.10	0.479
422.31	0.475
422.53	0.695
422.74	0.518
422.96	0.416
423.17	0.468
423.38	0.577
423.60	0.481
423.81	0.587
424.03	0.507
424.24	0.564
424.45	0.555
424.67	0.555
424.88	0.486
425.09	0.525
425.31	0.494
425.52	0.515
425.74	0.567
425.95	0.602
426.16	0.479
426.38	0.550
426.59	0.508
426.80	0.583
427.02	0.604
427.23	0.476
427.45	0.609
427.66	0.589
427.87	0.465
428.09	0.499
428.30	0.563
428.51	0.552
428.73	0.612
428.94	0.534
429.15	0.518
429.37	0.499
429.58	0.527
429.79	0.489
430.01	0.572
430.22	0.563
430.44	0.582
430.65	0.524
430.86	0.555
431.08	0.542
431.29	0.503
431.50	0.584
431.72	0.761
431.93	0.629
432.14	0.482
432.36	0.531
432.57	0.544
432.78	0.557
433.00	0.510
433.21	0.503
433.42	0.619
433.64	0.537
433.85	0.612
434.06	0.503
434.28	0.525
434.49	0.539
434.70	0.548
434.92	0.558
435.13	0.599
435.34	0.601
435.56	0.572
435.77	0.564
435.98	0.721
436.20	0.614
436.41	0.536
436.62	0.534
436.83	0.597
437.05	0.680
437.26	0.606
437.47	0.547
437.69	0.602
437.90	0.552
438.11	0.544
438.33	0.598
438.54	0.610
438.75	0.778
438.97	0.753
439.18	0.577
439.39	0.605
439.60	0.646
439.82	0.604
440.03	0.561
440.24	0.815
440.46	0.617
440.67	0.593
440.88	0.637
441.10	0.597
441.31	0.595
441.52	0.641
441.73	0.715
441.95	0.636
442.16	0.589
442.37	0.899
442.58	0.575
442.80	0.568
443.01	0.732
443.22	0.677
443.44	0.569
443.65	0.671
443.86	0.673
444.07	0.722
444.29	0.623
444.50	0.780
444.71	0.608
444.92	0.569
445.14	0.713
445.35	0.749
445.56	0.585
445.78	0.682
445.99	0.676
446.20	0.583
446.41	0.649
446.63	0.645
446.84	0.614
447.05	0.611
447.26	0.717
447.48	0.617
447.69	0.586
447.90	0.664
448.11	0.599
448.33	0.626
448.54	0.642
448.75	0.669
448.96	0.688
449.18	0.729
449.39	0.655
449.60	0.646
449.81	0.774
450.03	0.682
450.24	0.740
450.45	0.697
450.66	0.681
450.87	0.713
451.09	0.663
451.30	0.639
451.51	0.705
451.72	0.714
451.94	0.724
452.15	0.794
452.36	0.663
452.57	0.676
452.78	0.681
453.00	0.713
453.21	0.673
453.42	0.650
453.63	0.748
453.85	0.712
454.06	0.706
454.27	0.825
454.48	0.733
454.69	0.668
454.91	0.738
455.12	0.650
455.33	0.730
455.54	0.750
455.75	0.722
455.97	0.743
456.18	0.737
456.39	0.750
456.60	0.773
456.81	0.713
457.03	0.719
457.24	0.723
457.45	0.804
457.66	0.743
457.87	0.697
458.09	0.714
458.30	0.635
458.51	0.747
458.72	0.763
458.93	0.777
459.15	0.688
459.36	0.752
459.57	0.765
459.78	0.803
459.99	0.727
460.20	0.691
460.42	0.772
460.63	0.732
460.84	0.714
461.05	0.734
461.26	0.785
461.47	0.713
461.69	0.760
461.90	0.793
462.11	0.757
462.32	0.805
462.53	0.757
462.74	0.843
462.96	0.734
463.17	0.728
463.38	0.766
463.59	0.867
463.80	0.722
464.01	0.737
464.23	0.811
464.44	0.775
464.65	0.786
464.86	0.803
465.07	0.807
465.28	0.778
465.49	0.795
465.71	0.751
465.92	0.790
466.13	0.832
466.34	0.777
466.55	0.826
466.76	0.788
466.97	0.809
467.19	0.795
467.40	0.827
467.61	0.828
467.82	0.761
468.03	0.746
468.24	0.808
468.45	0.838
468.66	0.823
468.88	0.832
469.09	0.841
469.30	0.881
469.51	0.818
469.72	0.857
469.93	0.827
470.14	0.804
470.35	0.884
470.57	0.837
470.78	0.780
470.99	0.893
471.20	0.841
471.41	0.802
471.62	0.849
471.83	0.826
472.04	0.850
472.25	0.888
472.47	0.816
472.68	0.819
472.89	0.826
473.10	0.867
473.31	0.826
473.52	0.879
473.73	0.900
473.94	0.825
474.15	0.845
474.36	0.848
474.57	0.874
474.79	0.850
475.00	0.852
475.21	0.839
475.42	0.914
475.63	0.826
475.84	0.852
476.05	0.853
476.26	0.828
476.47	0.855
476.68	0.892
476.89	0.829
477.10	0.873
477.32	0.863
477.53	0.911
477.74	0.848
477.95	0.884
478.16	0.839
478.37	0.880
478.58	0.884
478.79	0.897
479.00	0.903
479.21	0.866
479.42	0.899
479.63	0.905
479.84	0.869
480.05	0.868
480.26	0.893
480.47	0.912
480.69	0.912
480.90	0.884
481.11	0.881
481.32	0.929
481.53	0.878
481.74	0.923
481.95	0.892
482.16	0.907
482.37	0.914
482.58	0.884
482.79	0.898
483.00	0.924
483.21	0.878
483.42	0.853
483.63	0.922
483.84	0.946
484.05	0.938
484.26	0.912
484.47	0.909
484.68	0.872
484.89	0.879
485.10	0.921
485.31	0.902
485.52	0.904
485.73	0.908
485.94	0.943
486.15	0.898
486.37	0.913
486.58	0.883
486.79	0.898
487.00	0.946
487.21	0.938
487.42	0.936
487.63	0.941
487.84	0.957
488.05	0.954
488.26	0.917
488.47	0.925
488.68	0.951
488.89	0.931
489.10	0.924
489.31	0.930
489.52	0.960
489.73	0.928
489.94	0.956
490.15	0.920
490.36	0.955
490.57	0.912
490.78	0.895
490.99	0.926
491.20	0.994
491.41	0.954
491.62	0.906
491.83	0.932
492.04	0.928
492.25	0.939
492.45	0.941
492.66	0.963
492.87	0.954
493.08	0.946
493.29	0.933
493.50	0.922
493.71	0.931
493.92	0.930
494.13	0.940
494.34	0.961
494.55	0.965
494.76	0.987
494.97	0.976
495.18	0.945
495.39	0.956
495.60	0.914
495.81	0.917
496.02	0.933
496.23	0.926
496.44	0.956
496.65	0.946
496.86	0.949
497.07	0.972
497.28	0.971
497.49	0.930
497.70	0.934
497.91	0.952
498.12	0.934
498.32	0.971
498.53	0.959
498.74	0.948
498.95	0.971
499.16	0.934
499.37	0.939
499.58	0.947
499.79	0.972
500.00	0.967
500.21	0.991
500.42	0.944
500.63	0.946
500.84	0.963
501.05	0.946
501.26	0.967
501.46	1.002
501.67	0.969
501.88	0.970
502.09	0.947
502.30	0.953
502.51	0.994
502.72	0.957
502.93	0.971
503.14	0.988
503.35	0.961
503.56	0.959
503.77	0.985
503.97	0.963
504.18	0.962
504.39	0.995
504.60	0.968
504.81	0.992
505.02	0.982
505.23	0.981
505.44	0.967
505.65	0.977
505.86	0.959
506.07	1.015
506.27	0.979
506.48	0.984
506.69	0.969
506.90	0.988
507.11	0.986
507.32	0.966
507.53	0.973
507.74	0.968
507.95	0.979
508.15	0.987
508.36	0.989
508.57	0.999
508.78	0.985
508.99	0.985
509.20	0.962
509.41	0.983
509.62	0.972
509.82	0.970
510.03	0.978
510.24	0.977
510.45	0.993
510.66	0.987
510.87	0.984
511.08	0.950
511.29	0.986
511.49	0.968
511.70	1.008
511.91	0.953
512.12	0.949
512.33	0.976
512.54	0.990
512.75	0.977
512.95	1.000
513.16	0.994
513.37	0.973
513.58	1.006
513.79	0.972
514.00	0.977
514.20	0.992
514.41	0.984
514.62	0.957
514.83	0.991
515.04	0.983
515.25	0.963
515.46	0.972
515.66	0.973
515.87	0.982
516.08	0.958
516.29	0.980
516.50	0.962
516.71	0.958
516.91	0.969
517.12	0.984
517.33	0.971
517.54	0.960
517.75	0.963
517.95	0.974
518.16	0.985
518.37	0.956
518.58	0.960
518.79	0.937
519.00	0.963
519.20	0.970
519.41	0.949
519.62	0.965
519.83	0.974
520.04	0.942
520.24	0.940
520.45	0.949
520.66	0.970
520.87	0.938
521.08	0.936
521.28	0.940
521.49	0.954
521.70	0.926
521.91	0.938
522.12	0.922
522.32	0.942
522.53	0.925
522.74	0.915
522.95	0.924
523.16	0.925
523.36	0.933
523.57	0.917
523.78	0.913
523.99	0.916
524.20	0.910
524.40	0.922
524.61	0.928
524.82	0.905
525.03	0.908
525.23	0.905
525.44	0.891
525.65	0.889
525.86	0.907
526.06	0.881
526.27	0.882
526.48	0.890
526.69	0.872
526.90	0.876
527.10	0.906
527.31	0.869
527.52	0.864
527.73	0.857
527.93	0.866
528.14	0.872
528.35	0.863
528.56	0.865
528.76	0.860
528.97	0.852
529.18	0.843
529.39	0.843
529.59	0.846
529.80	0.873
530.01	0.849
530.22	0.847
530.42	0.820
530.63	0.835
530.84	0.814
531.05	0.825
531.25	0.829
531.46	0.823
531.67	0.804
531.88	0.821
532.08	0.815
532.29	0.811
532.50	0.803
532.70	0.796
532.91	0.789
533.12	0.791
533.33	0.813
533.53	0.785
533.74	0.783
533.95	0.789
534.15	0.778
534.36	0.780
534.57	0.766
534.78	0.768
534.98	0.777
535.19	0.750
535.40	0.752
535.60	0.768
535.81	0.749
536.02	0.752
536.23	0.743
536.43	0.745
536.64	0.731
536.85	0.737
537.05	0.744
537.26	0.724
537.47	0.727
537.67	0.718
537.88	0.714
538.09	0.722
538.30	0.713
538.50	0.706
538.71	0.717
538.92	0.705
539.12	0.702
539.33	0.698
539.54	0.700
539.74	0.703
539.95	0.694
540.16	0.691
540.36	0.683
540.57	0.683
540.78	0.675
540.98	0.674
541.19	0.672
541.40	0.662
541.60	0.671
541.81	0.665
542.02	0.665
542.22	0.657
542.43	0.652
542.64	0.647
542.84	0.648
543.05	0.641
543.26	0.641
543.46	0.643
543.67	0.642
543.88	0.638
544.08	0.629
544.29	0.624
544.50	0.624
544.70	0.626
544.91	0.618
545.12	0.619
545.32	0.614
545.53	0.618
545.74	0.607
545.94	0.603
546.15	0.602
546.35	0.597
546.56	0.594
546.77	0.592
546.97	0.590
547.18	0.582
547.39	0.582
547.59	0.581
547.80	0.577
548.01	0.581
548.21	0.577
548.42	0.570
548.62	0.571
548.83	0.568
549.04	0.565
549.24	0.558
549.45	0.558
549.65	0.554
549.86	0.550
550.07	0.549
550.27	0.546
550.48	0.555
550.69	0.541
550.89	0.541
551.10	0.536
551.30	0.534
551.51	0.534
551.72	0.523
551.92	0.525
552.13	0.524
552.33	0.524
552.54	0.520
552.75	0.513
552.95	0.515
553.16	0.510
553.36	0.508
553.57	0.507
553.78	0.504
553.98	0.505
554.19	0.497
554.39	0.495
554.60	0.498
554.80	0.497
555.01	0.489
555.22	0.491
555.42	0.488
555.63	0.482
555.83	0.486
556.04	0.480
556.25	0.482
556.45	0.473
556.66	0.472
556.86	0.475
557.07	0.473
557.27	0.473
557.48	0.468
557.68	0.465
557.89	0.467
558.10	0.463
558.30	0.460
558.51	0.459
558.71	0.457
558.92	0.452
559.12	0.454
559.33	0.457
559.54	0.451
559.74	0.447
559.95	0.445
560.15	0.445
560.36	0.443
560.56	0.437
560.77	0.438
560.97	0.438
561.18	0.433
561.38	0.432
561.59	0.434
561.79	0.430
562.00	0.428
562.21	0.425
562.41	0.424
562.62	0.422
562.82	0.421
563.03	0.417
563.23	0.417
563.44	0.417
563.64	0.413
563.85	0.414
564.05	0.408
564.26	0.408
564.46	0.408
564.67	0.408
564.87	0.404
565.08	0.401
565.28	0.401
565.49	0.402
565.69	0.399
565.90	0.397
566.10	0.400
566.31	0.393
566.51	0.395
566.72	0.396
566.92	0.390
567.13	0.390
567.33	0.389
567.54	0.387
567.74	0.386
567.95	0.383
568.15	0.383
568.36	0.382
568.56	0.381
568.77	0.376
568.97	0.374
569.18	0.373
569.38	0.371
569.59	0.372
569.79	0.370
570.00	0.368
570.20	0.366
570.41	0.365
570.61	0.363
570.82	0.364
571.02	0.360
571.23	0.362
571.43	0.358
571.64	0.357
571.84	0.356
572.05	0.354
572.25	0.354
572.45	0.352
572.66	0.349
572.86	0.348
573.07	0.347
573.27	0.347
573.48	0.347
573.68	0.342
573.89	0.342
574.09	0.343
574.30	0.341
574.50	0.339
574.70	0.340
574.91	0.337
575.11	0.336
575.32	0.336
575.52	0.332
575.73	0.331
575.93	0.331
576.14	0.329
576.34	0.328
576.54	0.327
576.75	0.325
576.95	0.324
577.16	0.323
577.36	0.322
577.57	0.322
577.77	0.320
577.97	0.318
578.18	0.319
578.38	0.316
578.59	0.314
578.79	0.312
579.00	0.313
579.20	0.311
579.40	0.310
579.61	0.309
579.81	0.308
580.02	0.305
580.22	0.305
580.42	0.304
580.63	0.304
580.83	0.303
581.04	0.301
581.24	0.300
581.45	0.299
581.65	0.299
581.85	0.298
582.06	0.296
582.26	0.296
582.47	0.294
582.67	0.294
582.87	0.293
583.08	0.291
583.28	0.291
583.48	0.290
583.69	0.287
583.89	0.288
584.10	0.289
584.30	0.286
584.50	0.285
584.71	0.284
584.91	0.283
585.12	0.281
585.32	0.283
585.52	0.280
585.73	0.279
585.93	0.278
586.13	0.277
586.34	0.276
586.54	0.275
586.75	0.274
586.95	0.273
587.15	0.273
587.36	0.271
587.56	0.270
587.76	0.269
587.97	0.269
588.17	0.268
588.37	0.268
588.58	0.267
588.78	0.264
588.98	0.264
589.19	0.263
589.39	0.262
589.60	0.263
589.80	0.261
590.00	0.260
590.21	0.260
590.41	0.258
590.61	0.258
590.82	0.257
591.02	0.256
591.22	0.255
591.43	0.256
591.63	0.254
591.83	0.253
592.04	0.252
592.24	0.253
592.44	0.250
592.65	0.249
592.85	0.249
593.05	0.250
593.26	0.248
593.46	0.247
593.66	0.247
593.86	0.246
594.07	0.244
594.27	0.244
594.47	0.242
594.68	0.242
594.88	0.242
595.08	0.242
595.29	0.242
595.49	0.240
595.69	0.239
595.90	0.238
596.10	0.238
596.30	0.238
596.50	0.237
596.71	0.237
596.91	0.236
597.11	0.236
597.32	0.235
597.52	0.234
597.72	0.234
597.93	0.234
598.13	0.232
598.33	0.232
598.53	0.231
598.74	0.231
598.94	0.230
599.14	0.230
599.35	0.230
599.55	0.230
599.75	0.229
599.95	0.229
600.16	0.229
600.36	0.227
600.56	0.227
600.76	0.226
600.97	0.225
601.17	0.225
601.37	0.225
601.58	0.223
601.78	0.223
601.98	0.222
602.18	0.221
602.39	0.221
602.59	0.220
602.79	0.220
602.99	0.219
603.20	0.218
603.40	0.217
603.60	0.217
603.80	0.217
604.01	0.216
604.21	0.215
604.41	0.215
604.61	0.214
604.82	0.213
605.02	0.214
605.22	0.213
605.42	0.213
605.62	0.213
605.83	0.211
606.03	0.210
606.23	0.210
606.43	0.210
606.64	0.210
606.84	0.209
607.04	0.208
607.24	0.208
607.45	0.208
607.65	0.207
607.85	0.208
608.05	0.207
608.25	0.206
608.46	0.206
608.66	0.206
608.86	0.206
609.06	0.205
609.26	0.204
609.47	0.204
609.67	0.203
609.87	0.204
610.07	0.203
610.28	0.202
610.48	0.202
610.68	0.202
610.88	0.201
611.08	0.201
611.29	0.200
611.49	0.199
611.69	0.201
611.89	0.199
612.09	0.198
612.29	0.197
612.50	0.197
612.70	0.197
612.90	0.195
613.10	0.194
613.30	0.194
613.51	0.194
613.71	0.193
613.91	0.197
614.11	0.193
614.31	0.192
614.51	0.192
614.72	0.192
614.92	0.191
615.12	0.191
615.32	0.192
615.52	0.192
615.72	0.192
615.93	0.191
616.13	0.191
616.33	0.190
616.53	0.190
616.73	0.190
616.93	0.189
617.14	0.189
617.34	0.189
617.54	0.189
617.74	0.189
617.94	0.188
618.14	0.188
618.34	0.187
618.55	0.187
618.75	0.187
618.95	0.187
619.15	0.187
619.35	0.186
619.55	0.185
619.75	0.186
619.96	0.185
620.16	0.185
620.36	0.185
620.56	0.184
620.76	0.184
620.96	0.183
621.16	0.183
621.36	0.183
621.57	0.183
621.77	0.184
621.97	0.182
622.17	0.182
622.37	0.182
622.57	0.182
622.77	0.182
622.97	0.181
623.18	0.181
623.38	0.181
623.58	0.180
623.78	0.180
623.98	0.179
624.18	0.178
624.38	0.178
624.58	0.178
624.78	0.179
624.98	0.178
625.19	0.178
625.39	0.178
625.59	0.178
625.79	0.178
625.99	0.178
626.19	0.178
626.39	0.178
626.59	0.178
626.79	0.177
626.99	0.177
627.19	0.176
627.40	0.177
627.60	0.176
627.80	0.176
628.00	0.176
628.20	0.175
628.40	0.175
628.60	0.174
628.80	0.173
629.00	0.173
629.20	0.173
629.40	0.173
629.60	0.172
629.80	0.172
630.00	0.172
630.20	0.172
630.41	0.170
630.61	0.170
630.81	0.171
631.01	0.171
631.21	0.170
631.41	0.170
631.61	0.170
631.81	0.169
632.01	0.169
632.21	0.169
632.41	0.167
632.61	0.168
632.81	0.167
633.01	0.168
633.21	0.167
633.41	0.168
633.61	0.167
633.81	0.167
634.01	0.166
634.21	0.167
634.41	0.166
634.61	0.167
634.81	0.166
635.01	0.166
635.22	0.166
635.42	0.165
635.62	0.165
635.82	0.165
636.02	0.165
636.22	0.164
636.42	0.164
636.62	0.164
636.82	0.163
637.02	0.163
637.22	0.163
637.42	0.163
637.62	0.162
637.82	0.163
638.02	0.162
638.22	0.162
638.42	0.161
638.62	0.161
638.82	0.161
639.02	0.161
639.22	0.160
639.42	0.159
639.62	0.159
639.82	0.159
640.02	0.159
640.22	0.159
640.42	0.159
640.62	0.159
640.82	0.159
641.02	0.158
641.22	0.159
641.42	0.159
641.61	0.159
641.81	0.159
642.01	0.159
642.21	0.159
642.41	0.158
642.61	0.158
642.81	0.157
643.01	0.156
643.21	0.156
643.41	0.156
643.61	0.156
643.81	0.155
644.01	0.154
644.21	0.154
644.41	0.154
644.61	0.154
644.81	0.154
645.01	0.154
645.21	0.154
645.41	0.153
645.61	0.153
645.81	0.153
646.01	0.152
646.21	0.153
646.40	0.152
646.60	0.152
646.80	0.153
647.00	0.152
647.20	0.151
647.40	0.151
647.60	0.151
647.80	0.151
648.00	0.151
648.20	0.151
648.40	0.150
648.60	0.150
648.80	0.150
649.00	0.150
649.20	0.151
649.39	0.150
649.59	0.150
649.79	0.149
649.99	0.149
650.19	0.148
650.39	0.148
650.59	0.148
650.79	0.148
650.99	0.148
651.19	0.147
651.39	0.147
651.58	0.146
651.78	0.146
651.98	0.146
652.18	0.146
652.38	0.146
652.58	0.146
652.78	0.145
652.98	0.145
653.18	0.145
653.38	0.145
653.57	0.144
653.77	0.145
653.97	0.144
654.17	0.144
654.37	0.143
654.57	0.144
654.77	0.144
654.97	0.143
655.16	0.143
655.36	0.143
655.56	0.142
655.76	0.141
655.96	0.142
656.16	0.141
656.36	0.141
656.56	0.140
656.75	0.140
656.95	0.140
657.15	0.140
657.35	0.140
657.55	0.140
657.75	0.140
657.95	0.140
658.14	0.140
658.34	0.140
658.54	0.140
658.74	0.140
658.94	0.140
659.14	0.139
659.34	0.139
659.53	0.138
659.73	0.137
659.93	0.137
660.13	0.137
660.33	0.137
660.53	0.136
660.72	0.137
660.92	0.136
661.12	0.136
661.32	0.136
661.52	0.135
661.72	0.135
661.91	0.135
662.11	0.135
662.31	0.135
662.51	0.135
662.71	0.134
662.90	0.133
663.10	0.133
663.30	0.133
663.50	0.133
663.70	0.132
663.90	0.132
664.09	0.132
664.29	0.131
664.49	0.131
664.69	0.131
664.89	0.131
665.08	0.131
665.28	0.131
665.48	0.131
665.68	0.130
665.88	0.130
666.07	0.130
666.27	0.130
666.47	0.130
666.67	0.130
666.87	0.130
667.06	0.129
667.26	0.129
667.46	0.129
667.66	0.129
667.85	0.129
668.05	0.130
668.25	0.130
668.45	0.129
668.65	0.129
668.84	0.129
669.04	0.129
669.24	0.128
669.44	0.127
669.63	0.127
669.83	0.127
670.03	0.125
670.23	0.125
670.42	0.124
670.62	0.123
670.82	0.123
671.02	0.123
671.22	0.122
671.41	0.122
671.61	0.122
671.81	0.122
672.01	0.122
672.20	0.122
672.40	0.122
672.60	0.122
672.80	0.123
672.99	0.123
673.19	0.122
673.39	0.122
673.58	0.122
673.78	0.122
673.98	0.122
674.18	0.122
674.37	0.121
674.57	0.121
674.77	0.121
674.97	0.121
675.16	0.121
675.36	0.120
675.56	0.120
675.75	0.120
675.95	0.119
676.15	0.119
676.35	0.119
676.54	0.119
676.74	0.119
676.94	0.119
677.13	0.118
677.33	0.118
677.53	0.118
677.73	0.118
677.92	0.117
678.12	0.117
678.32	0.117
678.51	0.117
678.71	0.117
678.91	0.117
679.11	0.116
679.30	0.116
679.50	0.115
679.70	0.115
679.89	0.115
680.09	0.115
680.29	0.114
680.48	0.115
680.68	0.114
680.88	0.114
681.07	0.114
681.27	0.114
681.47	0.114
681.66	0.115
681.86	0.114
682.06	0.114
682.25	0.114
682.45	0.114
682.65	0.114
682.84	0.113
683.04	0.113
683.24	0.112
683.43	0.113
683.63	0.112
683.83	0.112
684.02	0.112
684.22	0.111
684.42	0.111
684.61	0.111
684.81	0.111
685.01	0.111
685.20	0.110
685.40	0.110
685.60	0.110
685.79	0.110
685.99	0.110
686.19	0.110
686.38	0.110
686.58	0.110
686.77	0.110
686.97	0.109
687.17	0.109
687.36	0.109
687.56	0.109
687.76	0.108
687.95	0.108
688.15	0.108
688.34	0.108
688.54	0.107
688.74	0.107
688.93	0.107
689.13	0.107
689.33	0.107
689.52	0.107
689.72	0.108
689.91	0.107
690.11	0.107
690.31	0.106
690.50	0.106
690.70	0.107
690.89	0.106
691.09	0.106
691.29	0.106
691.48	0.105
691.68	0.105
691.87	0.105
692.07	0.105
692.27	0.105
692.46	0.105
692.66	0.104
692.85	0.104
693.05	0.104
693.25	0.104
693.44	0.104
693.64	0.104
693.83	0.104
694.03	0.103
694.22	0.103
694.42	0.103
694.62	0.103
694.81	0.103
695.01	0.103
695.20	0.103
695.40	0.103
695.59	0.102
695.79	0.102
695.99	0.102
696.18	0.102
696.38	0.102
696.57	0.102
696.77	0.101
696.96	0.102
697.16	0.102
697.36	0.101
697.55	0.101
697.75	0.101
697.94	0.101
698.14	0.101
698.33	0.101
698.53	0.100
698.72	0.100
698.92	0.100
699.11	0.100
699.31	0.100
699.51	0.100
699.70	0.100
699.90	0.100
700.09	0.100
700.29	0.099
700.48	0.100
700.68	0.099
700.87	0.099
701.07	0.099
701.26	0.098
701.46	0.098
701.65	0.098
701.85	0.098
702.04	0.098
702.24	0.098
702.43	0.098
702.63	0.097
702.82	0.097
703.02	0.097
703.21	0.097
703.41	0.097
703.60	0.096
703.80	0.096
703.99	0.096
704.19	0.096
704.38	0.095
704.58	0.095
704.77	0.095
704.97	0.095
705.16	0.095
705.36	0.095
705.55	0.095
705.75	0.095
705.94	0.095
706.14	0.095
706.33	0.095
706.53	0.096
706.72	0.096
706.92	0.095
707.11	0.095
707.31	0.095
707.50	0.095
707.70	0.095
707.89	0.095
708.09	0.095
708.28	0.095
708.48	0.095
708.67	0.095
708.86	0.094
709.06	0.094
709.25	0.094
709.45	0.094
709.64	0.093
709.84	0.093
710.03	0.093
710.23	0.093
710.42	0.092
710.62	0.093
710.81	0.092
711.00	0.093
711.20	0.093
711.39	0.092
711.59	0.092
711.78	0.093
711.98	0.093
712.17	0.093
712.37	0.093
712.56	0.093
712.75	0.093
712.95	0.093
713.14	0.093
713.34	0.093
713.53	0.093
713.73	0.093
713.92	0.093
714.11	0.093
714.31	0.093
714.50	0.093
714.70	0.093
714.89	0.092
715.08	0.092
715.28	0.092
715.47	0.092
715.67	0.092
715.86	0.092
716.06	0.092
716.25	0.092
716.44	0.091
716.64	0.091
716.83	0.091
717.03	0.090
717.22	0.090
717.41	0.090
717.61	0.090
717.80	0.090
717.99	0.090
718.19	0.090
718.38	0.090
718.58	0.090
718.77	0.090
718.96	0.090
719.16	0.090
719.35	0.090
719.55	0.090
719.74	0.090
719.93	0.089
720.13	0.089
720.32	0.089
720.51	0.089
720.71	0.089
720.90	0.089
721.10	0.089
721.29	0.089
721.48	0.089
721.68	0.089
721.87	0.088
722.06	0.088
722.26	0.089
722.45	0.089
722.64	0.089
722.84	0.088
723.03	0.089
723.22	0.089
723.42	0.089
723.61	0.089
723.80	0.089
724.00	0.089
724.19	0.089
724.38	0.089
724.58	0.089
724.77	0.089
724.96	0.089
725.16	0.089
725.35	0.089
725.54	0.089
725.74	0.089
725.93	0.089
726.12	0.088
726.32	0.088
726.51	0.089
726.70	0.088
726.90	0.089
727.09	0.088
727.28	0.088
727.48	0.088
727.67	0.088
727.86	0.088
728.06	0.088
728.25	0.088
728.44	0.089
728.64	0.088
728.83	0.088
729.02	0.088
729.21	0.088
729.41	0.088
729.60	0.088
729.79	0.088
729.99	0.088
730.18	0.088
730.37	0.088
730.56	0.088
730.76	0.088
730.95	0.089
731.14	0.089
731.34	0.088
731.53	0.089
731.72	0.089
731.91	0.089
732.11	0.088
732.30	0.089
732.49	0.089
732.69	0.089
732.88	0.088
733.07	0.088
733.26	0.088
733.46	0.088
733.65	0.089
733.84	0.088
734.03	0.089
734.23	0.089
734.42	0.088
734.61	0.088
734.80	0.088
735.00	0.089
735.19	0.088
735.38	0.089
735.57	0.089
735.77	0.089
735.96	0.088
736.15	0.088
736.34	0.088
736.54	0.089
736.73	0.089
736.92	0.089
737.11	0.089
737.31	0.089
737.50	0.089
737.69	0.089
737.88	0.089
738.07	0.089
738.27	0.089
738.46	0.089
738.65	0.089
738.84	0.088
739.04	0.089
739.23	0.089
739.42	0.088
739.61	0.088
739.80	0.088
740.00	0.089
740.19	0.089
740.38	0.089
740.57	0.089
740.76	0.088
740.96	0.088
741.15	0.088
741.34	0.088
741.53	0.088
741.72	0.088
741.92	0.088
742.11	0.087
742.30	0.087
742.49	0.087
742.68	0.087
742.88	0.087
743.07	0.087
743.26	0.087
743.45	0.087
743.64	0.086
743.84	0.086
744.03	0.086
744.22	0.086
744.41	0.086
744.60	0.086
744.79	0.086
744.99	0.086
745.18	0.086
745.37	0.085
745.56	0.085
745.75	0.086
745.94	0.086
746.14	0.086
746.33	0.086
746.52	0.086
746.71	0.086
746.90	0.086
747.09	0.086
747.28	0.086
747.48	0.086
747.67	0.086
747.86	0.086
748.05	0.086
748.24	0.085
748.43	0.085
748.62	0.085
748.82	0.084
749.01	0.084
749.20	0.085
749.39	0.084
749.58	0.084
749.77	0.084
749.96	0.084
750.16	0.084
750.35	0.084
750.54	0.085
750.73	0.085
750.92	0.085
751.11	0.084
751.30	0.084
751.49	0.084
751.68	0.084
751.88	0.084
752.07	0.084
752.26	0.084
752.45	0.084
752.64	0.084
752.83	0.084
753.02	0.084
753.21	0.084
753.40	0.084
753.60	0.084
753.79	0.084
753.98	0.084
754.17	0.084
754.36	0.083
754.55	0.083
754.74	0.084
754.93	0.083
755.12	0.083
755.31	0.083
755.50	0.083
755.70	0.082
755.89	0.082
756.08	0.083
756.27	0.082
756.46	0.083
756.65	0.082
756.84	0.082
757.03	0.082
757.22	0.082
757.41	0.082
757.60	0.082
757.79	0.082
757.98	0.082
758.17	0.082
758.36	0.082
758.56	0.082
758.75	0.082
758.94	0.082
759.13	0.082
759.32	0.082
759.51	0.081
759.70	0.082
759.89	0.081
760.08	0.081
760.27	0.081
760.46	0.082
760.65	0.082
760.84	0.082
761.03	0.082
761.22	0.082
761.41	0.082
761.60	0.082
761.79	0.082
761.98	0.082
762.17	0.082
762.36	0.081
762.55	0.081
762.74	0.081
762.93	0.081
763.12	0.081
763.31	0.080
763.50	0.080
763.69	0.081
763.88	0.080
764.07	0.080
764.26	0.080
764.45	0.080
764.64	0.081
764.83	0.080
765.02	0.081
765.21	0.080
765.40	0.080
765.59	0.080
765.78	0.080
765.97	0.080
766.16	0.080
766.35	0.080
766.54	0.080
766.73	0.080
766.92	0.080
767.11	0.080
767.30	0.080
767.49	0.080
767.68	0.080
767.87	0.080
768.06	0.080
768.25	0.080
768.44	0.080
768.63	0.079
768.82	0.079
769.01	0.078
769.20	0.078
769.39	0.079
769.58	0.079
769.77	0.079
769.96	0.079
770.15	0.079
770.34	0.079
770.53	0.079
770.72	0.079
770.91	0.079
771.10	0.079
771.29	0.079
771.47	0.079
771.66	0.078
771.85	0.079
772.04	0.078
772.23	0.079
772.42	0.078
772.61	0.078
772.80	0.078
772.99	0.078
773.18	0.078
773.37	0.079
773.56	0.078
773.75	0.079
773.94	0.078
774.13	0.078
774.31	0.078
774.50	0.078
774.69	0.079
774.88	0.078
775.07	0.079
775.26	0.078
775.45	0.078
775.64	0.078
775.83	0.077
776.02	0.077
776.21	0.077
776.40	0.077
776.58	0.077
776.77	0.077
776.96	0.077
777.15	0.078
777.34	0.078
777.53	0.078
777.72	0.078
777.91	0.078
778.10	0.078
778.28	0.078
778.47	0.078
778.66	0.077
778.85	0.077
779.04	0.077
779.23	0.077
779.42	0.076
779.61	0.076
779.79	0.076
779.98	0.076
780.17	0.076
780.36	0.076
780.55	0.075
780.74	0.075
780.93	0.075
781.12	0.075
781.30	0.075
781.49	0.076
781.68	0.076
781.87	0.076
782.06	0.076
782.25	0.076
782.44	0.076
782.62	0.076
782.81	0.077
783.00	0.076
783.19	0.076
783.38	0.076
783.57	0.076
783.75	0.075
783.94	0.075
784.13	0.075
784.32	0.075
784.51	0.075
784.70	0.075
784.88	0.075
785.07	0.074
785.26	0.074
785.45	0.075
785.64	0.074
785.83	0.074
786.01	0.074
786.20	0.074
786.39	0.075
786.58	0.075
786.77	0.075
786.95	0.075
787.14	0.075
787.33	0.075
787.52	0.075
787.71	0.075
787.90	0.075
788.08	0.075
788.27	0.075
788.46	0.075
788.65	0.075
788.84	0.075
789.02	0.075
789.21	0.075
789.40	0.075
789.59	0.075
789.77	0.075
789.96	0.075
790.15	0.075
790.34	0.075
790.53	0.075
790.71	0.075
790.90	0.074
791.09	0.074
791.28	0.074
791.46	0.075
791.65	0.074
791.84	0.074
792.03	0.074
792.22	0.075
792.40	0.074
792.59	0.074
792.78	0.074
792.97	0.075
793.15	0.075
793.34	0.075
793.53	0.074
793.72	0.074
793.90	0.074
794.09	0.074
794.28	0.074
794.47	0.074
794.65	0.073
794.84	0.073
795.03	0.073
795.22	0.073
795.40	0.073
795.59	0.073
795.78	0.073
795.97	0.074
796.15	0.074
796.34	0.074
796.53	0.074
796.71	0.074
796.90	0.074
797.09	0.074
797.28	0.074
797.46	0.074
797.65	0.074
797.84	0.073
798.02	0.073
798.21	0.073
798.40	0.073
798.59	0.073
798.77	0.072
798.96	0.072
799.15	0.072
799.33	0.072
799.52	0.072
799.71	0.072
799.90	0.072
800.08	0.072
800.27	0.072
800.46	0.072
800.64	0.072
800.83	0.072
801.02	0.072
801.20	0.072
801.39	0.072
801.58	0.072
801.76	0.072
801.95	0.072
802.14	0.072
802.32	0.072
802.51	0.072
802.70	0.072
802.88	0.072
803.07	0.072
803.26	0.071
803.44	0.071
803.63	0.071
803.82	0.071
804.00	0.071
804.19	0.072
804.38	0.071
804.56	0.071
804.75	0.072
804.94	0.071
805.12	0.071
805.31	0.072
805.50	0.072
805.68	0.072
805.87	0.072
806.06	0.072
806.24	0.072
806.43	0.072
806.62	0.072
806.80	0.072
806.99	0.071
807.17	0.071
807.36	0.072
807.55	0.072
807.73	0.071
807.92	0.071
808.11	0.071
808.29	0.071
808.48	0.071
808.66	0.071
808.85	0.071
809.04	0.071
809.22	0.071
809.41	0.071
809.59	0.071
809.78	0.071
809.97	0.071
810.15	0.071
810.34	0.071
810.53	0.071
810.71	0.071
810.90	0.071
811.08	0.071
811.27	0.070
811.45	0.070
811.64	0.070
811.83	0.070
812.01	0.070
812.20	0.071
812.38	0.070
812.57	0.071
812.76	0.071
812.94	0.071
813.13	0.071
813.31	0.071
813.50	0.071
813.68	0.071
813.87	0.071
814.06	0.071
814.24	0.070
814.43	0.070
814.61	0.070
814.80	0.070
814.98	0.071
815.17	0.070
815.36	0.070
815.54	0.070
815.73	0.070
815.91	0.070
816.10	0.070
816.28	0.070
816.47	0.070
816.65	0.071
816.84	0.071
817.03	0.071
817.21	0.071
817.40	0.071
817.58	0.071
817.77	0.071
817.95	0.071
818.14	0.071
818.32	0.072
818.51	0.072
818.69	0.071
818.88	0.072
819.06	0.071
819.25	0.071
819.43	0.071
819.62	0.071
819.80	0.071
819.99	0.071
820.18	0.071
820.36	0.071
820.55	0.071
820.73	0.071
820.92	0.071
821.10	0.071
821.29	0.071
821.47	0.071
821.66	0.071
821.84	0.071
822.03	0.071
822.21	0.071
822.40	0.071
822.58	0.071
822.77	0.071
822.95	0.071
823.14	0.071
823.32	0.071
823.50	0.072
823.69	0.072
823.87	0.072
824.06	0.072
824.24	0.072
824.43	0.072
824.61	0.072
824.80	0.072
824.98	0.072
825.17	0.073
825.35	0.073
825.54	0.073
825.72	0.072
825.91	0.072
826.09	0.072
826.28	0.073
826.46	0.073
826.64	0.073
826.83	0.073
827.01	0.073
827.20	0.073
827.38	0.073
827.57	0.073
827.75	0.073
827.94	0.073
828.12	0.073
828.31	0.073
828.49	0.073
828.67	0.074
828.86	0.074
829.04	0.074
829.23	0.074
829.41	0.075
829.60	0.075
829.78	0.075
829.96	0.076
830.15	0.076
830.33	0.076
830.52	0.076
830.70	0.076
830.88	0.076
831.07	0.077
831.25	0.076
831.44	0.076
831.62	0.076
831.81	0.076
831.99	0.076
832.17	0.076
832.36	0.077
832.54	0.077
832.73	0.077
832.91	0.076
833.09	0.076
833.28	0.076
833.46	0.077
833.65	0.076
833.83	0.077
834.01	0.077
834.20	0.077
834.38	0.076
834.56	0.077
834.75	0.077
834.93	0.077
835.12	0.077
835.30	0.077
835.48	0.078
835.67	0.077
835.85	0.077
836.03	0.077
836.22	0.077
836.40	0.077
836.59	0.077
836.77	0.077
836.95	0.077
837.14	0.077
837.32	0.077
837.50	0.077
837.69	0.077
837.87	0.077
838.05	0.077
838.24	0.077
838.42	0.077
838.60	0.077
838.79	0.078
838.97	0.078
839.15	0.078
839.34	0.078
839.52	0.078
839.70	0.079
839.89	0.079
840.07	0.079
840.25	0.079
840.44	0.079
840.62	0.079
840.80	0.078
840.99	0.079
841.17	0.079
841.35	0.079
841.54	0.079
841.72	0.079
841.90	0.079
842.09	0.079
842.27	0.079
842.45	0.079
842.64	0.079
842.82	0.079
843.00	0.079
843.19	0.079
843.37	0.079
843.55	0.079
843.73	0.079
843.92	0.078
844.10	0.078
844.28	0.078
844.47	0.078
844.65	0.078
844.83	0.078
845.01	0.078
845.20	0.078
845.38	0.078
845.56	0.079
845.75	0.079
845.93	0.079
846.11	0.079
846.29	0.079
846.48	0.079
846.66	0.080
846.84	0.079
847.02	0.079
847.21	0.079
847.39	0.079
847.57	0.079
847.76	0.080
847.94	0.079
848.12	0.079
848.30	0.079
848.49	0.080
848.67	0.080
848.85	0.079
849.03	0.080
849.22	0.079
849.40	0.080
849.58	0.080
849.76	0.080
849.95	0.080
850.13	0.080
850.31	0.080
850.49	0.080
850.67	0.080
850.86	0.080
851.04	0.080
851.22	0.080
851.40	0.080
851.59	0.079
851.77	0.080
851.95	0.080
852.13	0.080
852.31	0.080
852.50	0.080
852.68	0.080
852.86	0.080
853.04	0.079
853.23	0.080
853.41	0.079
853.59	0.079
853.77	0.079
853.95	0.079
854.14	0.079
854.32	0.079
854.50	0.079
854.68	0.079
854.86	0.079
855.04	0.080
855.23	0.079
855.41	0.080
855.59	0.080
855.77	0.080
855.95	0.080
856.14	0.080
856.32	0.080
856.50	0.080
856.68	0.080
856.86	0.080
857.04	0.080
857.23	0.080
857.41	0.080
857.59	0.081
857.77	0.080
857.95	0.080
858.13	0.080
858.32	0.080
858.50	0.080
858.68	0.080
858.86	0.080
859.04	0.080
859.22	0.079
859.41	0.080
859.59	0.079
859.77	0.079
859.95	0.079
860.13	0.079
860.31	0.079
860.49	0.079
860.68	0.080
860.86	0.080
861.04	0.080
861.22	0.080
861.40	0.080
861.58	0.080
861.76	0.080
861.94	0.080
862.13	0.080
862.31	0.080
862.49	0.080
862.67	0.080
862.85	0.080
863.03	0.081
863.21	0.081
863.39	0.081
863.57	0.081
863.76	0.081
863.94	0.081
864.12	0.081
864.30	0.081
864.48	0.081
864.66	0.081
864.84	0.082
865.02	0.082
865.20	0.082
865.38	0.082
865.57	0.082
865.75	0.082
865.93	0.082
866.11	0.082
866.29	0.082
866.47	0.083
866.65	0.083
866.83	0.082
867.01	0.082
867.19	0.082
867.37	0.082
867.55	0.082
867.73	0.082
867.92	0.081
868.10	0.082
868.28	0.082
868.46	0.082
868.64	0.082
868.82	0.082
869.00	0.082
869.18	0.082
869.36	0.082
869.54	0.082
869.72	0.082
869.90	0.082
870.08	0.082
870.26	0.082
870.44	0.082
870.62	0.082
870.80	0.082
870.98	0.082
871.16	0.082
871.34	0.082
871.53	0.081
871.71	0.082
871.89	0.082
872.07	0.082
872.25	0.082
872.43	0.082
872.61	0.082
872.79	0.082
872.97	0.083
873.15	0.083
873.33	0.084
873.51	0.084
873.69	0.084
873.87	0.084
874.05	0.084
874.23	0.084
874.41	0.084
874.59	0.084
874.77	0.084
874.95	0.083
875.13	0.083
875.31	0.083
875.49	0.083
875.67	0.083
875.85	0.083
876.03	0.083
876.21	0.084
876.39	0.083
876.57	0.083
876.75	0.084
876.93	0.084
877.11	0.084
877.29	0.084
877.47	0.084
877.65	0.084
877.82	0.085
878.00	0.084
878.18	0.084
878.36	0.084
878.54	0.084
878.72	0.084
878.90	0.084
879.08	0.084
879.26	0.084
879.44	0.084
879.62	0.084
879.80	0.084
879.98	0.084
880.16	0.084
880.34	0.084
880.52	0.084
880.70	0.084
880.88	0.084
881.06	0.084
881.24	0.084
881.42	0.084
881.59	0.084
881.77	0.083
881.95	0.084
882.13	0.084
882.31	0.084
882.49	0.084
882.67	0.084
882.85	0.084
883.03	0.084
883.21	0.084
883.39	0.084
883.57	0.085
883.75	0.085
883.92	0.085
884.10	0.085
884.28	0.085
884.46	0.085
884.64	0.085
884.82	0.085
885.00	0.085
885.18	0.085
885.36	0.085
885.54	0.085
885.71	0.085
885.89	0.086
886.07	0.086
886.25	0.086
886.43	0.086
886.61	0.086
886.79	0.086
886.97	0.086
887.15	0.086
887.32	0.086
887.50	0.086
887.68	0.086
887.86	0.086
888.04	0.086
888.22	0.086
888.40	0.086
888.57	0.086
888.75	0.086
888.93	0.086
889.11	0.086
889.29	0.086
889.47	0.086
889.65	0.086
889.82	0.086
890.00	0.087
890.18	0.086
890.36	0.086
890.54	0.087
890.72	0.087
890.90	0.087
891.07	0.087
891.25	0.087
891.43	0.086
891.61	0.087
891.79	0.086
891.97	0.086
892.14	0.087
892.32	0.087
892.50	0.087
892.68	0.087
892.86	0.087
893.03	0.087
893.21	0.087
893.39	0.088
893.57	0.088
893.75	0.088
893.93	0.088
894.10	0.087
894.28	0.087
894.46	0.087
894.64	0.087
894.82	0.087
894.99	0.087
895.17	0.088
895.35	0.088
895.53	0.088
895.71	0.087
895.88	0.088
896.06	0.088
896.24	0.088
896.42	0.088
896.59	0.088
896.77	0.088
896.95	0.088
897.13	0.088
897.31	0.088
897.48	0.088
897.66	0.088
897.84	0.088
898.02	0.088
898.19	0.088
898.37	0.088
898.55	0.088
898.73	0.089
898.91	0.089
899.08	0.088
899.26	0.088
899.44	0.089
899.62	0.089
899.79	0.089
899.97	0.089
900.15	0.089
900.33	0.089
900.50	0.089
900.68	0.089
900.86	0.089
901.04	0.089
901.21	0.089
901.39	0.089
901.57	0.089
901.74	0.089
901.92	0.089
902.10	0.090
902.28	0.090
902.45	0.090
902.63	0.090
902.81	0.089
902.99	0.090
903.16	0.090
903.34	0.090
903.52	0.090
903.69	0.090
903.87	0.090
904.05	0.090
904.22	0.090
904.40	0.090
904.58	0.090
904.76	0.091
904.93	0.091
905.11	0.091
905.29	0.091
905.46	0.091
905.64	0.091
905.82	0.091
905.99	0.091
906.17	0.091
906.35	0.091
906.53	0.091
906.70	0.091
906.88	0.092
907.06	0.091
907.23	0.091
907.41	0.092
907.59	0.092
907.76	0.092
907.94	0.092
908.12	0.092
908.29	0.092
908.47	0.092
908.65	0.092
908.82	0.092
909.00	0.092
909.18	0.093
909.35	0.092
909.53	0.092
909.71	0.092
909.88	0.092
910.06	0.092
910.23	0.092
910.41	0.092
910.59	0.092
910.76	0.092
910.94	0.092
911.12	0.092
911.29	0.092
911.47	0.092
911.65	0.093
911.82	0.093
912.00	0.093
912.17	0.093
912.35	0.094
912.53	0.094
912.70	0.094
912.88	0.094
913.06	0.095
913.23	0.095
913.41	0.095
913.58	0.095
913.76	0.095
913.94	0.095
914.11	0.095
914.29	0.095
914.46	0.095
914.64	0.095
914.82	0.095
914.99	0.095
915.17	0.095
915.34	0.095
915.52	0.095
915.70	0.095
915.87	0.096
916.05	0.096
916.22	0.095
916.40	0.095
916.57	0.096
916.75	0.096
916.93	0.096
917.10	0.096
917.28	0.096
917.45	0.096
917.63	0.096
917.80	0.096
917.98	0.096
918.16	0.096
918.33	0.097
918.51	0.097
918.68	0.097
918.86	0.098
919.03	0.098
919.21	0.098
919.39	0.098
919.56	0.098
919.74	0.099
919.91	0.099
920.09	0.100
920.26	0.100
920.44	0.100
920.61	0.100
920.79	0.100
920.96	0.100
921.14	0.101
921.31	0.101
921.49	0.101
921.67	0.101
921.84	0.101
922.02	0.101
922.19	0.102
922.37	0.102
922.54	0.102
922.72	0.102
922.89	0.103
923.07	0.104
923.24	0.104
923.42	0.104
923.59	0.104
923.77	0.104
923.94	0.105
924.12	0.105
924.29	0.105
924.47	0.105
924.64	0.106
924.82	0.105
924.99	0.106
925.17	0.106
925.34	0.106
925.52	0.107
925.69	0.107
925.87	0.108
926.04	0.108
926.22	0.108
926.39	0.108
926.57	0.109
926.74	0.109
926.91	0.109
927.09	0.109
927.26	0.109
927.44	0.110
927.61	0.110
927.79	0.110
927.96	0.111
928.14	0.111
928.31	0.112
928.49	0.112
928.66	0.112
928.84	0.113
929.01	0.113
929.18	0.114
929.36	0.114
929.53	0.114
929.71	0.115
929.88	0.116
930.06	0.116
930.23	0.116
930.41	0.117
930.58	0.117
930.75	0.118
930.93	0.118
931.10	0.118
931.28	0.119
931.45	0.119
931.63	0.119
931.80	0.119
931.97	0.119
932.15	0.120
932.32	0.120
932.50	0.120
932.67	0.121
932.84	0.122
933.02	0.123
933.19	0.123
933.37	0.123
933.54	0.124
933.71	0.125
933.89	0.126
934.06	0.126
934.24	0.126
934.41	0.127
934.58	0.128
934.76	0.128
934.93	0.129
935.11	0.129
935.28	0.129
935.45	0.130
935.63	0.130
935.80	0.131
935.98	0.131
936.15	0.131
936.32	0.131
936.50	0.132
936.67	0.132
936.84	0.132
937.02	0.133
937.19	0.134
937.36	0.134
937.54	0.135
937.71	0.136
937.89	0.136
938.06	0.137
938.23	0.137
938.41	0.138
938.58	0.139
938.75	0.139
938.93	0.140
939.10	0.140
939.27	0.140
939.45	0.141
939.62	0.141
939.79	0.142
939.97	0.142
940.14	0.143
940.31	0.144
940.49	0.144
940.66	0.144
940.83	0.145
941.01	0.145
941.18	0.146
941.35	0.147
941.53	0.147
941.70	0.148
941.87	0.148
942.05	0.149
942.22	0.149
942.39	0.151
942.57	0.151
942.74	0.153
942.91	0.153
943.08	0.154
943.26	0.154
943.43	0.155
943.60	0.155
943.78	0.156
943.95	0.157
944.12	0.157
944.29	0.158
944.47	0.158
944.64	0.159
944.81	0.160
944.99	0.161
945.16	0.161
945.33	0.162
945.50	0.164
945.68	0.164
945.85	0.165
946.02	0.167
946.20	0.168
946.37	0.168
946.54	0.169
946.71	0.170
946.89	0.170
947.06	0.171
947.23	0.172
947.40	0.173
947.58	0.173
947.75	0.174
947.92	0.175
948.09	0.175
948.27	0.176
948.44	0.178
948.61	0.179
948.78	0.180
948.96	0.181
949.13	0.182
949.30	0.183
949.47	0.183
949.65	0.185
949.82	0.187
949.99	0.187
950.16	0.189
950.33	0.189
950.51	0.191
950.68	0.192
950.85	0.193
951.02	0.195
951.20	0.196
951.37	0.197
951.54	0.198
951.71	0.199
951.88	0.201
952.06	0.202
952.23	0.202
952.40	0.204
952.57	0.205
952.74	0.207
952.92	0.207
953.09	0.209
953.26	0.210
953.43	0.211
953.60	0.212
953.77	0.213
953.95	0.214
954.12	0.216
954.29	0.217
954.46	0.219
954.63	0.220
954.81	0.221
954.98	0.221
955.15	0.223
955.32	0.225
955.49	0.224
955.66	0.226
955.84	0.227
956.01	0.227
956.18	0.230
956.35	0.231
956.52	0.231
956.69	0.233
956.87	0.233
957.04	0.234
957.21	0.236
957.38	0.236
957.55	0.238
957.72	0.238
957.89	0.239
958.07	0.239
958.24	0.241
958.41	0.243
958.58	0.242
958.75	0.243
958.92	0.244
959.09	0.245
959.26	0.246
959.44	0.246
959.61	0.248
959.78	0.249
959.95	0.250
960.12	0.250
960.29	0.252
960.46	0.252
960.63	0.252
960.81	0.252
960.98	0.253
961.15	0.254
961.32	0.254
961.49	0.254
961.66	0.256
961.83	0.256
962.00	0.256
962.17	0.257
962.34	0.257
962.52	0.258
962.69	0.259
962.86	0.259
963.03	0.259
963.20	0.260
963.37	0.259
963.54	0.260
963.71	0.259
963.88	0.259
964.05	0.260
964.22	0.261
964.39	0.260
964.56	0.260
964.74	0.261
964.91	0.261
965.08	0.262
965.25	0.262
965.42	0.262
965.59	0.263
965.76	0.263
965.93	0.264
966.10	0.262
966.27	0.264
966.44	0.263
966.61	0.264
966.78	0.263
966.95	0.263
967.12	0.264
967.29	0.266
967.46	0.265
967.63	0.265
967.80	0.266
967.97	0.265
968.14	0.265
968.32	0.265
968.49	0.265
968.66	0.265
968.83	0.265
969.00	0.265
969.17	0.265
969.34	0.266
969.51	0.267
969.68	0.266
969.85	0.266
970.02	0.267
970.19	0.266
970.36	0.267
970.53	0.267
970.70	0.266
970.87	0.267
971.04	0.266
971.21	0.267
971.38	0.267
971.55	0.267
971.72	0.267
971.89	0.268
972.06	0.268
972.23	0.268
972.40	0.268
972.57	0.267
972.74	0.267
972.91	0.268
973.07	0.267
973.24	0.267
973.41	0.268
973.58	0.266
973.75	0.278
973.92	0.266
974.09	0.265
974.26	0.265
974.43	0.265
974.60	0.266
974.77	0.266
974.94	0.265
975.11	0.266
975.28	0.267
975.45	0.265
975.62	0.266
975.79	0.268
975.96	0.266
976.13	0.265
976.30	0.267
976.47	0.265
976.64	0.266
976.80	0.267
976.97	0.267
977.14	0.266
977.31	0.266
977.48	0.266
977.65	0.265
977.82	0.264
977.99	0.265
978.16	0.265
978.33	0.265
978.50	0.264
978.67	0.264
978.83	0.264
979.00	0.265
979.17	0.264
979.34	0.264
979.51	0.263
979.68	0.264
979.85	0.264
980.02	0.264
980.19	0.262
980.36	0.263
980.52	0.264
980.69	0.263
980.86	0.263
981.03	0.262
981.20	0.260
981.37	0.261
981.54	0.262
981.71	0.261
981.88	0.261
982.04	0.261
982.21	0.261
982.38	0.263
982.55	0.261
982.72	0.260
982.89	0.262
983.06	0.261
983.22	0.261
983.39	0.261
983.56	0.260
983.73	0.260
983.90	0.259
984.07	0.260
984.24	0.258
984.40	0.258
984.57	0.256
984.74	0.258
984.91	0.259
985.08	0.256
985.25	0.254
985.41	0.255
985.58	0.255
985.75	0.256
985.92	0.255
986.09	0.254
986.26	0.254
986.42	0.253
986.59	0.251
986.76	0.253
986.93	0.253
987.10	0.253
987.27	0.251
987.43	0.249
987.60	0.252
987.77	0.252
987.94	0.250
988.11	0.251
988.27	0.251
988.44	0.251
988.61	0.250
988.78	0.249
988.95	0.250
989.11	0.251
989.28	0.250
989.45	0.249
989.62	0.249
989.79	0.249
989.95	0.248
990.12	0.250
990.29	0.250
990.46	0.248
990.62	0.246
990.79	0.246
990.96	0.246
991.13	0.246
991.30	0.245
991.46	0.244
991.63	0.242
991.80	0.241
991.97	0.241
992.13	0.241
992.30	0.242
992.47	0.240
992.64	0.239
992.80	0.240
992.97	0.240
993.14	0.237
993.31	0.235
993.47	0.238
993.64	0.236
993.81	0.236
993.98	0.236
994.14	0.235
994.31	0.234
994.48	0.235
994.64	0.236
994.81	0.235
994.98	0.235
995.15	0.233
995.31	0.232
995.48	0.232
995.65	0.234
995.82	0.231
995.98	0.231
996.15	0.232
996.32	0.233
996.48	0.231
996.65	0.231
996.82	0.229
996.99	0.229
997.15	0.230
997.32	0.230
997.49	0.228
997.65	0.229
997.82	0.228
997.99	0.227
998.15	0.226
998.32	0.228
998.49	0.227
998.65	0.227
998.82	0.226
998.99	0.224
999.15	0.225
999.32	0.224
999.49	0.224
999.65	0.225
999.82	0.222
999.99	0.223
1000.15	0.223
1000.32	0.223
1000.49	0.223
1000.65	0.222
1000.82	0.221
1000.99	0.221
1001.15	0.221
1001.32	0.220
1001.49	0.220
1001.65	0.220
1001.82	0.222
1001.99	0.218
1002.15	0.217
1002.32	0.218
1002.49	0.218
1002.65	0.217
1002.82	0.216
1002.99	0.216
1003.15	0.217
1003.32	0.216
1003.48	0.216
1003.65	0.216
1003.82	0.215
1003.98	0.212
1004.15	0.212
1004.32	0.212
1004.48	0.212
1004.65	0.213
1004.81	0.211
1004.98	0.210
1005.15	0.211
1005.31	0.210
1005.48	0.208
1005.64	0.208
1005.81	0.211
1005.98	0.207
1006.14	0.207
1006.31	0.206
1006.47	0.205
1006.64	0.203
1006.81	0.202
1006.97	0.203
1007.14	0.202
1007.30	0.203
1007.47	0.203
1007.63	0.200
1007.80	0.200
1007.97	0.200
1008.13	0.200
1008.30	0.200
1008.46	0.200
1008.63	0.199
1008.79	0.199
1008.96	0.200
1009.13	0.201
1009.29	0.198
1009.46	0.198
1009.62	0.198
1009.79	0.196
1009.95	0.196
1010.12	0.196
1010.28	0.196
1010.45	0.196
1010.62	0.196
1010.78	0.195
1010.95	0.193
1011.11	0.194
1011.28	0.192
1011.44	0.195
1011.61	0.193
1011.77	0.193
1011.94	0.193
1012.10	0.193
1012.27	0.193
1012.43	0.192
1012.60	0.190
1012.76	0.191
1012.93	0.190
1013.10	0.189
1013.26	0.187
1013.43	0.188
1013.59	0.195
1013.76	0.188
1013.92	0.186
1014.09	0.184
1014.25	0.186
1014.42	0.186
1014.58	0.186
1014.75	0.189
1014.91	0.187
1015.08	0.189
1015.24	0.186
1015.41	0.188
1015.57	0.187
1015.73	0.186
1015.90	0.184
1016.06	0.187
1016.23	0.185
1016.39	0.185
1016.56	0.185
1016.72	0.184
1016.89	0.183
1017.05	0.184
1017.22	0.181
1017.38	0.181
1017.55	0.180
1017.71	0.181
1017.88	0.179
1018.04	0.180
1018.21	0.177
1018.37	0.177
1018.53	0.177
1018.70	0.176
1018.86	0.176
1019.03	0.178
1019.19	0.176
1019.36	0.175
1019.52	0.177
1019.69	0.178
1019.85	0.177
1020.01	0.177
1020.18	0.176
1020.34	0.176
1020.51	0.176
1020.67	0.175
1020.84	0.174
1021.00	0.175
1021.16	0.173
1021.33	0.173
1021.49	0.172
1021.66	0.173
1021.82	0.171
1021.98	0.171
1022.15	0.170
1022.31	0.169
1022.48	0.169
1022.64	0.171
1022.80	0.168
1022.97	0.166
1023.13	0.165
1023.30	0.166
1023.46	0.167
1023.62	0.164
1023.79	0.165
1023.95	0.166
1024.12	0.164
1024.28	0.163
1024.44	0.162
1024.61	0.161
1024.77	0.161
1024.93	0.161
1025.10	0.162
1025.26	0.160
1025.43	0.160
1025.59	0.155
1025.75	0.159
1025.92	0.158
1026.08	0.158
1026.24	0.159
1026.41	0.160
1026.57	0.158
1026.73	0.156
1026.90	0.158
1027.06	0.156
1027.23	0.158
1027.39	0.159
1027.55	0.159
1027.72	0.158
1027.88	0.157
1028.04	0.158
1028.21	0.158
1028.37	0.153
1028.53	0.158
1028.70	0.156
1028.86	0.154
1029.02	0.155
1029.19	0.156
1029.35	0.153
1029.51	0.153
1029.67	0.152
1029.84	0.153
1030.00	0.148
1030.16	0.149
1030.33	0.152
1030.49	0.148
1030.65	0.146
1030.82	0.161
1030.98	0.148
1031.14	0.149
1031.31	0.148
1031.47	0.145
1031.63	0.149
1031.79	0.148
1031.96	0.149
1032.12	0.149
1032.28	0.148
1032.45	0.152
1032.61	0.149
1032.77	0.147
1032.93	0.145
1033.10	0.146
1033.26	0.149
1033.42	0.147
1033.58	0.148
1033.75	0.149
1033.91	0.147
1034.07	0.150
1034.24	0.148
1034.40	0.146
1034.56	0.147
1034.72	0.148
1034.89	0.148
1035.05	0.145
1035.21	0.145
1035.37	0.144
1035.54	0.146
1035.70	0.144
1035.86	0.142
1036.02	0.144
1036.19	0.141
1036.35	0.140
1036.51	0.144
1036.67	0.142
1036.83	0.142
1037.00	0.140
1037.16	0.141
1037.32	0.141
1037.48	0.140
1037.65	0.146
1037.81	0.141
1037.97	0.142
1038.13	0.140
1038.29	0.139
1038.46	0.135
1038.62	0.140
1038.78	0.137
1038.94	0.134
1039.10	0.138
1039.27	0.134
1039.43	0.136
1039.59	0.136
1039.75	0.134
1039.91	0.134
1040.08	0.134
1040.24	0.137
1040.40	0.139
1040.56	0.138
1040.72	0.132
1040.89	0.136
1041.05	0.137
1041.21	0.135
1041.37	0.133
1041.53	0.140
1041.69	0.137
1041.86	0.136
1042.02	0.133
1042.18	0.132
1042.34	0.134
1042.50	0.138
1042.66	0.134
1042.83	0.133
1042.99	0.138
1043.15	0.132
1043.31	0.133
1043.47	0.138
1043.63	0.135
1043.79	0.134
1043.96	0.135
1044.12	0.137
1044.28	0.133
1044.44	0.134
1044.60	0.128
1044.76	0.127
1044.92	0.129
1045.09	0.130
1045.25	0.127
1045.41	0.128
1045.57	0.123
1045.73	0.124
1045.89	0.125
1046.05	0.127
1046.21	0.138
1046.38	0.124
1046.54	0.137
1046.70	0.129
1046.86	0.121
>>>>>End Processed Spectral Data<<<<<
