SpectraSuite Data File
++++++++++++++++++++++++++++++++++++
Date: Mon May 20 12:12:49 CDT 2013
User: Students
Dark Spectrum Present: Yes
Reference Spectrum Present: Yes
Number of Sampled Component Spectra: 1
Spectrometers: USB4H00887
Integration Time (usec): 60000 (USB4H00887)
Spectra Averaged: 5 (USB4H00887)
Boxcar Smoothing: 5 (USB4H00887)
Correct for Electrical Dark: No (USB4H00887)
Strobe/Lamp Enabled: No (USB4H00887)
Correct for Detector Non-linearity: No (USB4H00887)
Correct for Stray Light: No (USB4H00887)
Number of Pixels in Processed Spectrum: 3648
>>>>>Begin Processed Spectral Data<<<<<
345.83	-0.000
346.05	-0.000
346.26	-0.000
346.48	-0.000
346.70	0.263
346.92	-0.047
347.14	0.004
347.35	0.020
347.57	0.171
347.79	-0.160
348.01	-0.114
348.23	-0.175
348.44	-0.000
348.66	0.121
348.88	-0.147
349.10	0.170
349.32	-0.040
349.53	0.092
349.75	0.206
349.97	0.105
350.19	0.132
350.41	0.127
350.62	-0.314
350.84	0.048
351.06	0.063
351.28	0.034
351.50	-0.082
351.71	0.034
351.93	0.004
352.15	-0.005
352.37	0.020
352.58	0.024
352.80	0.025
353.02	0.038
353.24	0.044
353.46	0.192
353.67	-0.149
353.89	0.072
354.11	0.057
354.33	0.055
354.54	0.128
354.76	0.217
354.98	0.397
355.20	0.307
355.41	0.111
355.63	0.194
355.85	0.103
356.07	-0.000
356.28	0.075
356.50	0.152
356.72	0.059
356.94	0.133
357.15	0.190
357.37	-0.000
357.59	0.137
357.81	0.109
358.02	0.192
358.24	0.120
358.46	0.274
358.68	0.274
358.89	0.166
359.11	-0.000
359.33	0.114
359.55	-0.664
359.76	0.142
359.98	0.145
360.20	0.146
360.42	0.121
360.63	0.137
360.85	0.085
361.07	0.300
361.29	0.024
361.50	0.111
361.72	0.067
361.94	0.234
362.15	0.115
362.37	0.056
362.59	0.053
362.81	0.100
363.02	0.154
363.24	0.264
363.46	0.186
363.68	0.259
363.89	0.161
364.11	0.230
364.33	0.271
364.54	0.159
364.76	0.213
364.98	0.247
365.20	0.245
365.41	0.150
365.63	0.173
365.85	0.113
366.06	0.354
366.28	0.344
366.50	0.179
366.71	0.072
366.93	0.095
367.15	0.100
367.37	0.084
367.58	0.109
367.80	0.134
368.02	0.316
368.23	0.123
368.45	0.117
368.67	0.106
368.88	0.125
369.10	-0.000
369.32	0.110
369.53	0.065
369.75	0.110
369.97	0.364
370.19	0.220
370.40	0.098
370.62	0.338
370.84	0.134
371.05	1.105
371.27	0.183
371.49	0.235
371.70	0.297
371.92	0.541
372.14	0.200
372.35	0.183
372.57	0.193
372.79	0.551
373.00	0.104
373.22	0.155
373.44	0.134
373.65	0.121
373.87	0.160
374.09	0.690
374.30	0.112
374.52	0.111
374.74	0.076
374.95	0.369
375.17	0.105
375.39	-0.000
375.60	0.133
375.82	0.249
376.04	0.092
376.25	0.093
376.47	0.067
376.68	0.178
376.90	0.113
377.12	0.254
377.33	0.119
377.55	0.290
377.77	0.125
377.98	0.227
378.20	0.134
378.42	0.161
378.63	0.200
378.85	-0.000
379.07	0.137
379.28	0.478
379.50	0.316
379.71	0.180
379.93	0.137
380.15	0.200
380.36	0.271
380.58	0.195
380.80	0.730
381.01	0.196
381.23	0.152
381.44	0.161
381.66	0.193
381.88	0.229
382.09	-0.090
382.31	0.138
382.53	0.134
382.74	0.765
382.96	0.186
383.17	0.140
383.39	0.176
383.61	0.211
383.82	0.157
384.04	0.183
384.25	0.214
384.47	0.205
384.69	0.197
384.90	0.200
385.12	0.444
385.33	0.303
385.55	0.228
385.77	0.389
385.98	0.216
386.20	0.296
386.41	0.257
386.63	0.310
386.85	0.259
387.06	0.326
387.28	0.561
387.49	0.342
387.71	0.233
387.93	0.203
388.14	0.678
388.36	0.234
388.57	0.211
388.79	0.233
389.01	-0.000
389.22	0.303
389.44	0.265
389.65	0.205
389.87	0.207
390.08	0.250
390.30	0.196
390.52	0.408
390.73	0.461
390.95	0.311
391.16	0.300
391.38	-0.000
391.59	0.342
391.81	0.275
392.03	0.255
392.24	0.286
392.46	0.234
392.67	0.209
392.89	0.285
393.10	0.398
393.32	0.271
393.53	0.323
393.75	0.203
393.97	0.243
394.18	0.340
394.40	0.285
394.61	0.312
394.83	0.272
395.04	0.335
395.26	0.230
395.47	0.346
395.69	0.273
395.91	0.292
396.12	0.354
396.34	0.320
396.55	0.198
396.77	0.301
396.98	1.017
397.20	0.352
397.41	0.371
397.63	0.252
397.84	0.248
398.06	0.235
398.27	0.229
398.49	0.263
398.71	0.198
398.92	0.257
399.14	0.331
399.35	0.400
399.57	0.374
399.78	0.272
400.00	0.272
400.21	0.333
400.43	0.276
400.64	0.297
400.86	0.723
401.07	0.405
401.29	0.331
401.50	0.365
401.72	0.557
401.93	0.343
402.15	0.410
402.36	0.358
402.58	0.286
402.79	0.323
403.01	0.535
403.22	0.404
403.44	0.256
403.65	0.428
403.87	0.447
404.08	0.356
404.30	0.576
404.51	0.319
404.73	0.385
404.94	0.336
405.16	0.352
405.37	0.289
405.59	0.529
405.80	0.345
406.02	0.432
406.23	0.429
406.45	0.484
406.66	0.490
406.88	0.315
407.09	0.505
407.31	0.403
407.52	0.477
407.74	0.382
407.95	0.460
408.17	0.411
408.38	0.414
408.60	0.272
408.81	0.448
409.03	0.356
409.24	0.353
409.45	0.404
409.67	0.375
409.88	0.349
410.10	0.439
410.31	0.368
410.53	0.361
410.74	0.517
410.96	0.533
411.17	0.561
411.39	0.422
411.60	0.393
411.82	0.447
412.03	0.438
412.24	0.423
412.46	0.634
412.67	0.505
412.89	0.480
413.10	0.476
413.32	0.415
413.53	0.474
413.75	0.481
413.96	0.360
414.17	0.480
414.39	0.483
414.60	0.389
414.82	0.495
415.03	0.383
415.25	0.427
415.46	0.300
415.68	0.422
415.89	0.750
416.10	0.645
416.32	0.361
416.53	0.436
416.75	0.415
416.96	0.499
417.18	0.435
417.39	0.414
417.60	0.406
417.82	0.598
418.03	0.535
418.25	0.446
418.46	0.453
418.67	0.425
418.89	0.453
419.10	0.474
419.32	0.637
419.53	0.573
419.75	0.490
419.96	0.438
420.17	0.531
420.39	0.495
420.60	0.513
420.82	0.634
421.03	0.503
421.24	0.422
421.46	0.459
421.67	0.500
421.89	0.435
422.10	0.477
422.31	0.478
422.53	0.685
422.74	0.501
422.96	0.401
423.17	0.448
423.38	0.549
423.60	0.462
423.81	0.586
424.03	0.506
424.24	0.559
424.45	0.550
424.67	0.546
424.88	0.485
425.09	0.528
425.31	0.488
425.52	0.518
425.74	0.583
425.95	0.629
426.16	0.486
426.38	0.552
426.59	0.512
426.80	0.597
427.02	0.620
427.23	0.492
427.45	0.644
427.66	0.617
427.87	0.477
428.09	0.505
428.30	0.558
428.51	0.546
428.73	0.610
428.94	0.539
429.15	0.519
429.37	0.496
429.58	0.513
429.79	0.479
430.01	0.579
430.22	0.574
430.44	0.603
430.65	0.546
430.86	0.581
431.08	0.568
431.29	0.522
431.50	0.619
431.72	0.827
431.93	0.670
432.14	0.495
432.36	0.544
432.57	0.554
432.78	0.557
433.00	0.513
433.21	0.513
433.42	0.630
433.64	0.550
433.85	0.622
434.06	0.513
434.28	0.536
434.49	0.557
434.70	0.561
434.92	0.578
435.13	0.626
435.34	0.636
435.56	0.601
435.77	0.602
435.98	0.778
436.20	0.643
436.41	0.558
436.62	0.548
436.83	0.628
437.05	0.712
437.26	0.612
437.47	0.547
437.69	0.595
437.90	0.550
438.11	0.537
438.33	0.584
438.54	0.607
438.75	0.761
438.97	0.757
439.18	0.567
439.39	0.597
439.60	0.651
439.82	0.609
440.03	0.562
440.24	0.810
440.46	0.620
440.67	0.595
440.88	0.639
441.10	0.596
441.31	0.593
441.52	0.642
441.73	0.712
441.95	0.629
442.16	0.579
442.37	0.896
442.58	0.575
442.80	0.555
443.01	0.717
443.22	0.660
443.44	0.572
443.65	0.675
443.86	0.675
444.07	0.726
444.29	0.632
444.50	0.809
444.71	0.616
444.92	0.566
445.14	0.719
445.35	0.758
445.56	0.594
445.78	0.692
445.99	0.694
446.20	0.599
446.41	0.673
446.63	0.681
446.84	0.643
447.05	0.646
447.26	0.785
447.48	0.664
447.69	0.630
447.90	0.710
448.11	0.627
448.33	0.656
448.54	0.680
448.75	0.712
448.96	0.715
449.18	0.754
449.39	0.672
449.60	0.650
449.81	0.787
450.03	0.681
450.24	0.745
450.45	0.706
450.66	0.683
450.87	0.700
451.09	0.653
451.30	0.635
451.51	0.698
451.72	0.708
451.94	0.727
452.15	0.788
452.36	0.671
452.57	0.689
452.78	0.691
453.00	0.723
453.21	0.687
453.42	0.664
453.63	0.759
453.85	0.731
454.06	0.727
454.27	0.857
454.48	0.762
454.69	0.684
454.91	0.750
455.12	0.657
455.33	0.739
455.54	0.750
455.75	0.724
455.97	0.741
456.18	0.734
456.39	0.738
456.60	0.758
456.81	0.703
457.03	0.719
457.24	0.721
457.45	0.804
457.66	0.749
457.87	0.715
458.09	0.733
458.30	0.658
458.51	0.773
458.72	0.791
458.93	0.796
459.15	0.702
459.36	0.761
459.57	0.779
459.78	0.815
459.99	0.733
460.20	0.700
460.42	0.776
460.63	0.732
460.84	0.716
461.05	0.735
461.26	0.796
461.47	0.721
461.69	0.763
461.90	0.796
462.11	0.762
462.32	0.811
462.53	0.749
462.74	0.833
462.96	0.724
463.17	0.717
463.38	0.755
463.59	0.851
463.80	0.716
464.01	0.738
464.23	0.822
464.44	0.788
464.65	0.795
464.86	0.817
465.07	0.825
465.28	0.790
465.49	0.811
465.71	0.768
465.92	0.801
466.13	0.839
466.34	0.783
466.55	0.831
466.76	0.792
466.97	0.812
467.19	0.803
467.40	0.836
467.61	0.844
467.82	0.772
468.03	0.760
468.24	0.825
468.45	0.857
468.66	0.836
468.88	0.839
469.09	0.841
469.30	0.882
469.51	0.816
469.72	0.855
469.93	0.827
470.14	0.809
470.35	0.894
470.57	0.850
470.78	0.796
470.99	0.920
471.20	0.861
471.41	0.824
471.62	0.872
471.83	0.844
472.04	0.870
472.25	0.909
472.47	0.831
472.68	0.829
472.89	0.834
473.10	0.873
473.31	0.830
473.52	0.892
473.73	0.911
473.94	0.842
474.15	0.864
474.36	0.866
474.57	0.886
474.79	0.858
475.00	0.863
475.21	0.851
475.42	0.932
475.63	0.840
475.84	0.865
476.05	0.868
476.26	0.842
476.47	0.874
476.68	0.916
476.89	0.855
477.10	0.902
477.32	0.890
477.53	0.942
477.74	0.866
477.95	0.906
478.16	0.859
478.37	0.899
478.58	0.902
478.79	0.912
479.00	0.912
479.21	0.875
479.42	0.914
479.63	0.914
479.84	0.878
480.05	0.880
480.26	0.907
480.47	0.922
480.69	0.925
480.90	0.897
481.11	0.894
481.32	0.949
481.53	0.896
481.74	0.942
481.95	0.916
482.16	0.936
482.37	0.945
482.58	0.911
482.79	0.930
483.00	0.960
483.21	0.904
483.42	0.879
483.63	0.951
483.84	0.974
484.05	0.964
484.26	0.935
484.47	0.930
484.68	0.896
484.89	0.902
485.10	0.944
485.31	0.923
485.52	0.929
485.73	0.929
485.94	0.965
486.15	0.915
486.37	0.930
486.58	0.898
486.79	0.910
487.00	0.957
487.21	0.948
487.42	0.945
487.63	0.950
487.84	0.965
488.05	0.965
488.26	0.929
488.47	0.938
488.68	0.964
488.89	0.944
489.10	0.940
489.31	0.949
489.52	0.983
489.73	0.951
489.94	0.984
490.15	0.947
490.36	0.987
490.57	0.940
490.78	0.924
490.99	0.960
491.20	1.034
491.41	0.991
491.62	0.934
491.83	0.959
492.04	0.955
492.25	0.963
492.45	0.963
492.66	0.981
492.87	0.972
493.08	0.960
493.29	0.947
493.50	0.935
493.71	0.941
493.92	0.940
494.13	0.952
494.34	0.969
494.55	0.975
494.76	0.999
494.97	0.995
495.18	0.965
495.39	0.981
495.60	0.934
495.81	0.937
496.02	0.954
496.23	0.948
496.44	0.979
496.65	0.976
496.86	0.979
497.07	1.002
497.28	0.997
497.49	0.950
497.70	0.950
497.91	0.973
498.12	0.957
498.32	0.999
498.53	0.985
498.74	0.975
498.95	0.995
499.16	0.954
499.37	0.958
499.58	0.964
499.79	0.991
500.00	0.988
500.21	1.013
500.42	0.961
500.63	0.960
500.84	0.978
501.05	0.957
501.26	0.981
501.46	1.017
501.67	0.983
501.88	0.989
502.09	0.968
502.30	0.974
502.51	1.018
502.72	0.978
502.93	0.992
503.14	1.011
503.35	0.987
503.56	0.982
503.77	1.011
503.97	0.988
504.18	0.987
504.39	1.015
504.60	0.988
504.81	1.012
505.02	1.001
505.23	1.004
505.44	0.987
505.65	0.991
505.86	0.978
506.07	1.039
506.27	1.002
506.48	1.005
506.69	0.991
506.90	1.009
507.11	1.007
507.32	0.987
507.53	0.995
507.74	0.985
507.95	0.998
508.15	0.999
508.36	1.004
508.57	1.016
508.78	1.002
508.99	1.003
509.20	0.979
509.41	1.000
509.62	0.989
509.82	0.986
510.03	0.999
510.24	1.001
510.45	1.024
510.66	1.012
510.87	1.008
511.08	0.972
511.29	1.008
511.49	0.988
511.70	1.031
511.91	0.970
512.12	0.968
512.33	0.999
512.54	1.010
512.75	0.996
512.95	1.021
513.16	1.011
513.37	0.989
513.58	1.023
513.79	0.990
514.00	0.996
514.20	1.013
514.41	1.002
514.62	0.971
514.83	1.008
515.04	0.998
515.25	0.980
515.46	0.991
515.66	0.993
515.87	1.005
516.08	0.976
516.29	0.997
516.50	0.978
516.71	0.973
516.91	0.982
517.12	0.997
517.33	0.985
517.54	0.972
517.75	0.976
517.95	0.989
518.16	0.999
518.37	0.971
518.58	0.978
518.79	0.956
519.00	0.983
519.20	0.994
519.41	0.969
519.62	0.986
519.83	0.994
520.04	0.961
520.24	0.957
520.45	0.965
520.66	0.986
520.87	0.951
521.08	0.948
521.28	0.952
521.49	0.964
521.70	0.937
521.91	0.949
522.12	0.931
522.32	0.951
522.53	0.936
522.74	0.925
522.95	0.933
523.16	0.935
523.36	0.944
523.57	0.927
523.78	0.922
523.99	0.926
524.20	0.920
524.40	0.933
524.61	0.938
524.82	0.914
525.03	0.920
525.23	0.921
525.44	0.906
525.65	0.905
525.86	0.925
526.06	0.899
526.27	0.900
526.48	0.908
526.69	0.893
526.90	0.896
527.10	0.928
527.31	0.887
527.52	0.881
527.73	0.875
527.93	0.883
528.14	0.888
528.35	0.879
528.56	0.881
528.76	0.874
528.97	0.864
529.18	0.857
529.39	0.857
529.59	0.860
529.80	0.887
530.01	0.861
530.22	0.859
530.42	0.831
530.63	0.847
530.84	0.826
531.05	0.839
531.25	0.841
531.46	0.834
531.67	0.814
531.88	0.831
532.08	0.826
532.29	0.821
532.50	0.814
532.70	0.807
532.91	0.797
533.12	0.799
533.33	0.821
533.53	0.794
533.74	0.794
533.95	0.799
534.15	0.789
534.36	0.791
534.57	0.776
534.78	0.777
534.98	0.787
535.19	0.760
535.40	0.762
535.60	0.779
535.81	0.759
536.02	0.762
536.23	0.754
536.43	0.754
536.64	0.741
536.85	0.748
537.05	0.757
537.26	0.737
537.47	0.741
537.67	0.731
537.88	0.726
538.09	0.734
538.30	0.724
538.50	0.716
538.71	0.727
538.92	0.714
539.12	0.712
539.33	0.706
539.54	0.707
539.74	0.710
539.95	0.701
540.16	0.698
540.36	0.689
540.57	0.689
540.78	0.682
540.98	0.679
541.19	0.678
541.40	0.667
541.60	0.677
541.81	0.671
542.02	0.671
542.22	0.662
542.43	0.657
542.64	0.653
542.84	0.653
543.05	0.645
543.26	0.646
543.46	0.648
543.67	0.646
543.88	0.642
544.08	0.633
544.29	0.627
544.50	0.628
544.70	0.629
544.91	0.621
545.12	0.622
545.32	0.618
545.53	0.622
545.74	0.610
545.94	0.609
546.15	0.606
546.35	0.604
546.56	0.601
546.77	0.598
546.97	0.595
547.18	0.588
547.39	0.588
547.59	0.586
547.80	0.582
548.01	0.586
548.21	0.582
548.42	0.573
548.62	0.573
548.83	0.570
549.04	0.567
549.24	0.559
549.45	0.558
549.65	0.554
549.86	0.550
550.07	0.549
550.27	0.546
550.48	0.553
550.69	0.541
550.89	0.540
551.10	0.536
551.30	0.535
551.51	0.535
551.72	0.526
551.92	0.528
552.13	0.528
552.33	0.529
552.54	0.524
552.75	0.518
552.95	0.519
553.16	0.515
553.36	0.513
553.57	0.510
553.78	0.508
553.98	0.509
554.19	0.500
554.39	0.497
554.60	0.500
554.80	0.500
555.01	0.492
555.22	0.494
555.42	0.491
555.63	0.484
555.83	0.488
556.04	0.481
556.25	0.483
556.45	0.475
556.66	0.473
556.86	0.476
557.07	0.474
557.27	0.473
557.48	0.467
557.68	0.465
557.89	0.466
558.10	0.462
558.30	0.460
558.51	0.457
558.71	0.455
558.92	0.450
559.12	0.452
559.33	0.455
559.54	0.451
559.74	0.447
559.95	0.445
560.15	0.444
560.36	0.442
560.56	0.437
560.77	0.437
560.97	0.437
561.18	0.432
561.38	0.431
561.59	0.433
561.79	0.428
562.00	0.426
562.21	0.423
562.41	0.422
562.62	0.421
562.82	0.419
563.03	0.416
563.23	0.416
563.44	0.416
563.64	0.413
563.85	0.415
564.05	0.408
564.26	0.407
564.46	0.406
564.67	0.407
564.87	0.402
565.08	0.399
565.28	0.399
565.49	0.400
565.69	0.397
565.90	0.394
566.10	0.396
566.31	0.389
566.51	0.392
566.72	0.392
566.92	0.386
567.13	0.386
567.33	0.385
567.54	0.383
567.74	0.382
567.95	0.378
568.15	0.379
568.36	0.379
568.56	0.377
568.77	0.372
568.97	0.371
569.18	0.371
569.38	0.370
569.59	0.371
569.79	0.368
570.00	0.366
570.20	0.365
570.41	0.363
570.61	0.361
570.82	0.362
571.02	0.358
571.23	0.360
571.43	0.355
571.64	0.353
571.84	0.353
572.05	0.351
572.25	0.351
572.45	0.349
572.66	0.346
572.86	0.345
573.07	0.344
573.27	0.344
573.48	0.343
573.68	0.340
573.89	0.339
574.09	0.340
574.30	0.338
574.50	0.336
574.70	0.336
574.91	0.335
575.11	0.335
575.32	0.334
575.52	0.331
575.73	0.330
575.93	0.329
576.14	0.328
576.34	0.325
576.54	0.325
576.75	0.323
576.95	0.322
577.16	0.320
577.36	0.319
577.57	0.319
577.77	0.317
577.97	0.315
578.18	0.316
578.38	0.313
578.59	0.312
578.79	0.310
579.00	0.311
579.20	0.309
579.40	0.309
579.61	0.308
579.81	0.307
580.02	0.305
580.22	0.304
580.42	0.303
580.63	0.303
580.83	0.302
581.04	0.300
581.24	0.299
581.45	0.299
581.65	0.298
581.85	0.296
582.06	0.294
582.26	0.294
582.47	0.293
582.67	0.292
582.87	0.291
583.08	0.289
583.28	0.289
583.48	0.288
583.69	0.285
583.89	0.285
584.10	0.286
584.30	0.284
584.50	0.282
584.71	0.281
584.91	0.281
585.12	0.278
585.32	0.279
585.52	0.277
585.73	0.275
585.93	0.275
586.13	0.275
586.34	0.274
586.54	0.273
586.75	0.272
586.95	0.271
587.15	0.271
587.36	0.270
587.56	0.269
587.76	0.268
587.97	0.267
588.17	0.266
588.37	0.266
588.58	0.266
588.78	0.263
588.98	0.264
589.19	0.262
589.39	0.260
589.60	0.262
589.80	0.259
590.00	0.259
590.21	0.259
590.41	0.257
590.61	0.256
590.82	0.256
591.02	0.255
591.22	0.253
591.43	0.254
591.63	0.252
591.83	0.252
592.04	0.251
592.24	0.251
592.44	0.249
592.65	0.247
592.85	0.248
593.05	0.247
593.26	0.246
593.46	0.245
593.66	0.245
593.86	0.243
594.07	0.242
594.27	0.242
594.47	0.241
594.68	0.240
594.88	0.240
595.08	0.240
595.29	0.240
595.49	0.238
595.69	0.237
595.90	0.236
596.10	0.236
596.30	0.235
596.50	0.234
596.71	0.234
596.91	0.233
597.11	0.233
597.32	0.232
597.52	0.231
597.72	0.231
597.93	0.231
598.13	0.229
598.33	0.230
598.53	0.229
598.74	0.228
598.94	0.228
599.14	0.228
599.35	0.227
599.55	0.228
599.75	0.227
599.95	0.226
600.16	0.226
600.36	0.224
600.56	0.224
600.76	0.223
600.97	0.222
601.17	0.221
601.37	0.221
601.58	0.220
601.78	0.220
601.98	0.219
602.18	0.218
602.39	0.218
602.59	0.218
602.79	0.217
602.99	0.217
603.20	0.216
603.40	0.216
603.60	0.215
603.80	0.215
604.01	0.215
604.21	0.214
604.41	0.213
604.61	0.211
604.82	0.211
605.02	0.211
605.22	0.210
605.42	0.210
605.62	0.210
605.83	0.209
606.03	0.208
606.23	0.208
606.43	0.208
606.64	0.208
606.84	0.207
607.04	0.207
607.24	0.207
607.45	0.207
607.65	0.205
607.85	0.206
608.05	0.204
608.25	0.204
608.46	0.204
608.66	0.204
608.86	0.204
609.06	0.203
609.26	0.202
609.47	0.202
609.67	0.201
609.87	0.202
610.07	0.201
610.28	0.199
610.48	0.199
610.68	0.200
610.88	0.198
611.08	0.198
611.29	0.197
611.49	0.196
611.69	0.197
611.89	0.195
612.09	0.195
612.29	0.194
612.50	0.194
612.70	0.194
612.90	0.193
613.10	0.193
613.30	0.192
613.51	0.193
613.71	0.192
613.91	0.196
614.11	0.191
614.31	0.191
614.51	0.191
614.72	0.190
614.92	0.189
615.12	0.189
615.32	0.189
615.52	0.189
615.72	0.189
615.93	0.189
616.13	0.188
616.33	0.188
616.53	0.188
616.73	0.188
616.93	0.187
617.14	0.188
617.34	0.188
617.54	0.188
617.74	0.188
617.94	0.187
618.14	0.186
618.34	0.186
618.55	0.185
618.75	0.186
618.95	0.185
619.15	0.185
619.35	0.184
619.55	0.183
619.75	0.184
619.96	0.182
620.16	0.183
620.36	0.183
620.56	0.183
620.76	0.182
620.96	0.181
621.16	0.181
621.36	0.181
621.57	0.181
621.77	0.181
621.97	0.180
622.17	0.180
622.37	0.180
622.57	0.180
622.77	0.179
622.97	0.178
623.18	0.179
623.38	0.179
623.58	0.178
623.78	0.178
623.98	0.177
624.18	0.177
624.38	0.176
624.58	0.176
624.78	0.177
624.98	0.176
625.19	0.176
625.39	0.176
625.59	0.175
625.79	0.175
625.99	0.174
626.19	0.174
626.39	0.174
626.59	0.174
626.79	0.174
626.99	0.174
627.19	0.173
627.40	0.174
627.60	0.173
627.80	0.173
628.00	0.173
628.20	0.172
628.40	0.172
628.60	0.172
628.80	0.171
629.00	0.171
629.20	0.170
629.40	0.170
629.60	0.169
629.80	0.169
630.00	0.169
630.20	0.169
630.41	0.168
630.61	0.168
630.81	0.167
631.01	0.168
631.21	0.167
631.41	0.167
631.61	0.168
631.81	0.167
632.01	0.167
632.21	0.167
632.41	0.166
632.61	0.166
632.81	0.167
633.01	0.167
633.21	0.167
633.41	0.167
633.61	0.166
633.81	0.166
634.01	0.165
634.21	0.165
634.41	0.165
634.61	0.165
634.81	0.165
635.01	0.164
635.22	0.164
635.42	0.163
635.62	0.163
635.82	0.163
636.02	0.163
636.22	0.162
636.42	0.162
636.62	0.162
636.82	0.161
637.02	0.161
637.22	0.161
637.42	0.161
637.62	0.160
637.82	0.160
638.02	0.160
638.22	0.160
638.42	0.159
638.62	0.159
638.82	0.159
639.02	0.159
639.22	0.158
639.42	0.157
639.62	0.157
639.82	0.156
640.02	0.156
640.22	0.156
640.42	0.156
640.62	0.155
640.82	0.155
641.02	0.155
641.22	0.155
641.42	0.155
641.61	0.155
641.81	0.155
642.01	0.155
642.21	0.155
642.41	0.155
642.61	0.155
642.81	0.154
643.01	0.154
643.21	0.154
643.41	0.154
643.61	0.154
643.81	0.154
644.01	0.153
644.21	0.152
644.41	0.153
644.61	0.153
644.81	0.153
645.01	0.152
645.21	0.152
645.41	0.152
645.61	0.152
645.81	0.151
646.01	0.150
646.21	0.151
646.40	0.150
646.60	0.150
646.80	0.150
647.00	0.150
647.20	0.149
647.40	0.149
647.60	0.149
647.80	0.148
648.00	0.149
648.20	0.148
648.40	0.149
648.60	0.148
648.80	0.148
649.00	0.148
649.20	0.148
649.39	0.148
649.59	0.147
649.79	0.147
649.99	0.147
650.19	0.146
650.39	0.146
650.59	0.146
650.79	0.145
650.99	0.145
651.19	0.144
651.39	0.144
651.58	0.144
651.78	0.144
651.98	0.143
652.18	0.143
652.38	0.143
652.58	0.143
652.78	0.143
652.98	0.142
653.18	0.143
653.38	0.143
653.57	0.142
653.77	0.143
653.97	0.142
654.17	0.142
654.37	0.142
654.57	0.142
654.77	0.141
654.97	0.141
655.16	0.141
655.36	0.141
655.56	0.141
655.76	0.140
655.96	0.141
656.16	0.139
656.36	0.139
656.56	0.139
656.75	0.139
656.95	0.138
657.15	0.138
657.35	0.138
657.55	0.137
657.75	0.138
657.95	0.138
658.14	0.138
658.34	0.138
658.54	0.137
658.74	0.137
658.94	0.136
659.14	0.137
659.34	0.136
659.53	0.136
659.73	0.136
659.93	0.135
660.13	0.135
660.33	0.135
660.53	0.135
660.72	0.135
660.92	0.135
661.12	0.135
661.32	0.135
661.52	0.134
661.72	0.134
661.91	0.133
662.11	0.133
662.31	0.133
662.51	0.133
662.71	0.133
662.90	0.132
663.10	0.132
663.30	0.131
663.50	0.131
663.70	0.131
663.90	0.131
664.09	0.131
664.29	0.130
664.49	0.130
664.69	0.130
664.89	0.130
665.08	0.130
665.28	0.129
665.48	0.129
665.68	0.128
665.88	0.128
666.07	0.128
666.27	0.128
666.47	0.128
666.67	0.128
666.87	0.128
667.06	0.127
667.26	0.127
667.46	0.126
667.66	0.127
667.85	0.127
668.05	0.127
668.25	0.127
668.45	0.127
668.65	0.126
668.84	0.126
669.04	0.126
669.24	0.125
669.44	0.125
669.63	0.125
669.83	0.125
670.03	0.124
670.23	0.123
670.42	0.123
670.62	0.123
670.82	0.122
671.02	0.123
671.22	0.122
671.41	0.122
671.61	0.122
671.81	0.122
672.01	0.122
672.20	0.121
672.40	0.121
672.60	0.121
672.80	0.121
672.99	0.121
673.19	0.120
673.39	0.120
673.58	0.120
673.78	0.120
673.98	0.119
674.18	0.119
674.37	0.119
674.57	0.119
674.77	0.119
674.97	0.119
675.16	0.119
675.36	0.119
675.56	0.118
675.75	0.118
675.95	0.118
676.15	0.118
676.35	0.118
676.54	0.118
676.74	0.117
676.94	0.118
677.13	0.117
677.33	0.116
677.53	0.117
677.73	0.116
677.92	0.116
678.12	0.116
678.32	0.115
678.51	0.115
678.71	0.115
678.91	0.114
679.11	0.114
679.30	0.114
679.50	0.113
679.70	0.113
679.89	0.113
680.09	0.113
680.29	0.113
680.48	0.113
680.68	0.113
680.88	0.113
681.07	0.113
681.27	0.112
681.47	0.112
681.66	0.112
681.86	0.112
682.06	0.112
682.25	0.111
682.45	0.111
682.65	0.111
682.84	0.110
683.04	0.110
683.24	0.110
683.43	0.110
683.63	0.110
683.83	0.110
684.02	0.109
684.22	0.109
684.42	0.109
684.61	0.108
684.81	0.109
685.01	0.108
685.20	0.108
685.40	0.108
685.60	0.108
685.79	0.108
685.99	0.108
686.19	0.108
686.38	0.108
686.58	0.108
686.77	0.108
686.97	0.108
687.17	0.108
687.36	0.108
687.56	0.108
687.76	0.107
687.95	0.107
688.15	0.107
688.34	0.107
688.54	0.106
688.74	0.106
688.93	0.105
689.13	0.105
689.33	0.105
689.52	0.105
689.72	0.105
689.91	0.105
690.11	0.104
690.31	0.104
690.50	0.104
690.70	0.105
690.89	0.104
691.09	0.104
691.29	0.104
691.48	0.103
691.68	0.103
691.87	0.103
692.07	0.103
692.27	0.103
692.46	0.103
692.66	0.103
692.85	0.103
693.05	0.102
693.25	0.102
693.44	0.102
693.64	0.102
693.83	0.102
694.03	0.101
694.22	0.101
694.42	0.101
694.62	0.101
694.81	0.101
695.01	0.101
695.20	0.100
695.40	0.100
695.59	0.100
695.79	0.100
695.99	0.100
696.18	0.100
696.38	0.100
696.57	0.100
696.77	0.099
696.96	0.099
697.16	0.099
697.36	0.099
697.55	0.099
697.75	0.099
697.94	0.098
698.14	0.099
698.33	0.098
698.53	0.098
698.72	0.098
698.92	0.098
699.11	0.098
699.31	0.098
699.51	0.098
699.70	0.098
699.90	0.098
700.09	0.098
700.29	0.097
700.48	0.098
700.68	0.097
700.87	0.097
701.07	0.096
701.26	0.096
701.46	0.096
701.65	0.096
701.85	0.096
702.04	0.096
702.24	0.095
702.43	0.095
702.63	0.095
702.82	0.095
703.02	0.095
703.21	0.095
703.41	0.095
703.60	0.095
703.80	0.095
703.99	0.094
704.19	0.095
704.38	0.095
704.58	0.094
704.77	0.094
704.97	0.094
705.16	0.094
705.36	0.094
705.55	0.094
705.75	0.093
705.94	0.094
706.14	0.094
706.33	0.093
706.53	0.093
706.72	0.093
706.92	0.093
707.11	0.093
707.31	0.092
707.50	0.092
707.70	0.093
707.89	0.093
708.09	0.092
708.28	0.092
708.48	0.093
708.67	0.092
708.86	0.092
709.06	0.092
709.25	0.092
709.45	0.093
709.64	0.092
709.84	0.092
710.03	0.092
710.23	0.091
710.42	0.091
710.62	0.091
710.81	0.091
711.00	0.091
711.20	0.091
711.39	0.090
711.59	0.090
711.78	0.090
711.98	0.090
712.17	0.090
712.37	0.090
712.56	0.090
712.75	0.091
712.95	0.091
713.14	0.091
713.34	0.091
713.53	0.091
713.73	0.091
713.92	0.091
714.11	0.091
714.31	0.091
714.50	0.091
714.70	0.091
714.89	0.090
715.08	0.090
715.28	0.090
715.47	0.090
715.67	0.089
715.86	0.089
716.06	0.090
716.25	0.089
716.44	0.089
716.64	0.089
716.83	0.089
717.03	0.089
717.22	0.089
717.41	0.089
717.61	0.089
717.80	0.089
717.99	0.089
718.19	0.089
718.38	0.089
718.58	0.089
718.77	0.088
718.96	0.088
719.16	0.088
719.35	0.088
719.55	0.087
719.74	0.087
719.93	0.087
720.13	0.087
720.32	0.086
720.51	0.087
720.71	0.087
720.90	0.087
721.10	0.087
721.29	0.087
721.48	0.087
721.68	0.087
721.87	0.087
722.06	0.087
722.26	0.087
722.45	0.087
722.64	0.087
722.84	0.087
723.03	0.087
723.22	0.087
723.42	0.087
723.61	0.087
723.80	0.087
724.00	0.087
724.19	0.087
724.38	0.087
724.58	0.087
724.77	0.088
724.96	0.087
725.16	0.087
725.35	0.087
725.54	0.087
725.74	0.087
725.93	0.087
726.12	0.087
726.32	0.088
726.51	0.088
726.70	0.087
726.90	0.087
727.09	0.087
727.28	0.087
727.48	0.087
727.67	0.087
727.86	0.087
728.06	0.087
728.25	0.087
728.44	0.087
728.64	0.087
728.83	0.087
729.02	0.086
729.21	0.087
729.41	0.087
729.60	0.087
729.79	0.087
729.99	0.087
730.18	0.087
730.37	0.086
730.56	0.086
730.76	0.086
730.95	0.086
731.14	0.086
731.34	0.086
731.53	0.086
731.72	0.086
731.91	0.087
732.11	0.086
732.30	0.087
732.49	0.087
732.69	0.087
732.88	0.087
733.07	0.087
733.26	0.088
733.46	0.087
733.65	0.088
733.84	0.087
734.03	0.087
734.23	0.087
734.42	0.087
734.61	0.087
734.80	0.086
735.00	0.087
735.19	0.087
735.38	0.086
735.57	0.086
735.77	0.087
735.96	0.087
736.15	0.087
736.34	0.087
736.54	0.087
736.73	0.087
736.92	0.088
737.11	0.087
737.31	0.087
737.50	0.088
737.69	0.087
737.88	0.087
738.07	0.087
738.27	0.087
738.46	0.087
738.65	0.086
738.84	0.086
739.04	0.086
739.23	0.086
739.42	0.086
739.61	0.086
739.80	0.086
740.00	0.086
740.19	0.086
740.38	0.086
740.57	0.086
740.76	0.086
740.96	0.086
741.15	0.085
741.34	0.085
741.53	0.086
741.72	0.085
741.92	0.085
742.11	0.085
742.30	0.085
742.49	0.085
742.68	0.085
742.88	0.085
743.07	0.085
743.26	0.085
743.45	0.086
743.64	0.085
743.84	0.085
744.03	0.085
744.22	0.085
744.41	0.084
744.60	0.084
744.79	0.084
744.99	0.083
745.18	0.083
745.37	0.083
745.56	0.083
745.75	0.083
745.94	0.083
746.14	0.083
746.33	0.083
746.52	0.083
746.71	0.083
746.90	0.084
747.09	0.084
747.28	0.084
747.48	0.084
747.67	0.084
747.86	0.084
748.05	0.084
748.24	0.084
748.43	0.084
748.62	0.084
748.82	0.084
749.01	0.084
749.20	0.083
749.39	0.083
749.58	0.083
749.77	0.083
749.96	0.083
750.16	0.083
750.35	0.083
750.54	0.083
750.73	0.082
750.92	0.082
751.11	0.082
751.30	0.083
751.49	0.082
751.68	0.082
751.88	0.082
752.07	0.082
752.26	0.082
752.45	0.082
752.64	0.082
752.83	0.082
753.02	0.082
753.21	0.082
753.40	0.082
753.60	0.082
753.79	0.082
753.98	0.082
754.17	0.082
754.36	0.082
754.55	0.082
754.74	0.082
754.93	0.081
755.12	0.081
755.31	0.081
755.50	0.081
755.70	0.081
755.89	0.080
756.08	0.081
756.27	0.080
756.46	0.081
756.65	0.080
756.84	0.080
757.03	0.080
757.22	0.080
757.41	0.080
757.60	0.080
757.79	0.080
757.98	0.080
758.17	0.080
758.36	0.080
758.56	0.080
758.75	0.080
758.94	0.080
759.13	0.080
759.32	0.080
759.51	0.080
759.70	0.080
759.89	0.080
760.08	0.080
760.27	0.080
760.46	0.080
760.65	0.080
760.84	0.080
761.03	0.080
761.22	0.080
761.41	0.080
761.60	0.080
761.79	0.080
761.98	0.080
762.17	0.080
762.36	0.080
762.55	0.079
762.74	0.080
762.93	0.080
763.12	0.079
763.31	0.079
763.50	0.079
763.69	0.079
763.88	0.079
764.07	0.078
764.26	0.078
764.45	0.078
764.64	0.078
764.83	0.078
765.02	0.078
765.21	0.078
765.40	0.078
765.59	0.078
765.78	0.078
765.97	0.078
766.16	0.078
766.35	0.078
766.54	0.079
766.73	0.078
766.92	0.078
767.11	0.078
767.30	0.079
767.49	0.078
767.68	0.079
767.87	0.079
768.06	0.078
768.25	0.078
768.44	0.079
768.63	0.078
768.82	0.078
769.01	0.078
769.20	0.078
769.39	0.078
769.58	0.078
769.77	0.078
769.96	0.078
770.15	0.078
770.34	0.078
770.53	0.078
770.72	0.077
770.91	0.077
771.10	0.077
771.29	0.077
771.47	0.077
771.66	0.077
771.85	0.077
772.04	0.077
772.23	0.077
772.42	0.077
772.61	0.077
772.80	0.077
772.99	0.077
773.18	0.076
773.37	0.077
773.56	0.076
773.75	0.076
773.94	0.076
774.13	0.076
774.31	0.076
774.50	0.076
774.69	0.076
774.88	0.076
775.07	0.076
775.26	0.076
775.45	0.076
775.64	0.076
775.83	0.076
776.02	0.076
776.21	0.076
776.40	0.076
776.58	0.076
776.77	0.076
776.96	0.076
777.15	0.076
777.34	0.076
777.53	0.076
777.72	0.076
777.91	0.076
778.10	0.075
778.28	0.075
778.47	0.075
778.66	0.075
778.85	0.075
779.04	0.075
779.23	0.075
779.42	0.075
779.61	0.075
779.79	0.075
779.98	0.075
780.17	0.075
780.36	0.075
780.55	0.074
780.74	0.074
780.93	0.074
781.12	0.074
781.30	0.074
781.49	0.074
781.68	0.074
781.87	0.074
782.06	0.073
782.25	0.073
782.44	0.074
782.62	0.074
782.81	0.074
783.00	0.074
783.19	0.074
783.38	0.074
783.57	0.074
783.75	0.074
783.94	0.074
784.13	0.074
784.32	0.073
784.51	0.073
784.70	0.074
784.88	0.073
785.07	0.073
785.26	0.073
785.45	0.073
785.64	0.073
785.83	0.074
786.01	0.073
786.20	0.074
786.39	0.074
786.58	0.073
786.77	0.073
786.95	0.073
787.14	0.074
787.33	0.074
787.52	0.073
787.71	0.073
787.90	0.073
788.08	0.073
788.27	0.073
788.46	0.074
788.65	0.074
788.84	0.074
789.02	0.073
789.21	0.073
789.40	0.073
789.59	0.073
789.77	0.073
789.96	0.073
790.15	0.073
790.34	0.073
790.53	0.073
790.71	0.073
790.90	0.072
791.09	0.072
791.28	0.073
791.46	0.073
791.65	0.073
791.84	0.073
792.03	0.072
792.22	0.073
792.40	0.072
792.59	0.073
792.78	0.073
792.97	0.073
793.15	0.073
793.34	0.073
793.53	0.072
793.72	0.072
793.90	0.072
794.09	0.072
794.28	0.072
794.47	0.072
794.65	0.071
794.84	0.071
795.03	0.071
795.22	0.072
795.40	0.071
795.59	0.071
795.78	0.071
795.97	0.071
796.15	0.071
796.34	0.071
796.53	0.071
796.71	0.072
796.90	0.072
797.09	0.072
797.28	0.072
797.46	0.072
797.65	0.072
797.84	0.072
798.02	0.071
798.21	0.071
798.40	0.071
798.59	0.071
798.77	0.071
798.96	0.071
799.15	0.070
799.33	0.070
799.52	0.070
799.71	0.070
799.90	0.071
800.08	0.071
800.27	0.071
800.46	0.070
800.64	0.070
800.83	0.071
801.02	0.070
801.20	0.070
801.39	0.070
801.58	0.070
801.76	0.070
801.95	0.070
802.14	0.070
802.32	0.070
802.51	0.070
802.70	0.070
802.88	0.070
803.07	0.070
803.26	0.070
803.44	0.069
803.63	0.070
803.82	0.069
804.00	0.070
804.19	0.070
804.38	0.070
804.56	0.070
804.75	0.070
804.94	0.070
805.12	0.070
805.31	0.070
805.50	0.071
805.68	0.070
805.87	0.071
806.06	0.071
806.24	0.070
806.43	0.071
806.62	0.071
806.80	0.071
806.99	0.070
807.17	0.071
807.36	0.071
807.55	0.071
807.73	0.071
807.92	0.071
808.11	0.070
808.29	0.070
808.48	0.070
808.66	0.070
808.85	0.069
809.04	0.069
809.22	0.069
809.41	0.069
809.59	0.068
809.78	0.068
809.97	0.068
810.15	0.068
810.34	0.068
810.53	0.068
810.71	0.068
810.90	0.068
811.08	0.068
811.27	0.068
811.45	0.068
811.64	0.069
811.83	0.069
812.01	0.069
812.20	0.069
812.38	0.069
812.57	0.069
812.76	0.069
812.94	0.069
813.13	0.069
813.31	0.069
813.50	0.069
813.68	0.069
813.87	0.069
814.06	0.069
814.24	0.069
814.43	0.069
814.61	0.069
814.80	0.068
814.98	0.068
815.17	0.068
815.36	0.068
815.54	0.068
815.73	0.068
815.91	0.068
816.10	0.068
816.28	0.068
816.47	0.068
816.65	0.069
816.84	0.069
817.03	0.069
817.21	0.069
817.40	0.069
817.58	0.069
817.77	0.070
817.95	0.070
818.14	0.069
818.32	0.069
818.51	0.069
818.69	0.069
818.88	0.069
819.06	0.069
819.25	0.069
819.43	0.069
819.62	0.069
819.80	0.069
819.99	0.069
820.18	0.069
820.36	0.069
820.55	0.069
820.73	0.070
820.92	0.070
821.10	0.070
821.29	0.070
821.47	0.070
821.66	0.070
821.84	0.070
822.03	0.070
822.21	0.070
822.40	0.070
822.58	0.070
822.77	0.070
822.95	0.070
823.14	0.070
823.32	0.070
823.50	0.071
823.69	0.070
823.87	0.070
824.06	0.071
824.24	0.071
824.43	0.071
824.61	0.071
824.80	0.071
824.98	0.071
825.17	0.071
825.35	0.071
825.54	0.071
825.72	0.071
825.91	0.071
826.09	0.071
826.28	0.070
826.46	0.071
826.64	0.071
826.83	0.071
827.01	0.071
827.20	0.071
827.38	0.070
827.57	0.071
827.75	0.071
827.94	0.071
828.12	0.071
828.31	0.071
828.49	0.072
828.67	0.072
828.86	0.072
829.04	0.072
829.23	0.072
829.41	0.073
829.60	0.073
829.78	0.073
829.96	0.074
830.15	0.074
830.33	0.074
830.52	0.074
830.70	0.074
830.88	0.073
831.07	0.074
831.25	0.074
831.44	0.074
831.62	0.074
831.81	0.074
831.99	0.073
832.17	0.074
832.36	0.074
832.54	0.074
832.73	0.074
832.91	0.075
833.09	0.074
833.28	0.075
833.46	0.075
833.65	0.075
833.83	0.075
834.01	0.075
834.20	0.075
834.38	0.075
834.56	0.075
834.75	0.075
834.93	0.075
835.12	0.075
835.30	0.075
835.48	0.075
835.67	0.075
835.85	0.075
836.03	0.075
836.22	0.075
836.40	0.075
836.59	0.075
836.77	0.075
836.95	0.075
837.14	0.075
837.32	0.075
837.50	0.075
837.69	0.075
837.87	0.075
838.05	0.075
838.24	0.075
838.42	0.075
838.60	0.076
838.79	0.077
838.97	0.076
839.15	0.076
839.34	0.076
839.52	0.077
839.70	0.077
839.89	0.077
840.07	0.077
840.25	0.077
840.44	0.076
840.62	0.076
840.80	0.076
840.99	0.076
841.17	0.076
841.35	0.076
841.54	0.075
841.72	0.076
841.90	0.076
842.09	0.076
842.27	0.076
842.45	0.076
842.64	0.076
842.82	0.076
843.00	0.076
843.19	0.076
843.37	0.076
843.55	0.077
843.73	0.076
843.92	0.077
844.10	0.077
844.28	0.077
844.47	0.077
844.65	0.077
844.83	0.077
845.01	0.077
845.20	0.077
845.38	0.078
845.56	0.078
845.75	0.078
845.93	0.077
846.11	0.077
846.29	0.077
846.48	0.077
846.66	0.077
846.84	0.077
847.02	0.077
847.21	0.076
847.39	0.077
847.57	0.076
847.76	0.077
847.94	0.077
848.12	0.077
848.30	0.077
848.49	0.077
848.67	0.077
848.85	0.077
849.03	0.078
849.22	0.077
849.40	0.077
849.58	0.078
849.76	0.078
849.95	0.078
850.13	0.078
850.31	0.077
850.49	0.078
850.67	0.078
850.86	0.077
851.04	0.077
851.22	0.077
851.40	0.077
851.59	0.077
851.77	0.077
851.95	0.077
852.13	0.077
852.31	0.077
852.50	0.077
852.68	0.078
852.86	0.077
853.04	0.078
853.23	0.078
853.41	0.078
853.59	0.078
853.77	0.078
853.95	0.078
854.14	0.078
854.32	0.078
854.50	0.078
854.68	0.078
854.86	0.078
855.04	0.078
855.23	0.078
855.41	0.078
855.59	0.079
855.77	0.079
855.95	0.078
856.14	0.078
856.32	0.078
856.50	0.078
856.68	0.078
856.86	0.078
857.04	0.078
857.23	0.078
857.41	0.078
857.59	0.078
857.77	0.078
857.95	0.078
858.13	0.078
858.32	0.078
858.50	0.079
858.68	0.078
858.86	0.078
859.04	0.078
859.22	0.078
859.41	0.078
859.59	0.078
859.77	0.078
859.95	0.078
860.13	0.078
860.31	0.078
860.49	0.078
860.68	0.078
860.86	0.078
861.04	0.078
861.22	0.078
861.40	0.078
861.58	0.078
861.76	0.078
861.94	0.078
862.13	0.078
862.31	0.078
862.49	0.078
862.67	0.078
862.85	0.078
863.03	0.078
863.21	0.078
863.39	0.079
863.57	0.079
863.76	0.079
863.94	0.079
864.12	0.079
864.30	0.079
864.48	0.079
864.66	0.079
864.84	0.079
865.02	0.080
865.20	0.079
865.38	0.079
865.57	0.079
865.75	0.080
865.93	0.080
866.11	0.080
866.29	0.080
866.47	0.080
866.65	0.080
866.83	0.080
867.01	0.080
867.19	0.080
867.37	0.080
867.55	0.080
867.73	0.080
867.92	0.080
868.10	0.080
868.28	0.080
868.46	0.080
868.64	0.079
868.82	0.080
869.00	0.080
869.18	0.081
869.36	0.080
869.54	0.081
869.72	0.081
869.90	0.081
870.08	0.081
870.26	0.081
870.44	0.081
870.62	0.081
870.80	0.081
870.98	0.081
871.16	0.080
871.34	0.080
871.53	0.080
871.71	0.080
871.89	0.080
872.07	0.080
872.25	0.080
872.43	0.080
872.61	0.080
872.79	0.080
872.97	0.080
873.15	0.080
873.33	0.081
873.51	0.081
873.69	0.081
873.87	0.081
874.05	0.081
874.23	0.081
874.41	0.081
874.59	0.082
874.77	0.081
874.95	0.081
875.13	0.081
875.31	0.081
875.49	0.081
875.67	0.081
875.85	0.081
876.03	0.082
876.21	0.082
876.39	0.082
876.57	0.081
876.75	0.082
876.93	0.082
877.11	0.082
877.29	0.081
877.47	0.081
877.65	0.082
877.82	0.082
878.00	0.082
878.18	0.082
878.36	0.082
878.54	0.083
878.72	0.083
878.90	0.082
879.08	0.083
879.26	0.083
879.44	0.083
879.62	0.083
879.80	0.082
879.98	0.082
880.16	0.082
880.34	0.082
880.52	0.082
880.70	0.082
880.88	0.082
881.06	0.082
881.24	0.082
881.42	0.082
881.59	0.082
881.77	0.081
881.95	0.082
882.13	0.082
882.31	0.082
882.49	0.082
882.67	0.082
882.85	0.082
883.03	0.082
883.21	0.082
883.39	0.082
883.57	0.083
883.75	0.083
883.92	0.083
884.10	0.083
884.28	0.083
884.46	0.083
884.64	0.083
884.82	0.083
885.00	0.083
885.18	0.083
885.36	0.083
885.54	0.083
885.71	0.084
885.89	0.084
886.07	0.084
886.25	0.084
886.43	0.084
886.61	0.084
886.79	0.084
886.97	0.084
887.15	0.084
887.32	0.084
887.50	0.084
887.68	0.084
887.86	0.084
888.04	0.084
888.22	0.083
888.40	0.083
888.57	0.083
888.75	0.084
888.93	0.084
889.11	0.084
889.29	0.084
889.47	0.084
889.65	0.084
889.82	0.085
890.00	0.085
890.18	0.085
890.36	0.085
890.54	0.085
890.72	0.085
890.90	0.084
891.07	0.084
891.25	0.084
891.43	0.084
891.61	0.084
891.79	0.084
891.97	0.084
892.14	0.084
892.32	0.084
892.50	0.085
892.68	0.085
892.86	0.085
893.03	0.085
893.21	0.085
893.39	0.085
893.57	0.086
893.75	0.086
893.93	0.086
894.10	0.086
894.28	0.086
894.46	0.085
894.64	0.086
894.82	0.086
894.99	0.086
895.17	0.086
895.35	0.086
895.53	0.086
895.71	0.085
895.88	0.086
896.06	0.086
896.24	0.086
896.42	0.086
896.59	0.086
896.77	0.086
896.95	0.086
897.13	0.086
897.31	0.086
897.48	0.086
897.66	0.086
897.84	0.086
898.02	0.087
898.19	0.086
898.37	0.087
898.55	0.087
898.73	0.087
898.91	0.087
899.08	0.087
899.26	0.087
899.44	0.087
899.62	0.087
899.79	0.087
899.97	0.087
900.15	0.087
900.33	0.087
900.50	0.087
900.68	0.086
900.86	0.087
901.04	0.087
901.21	0.087
901.39	0.087
901.57	0.087
901.74	0.087
901.92	0.087
902.10	0.087
902.28	0.087
902.45	0.088
902.63	0.088
902.81	0.088
902.99	0.088
903.16	0.088
903.34	0.088
903.52	0.088
903.69	0.088
903.87	0.088
904.05	0.088
904.22	0.089
904.40	0.089
904.58	0.088
904.76	0.089
904.93	0.089
905.11	0.089
905.29	0.089
905.46	0.089
905.64	0.089
905.82	0.089
905.99	0.089
906.17	0.089
906.35	0.089
906.53	0.089
906.70	0.089
906.88	0.089
907.06	0.089
907.23	0.090
907.41	0.090
907.59	0.090
907.76	0.090
907.94	0.090
908.12	0.090
908.29	0.090
908.47	0.090
908.65	0.090
908.82	0.091
909.00	0.091
909.18	0.091
909.35	0.090
909.53	0.090
909.71	0.090
909.88	0.090
910.06	0.090
910.23	0.090
910.41	0.091
910.59	0.090
910.76	0.090
910.94	0.090
911.12	0.090
911.29	0.090
911.47	0.090
911.65	0.090
911.82	0.091
912.00	0.091
912.17	0.091
912.35	0.091
912.53	0.091
912.70	0.092
912.88	0.092
913.06	0.093
913.23	0.093
913.41	0.093
913.58	0.093
913.76	0.093
913.94	0.093
914.11	0.094
914.29	0.094
914.46	0.093
914.64	0.093
914.82	0.093
914.99	0.093
915.17	0.093
915.34	0.093
915.52	0.093
915.70	0.093
915.87	0.093
916.05	0.093
916.22	0.093
916.40	0.093
916.57	0.094
916.75	0.094
916.93	0.094
917.10	0.094
917.28	0.094
917.45	0.094
917.63	0.094
917.80	0.094
917.98	0.094
918.16	0.094
918.33	0.095
918.51	0.095
918.68	0.095
918.86	0.096
919.03	0.095
919.21	0.096
919.39	0.096
919.56	0.097
919.74	0.097
919.91	0.097
920.09	0.097
920.26	0.097
920.44	0.097
920.61	0.097
920.79	0.098
920.96	0.098
921.14	0.098
921.31	0.098
921.49	0.098
921.67	0.099
921.84	0.099
922.02	0.099
922.19	0.100
922.37	0.100
922.54	0.101
922.72	0.101
922.89	0.101
923.07	0.101
923.24	0.101
923.42	0.101
923.59	0.102
923.77	0.102
923.94	0.102
924.12	0.102
924.29	0.102
924.47	0.102
924.64	0.103
924.82	0.103
924.99	0.103
925.17	0.104
925.34	0.104
925.52	0.104
925.69	0.105
925.87	0.105
926.04	0.105
926.22	0.105
926.39	0.106
926.57	0.106
926.74	0.106
926.91	0.106
927.09	0.106
927.26	0.106
927.44	0.107
927.61	0.107
927.79	0.107
927.96	0.108
928.14	0.108
928.31	0.108
928.49	0.109
928.66	0.109
928.84	0.110
929.01	0.110
929.18	0.111
929.36	0.112
929.53	0.112
929.71	0.113
929.88	0.113
930.06	0.113
930.23	0.114
930.41	0.114
930.58	0.115
930.75	0.115
930.93	0.116
931.10	0.116
931.28	0.116
931.45	0.117
931.63	0.117
931.80	0.117
931.97	0.118
932.15	0.119
932.32	0.119
932.50	0.119
932.67	0.120
932.84	0.120
933.02	0.121
933.19	0.121
933.37	0.122
933.54	0.122
933.71	0.123
933.89	0.124
934.06	0.124
934.24	0.125
934.41	0.125
934.58	0.126
934.76	0.126
934.93	0.127
935.11	0.127
935.28	0.127
935.45	0.127
935.63	0.128
935.80	0.128
935.98	0.129
936.15	0.129
936.32	0.130
936.50	0.130
936.67	0.131
936.84	0.131
937.02	0.132
937.19	0.132
937.36	0.133
937.54	0.133
937.71	0.134
937.89	0.134
938.06	0.135
938.23	0.135
938.41	0.136
938.58	0.136
938.75	0.137
938.93	0.137
939.10	0.138
939.27	0.138
939.45	0.139
939.62	0.139
939.79	0.140
939.97	0.141
940.14	0.141
940.31	0.142
940.49	0.142
940.66	0.143
940.83	0.143
941.01	0.144
941.18	0.144
941.35	0.145
941.53	0.145
941.70	0.146
941.87	0.146
942.05	0.147
942.22	0.148
942.39	0.149
942.57	0.150
942.74	0.151
942.91	0.151
943.08	0.152
943.26	0.152
943.43	0.153
943.60	0.154
943.78	0.154
943.95	0.155
944.12	0.155
944.29	0.156
944.47	0.156
944.64	0.157
944.81	0.158
944.99	0.159
945.16	0.159
945.33	0.160
945.50	0.161
945.68	0.162
945.85	0.162
946.02	0.164
946.20	0.165
946.37	0.165
946.54	0.166
946.71	0.167
946.89	0.167
947.06	0.168
947.23	0.169
947.40	0.170
947.58	0.170
947.75	0.171
947.92	0.172
948.09	0.172
948.27	0.174
948.44	0.175
948.61	0.176
948.78	0.177
948.96	0.179
949.13	0.180
949.30	0.181
949.47	0.182
949.65	0.184
949.82	0.186
949.99	0.186
950.16	0.188
950.33	0.189
950.51	0.190
950.68	0.191
950.85	0.192
951.02	0.194
951.20	0.194
951.37	0.196
951.54	0.196
951.71	0.197
951.88	0.199
952.06	0.200
952.23	0.200
952.40	0.201
952.57	0.203
952.74	0.204
952.92	0.204
953.09	0.206
953.26	0.207
953.43	0.208
953.60	0.209
953.77	0.210
953.95	0.211
954.12	0.213
954.29	0.214
954.46	0.216
954.63	0.217
954.81	0.218
954.98	0.219
955.15	0.220
955.32	0.222
955.49	0.222
955.66	0.224
955.84	0.225
956.01	0.225
956.18	0.227
956.35	0.228
956.52	0.229
956.69	0.231
956.87	0.231
957.04	0.233
957.21	0.235
957.38	0.235
957.55	0.236
957.72	0.237
957.89	0.238
958.07	0.238
958.24	0.241
958.41	0.242
958.58	0.241
958.75	0.242
958.92	0.243
959.09	0.244
959.26	0.244
959.44	0.245
959.61	0.246
959.78	0.247
959.95	0.249
960.12	0.249
960.29	0.251
960.46	0.250
960.63	0.251
960.81	0.251
960.98	0.252
961.15	0.253
961.32	0.254
961.49	0.253
961.66	0.255
961.83	0.255
962.00	0.255
962.17	0.256
962.34	0.255
962.52	0.256
962.69	0.257
962.86	0.257
963.03	0.258
963.20	0.258
963.37	0.257
963.54	0.258
963.71	0.258
963.88	0.258
964.05	0.258
964.22	0.260
964.39	0.259
964.56	0.259
964.74	0.260
964.91	0.259
965.08	0.259
965.25	0.260
965.42	0.260
965.59	0.261
965.76	0.261
965.93	0.262
966.10	0.260
966.27	0.261
966.44	0.261
966.61	0.263
966.78	0.262
966.95	0.261
967.12	0.263
967.29	0.264
967.46	0.263
967.63	0.263
967.80	0.264
967.97	0.263
968.14	0.263
968.32	0.263
968.49	0.263
968.66	0.263
968.83	0.264
969.00	0.263
969.17	0.263
969.34	0.264
969.51	0.265
969.68	0.263
969.85	0.264
970.02	0.264
970.19	0.263
970.36	0.264
970.53	0.264
970.70	0.263
970.87	0.264
971.04	0.263
971.21	0.264
971.38	0.264
971.55	0.265
971.72	0.265
971.89	0.266
972.06	0.266
972.23	0.266
972.40	0.265
972.57	0.265
972.74	0.264
972.91	0.265
973.07	0.265
973.24	0.265
973.41	0.265
973.58	0.263
973.75	0.276
973.92	0.264
974.09	0.264
974.26	0.263
974.43	0.262
974.60	0.264
974.77	0.265
974.94	0.264
975.11	0.265
975.28	0.266
975.45	0.264
975.62	0.265
975.79	0.266
975.96	0.265
976.13	0.264
976.30	0.265
976.47	0.263
976.64	0.263
976.80	0.264
976.97	0.264
977.14	0.263
977.31	0.263
977.48	0.264
977.65	0.264
977.82	0.263
977.99	0.265
978.16	0.264
978.33	0.264
978.50	0.263
978.67	0.264
978.83	0.263
979.00	0.263
979.17	0.263
979.34	0.262
979.51	0.261
979.68	0.261
979.85	0.260
980.02	0.261
980.19	0.259
980.36	0.261
980.52	0.262
980.69	0.260
980.86	0.261
981.03	0.260
981.20	0.259
981.37	0.259
981.54	0.260
981.71	0.259
981.88	0.259
982.04	0.259
982.21	0.258
982.38	0.258
982.55	0.258
982.72	0.257
982.89	0.258
983.06	0.257
983.22	0.257
983.39	0.258
983.56	0.258
983.73	0.257
983.90	0.256
984.07	0.259
984.24	0.257
984.40	0.257
984.57	0.255
984.74	0.257
984.91	0.258
985.08	0.255
985.25	0.253
985.41	0.254
985.58	0.254
985.75	0.255
985.92	0.254
986.09	0.253
986.26	0.253
986.42	0.253
986.59	0.251
986.76	0.253
986.93	0.253
987.10	0.253
987.27	0.251
987.43	0.249
987.60	0.251
987.77	0.251
987.94	0.249
988.11	0.250
988.27	0.250
988.44	0.250
988.61	0.248
988.78	0.246
988.95	0.247
989.11	0.249
989.28	0.247
989.45	0.247
989.62	0.247
989.79	0.248
989.95	0.247
990.12	0.248
990.29	0.247
990.46	0.245
990.62	0.244
990.79	0.244
990.96	0.244
991.13	0.244
991.30	0.243
991.46	0.242
991.63	0.241
991.80	0.240
991.97	0.239
992.13	0.240
992.30	0.241
992.47	0.240
992.64	0.239
992.80	0.239
992.97	0.240
993.14	0.237
993.31	0.235
993.47	0.238
993.64	0.235
993.81	0.235
993.98	0.235
994.14	0.234
994.31	0.233
994.48	0.235
994.64	0.235
994.81	0.233
994.98	0.234
995.15	0.231
995.31	0.231
995.48	0.231
995.65	0.233
995.82	0.230
995.98	0.229
996.15	0.230
996.32	0.231
996.48	0.230
996.65	0.229
996.82	0.227
996.99	0.228
997.15	0.228
997.32	0.229
997.49	0.227
997.65	0.228
997.82	0.228
997.99	0.226
998.15	0.227
998.32	0.227
998.49	0.227
998.65	0.227
998.82	0.226
998.99	0.223
999.15	0.224
999.32	0.223
999.49	0.222
999.65	0.223
999.82	0.220
999.99	0.221
1000.15	0.221
1000.32	0.221
1000.49	0.221
1000.65	0.219
1000.82	0.218
1000.99	0.219
1001.15	0.219
1001.32	0.218
1001.49	0.218
1001.65	0.218
1001.82	0.220
1001.99	0.217
1002.15	0.216
1002.32	0.216
1002.49	0.217
1002.65	0.215
1002.82	0.213
1002.99	0.213
1003.15	0.215
1003.32	0.213
1003.48	0.214
1003.65	0.213
1003.82	0.212
1003.98	0.209
1004.15	0.209
1004.32	0.210
1004.48	0.210
1004.65	0.212
1004.81	0.209
1004.98	0.208
1005.15	0.209
1005.31	0.208
1005.48	0.206
1005.64	0.206
1005.81	0.209
1005.98	0.206
1006.14	0.205
1006.31	0.205
1006.47	0.204
1006.64	0.203
1006.81	0.203
1006.97	0.203
1007.14	0.202
1007.30	0.203
1007.47	0.203
1007.63	0.201
1007.80	0.199
1007.97	0.199
1008.13	0.199
1008.30	0.199
1008.46	0.199
1008.63	0.198
1008.79	0.199
1008.96	0.199
1009.13	0.200
1009.29	0.197
1009.46	0.197
1009.62	0.197
1009.79	0.196
1009.95	0.196
1010.12	0.197
1010.28	0.197
1010.45	0.195
1010.62	0.195
1010.78	0.194
1010.95	0.192
1011.11	0.193
1011.28	0.192
1011.44	0.194
1011.61	0.192
1011.77	0.190
1011.94	0.191
1012.10	0.190
1012.27	0.190
1012.43	0.190
1012.60	0.188
1012.76	0.189
1012.93	0.189
1013.10	0.187
1013.26	0.185
1013.43	0.187
1013.59	0.194
1013.76	0.186
1013.92	0.185
1014.09	0.184
1014.25	0.185
1014.42	0.186
1014.58	0.185
1014.75	0.187
1014.91	0.185
1015.08	0.186
1015.24	0.182
1015.41	0.184
1015.57	0.184
1015.73	0.182
1015.90	0.180
1016.06	0.183
1016.23	0.180
1016.39	0.180
1016.56	0.182
1016.72	0.182
1016.89	0.182
1017.05	0.185
1017.22	0.181
1017.38	0.181
1017.55	0.179
1017.71	0.181
1017.88	0.180
1018.04	0.181
1018.21	0.178
1018.37	0.177
1018.53	0.177
1018.70	0.175
1018.86	0.173
1019.03	0.176
1019.19	0.175
1019.36	0.175
1019.52	0.176
1019.69	0.177
1019.85	0.175
1020.01	0.175
1020.18	0.174
1020.34	0.174
1020.51	0.174
1020.67	0.174
1020.84	0.172
1021.00	0.173
1021.16	0.170
1021.33	0.171
1021.49	0.169
1021.66	0.171
1021.82	0.168
1021.98	0.169
1022.15	0.168
1022.31	0.167
1022.48	0.166
1022.64	0.168
1022.80	0.166
1022.97	0.164
1023.13	0.165
1023.30	0.166
1023.46	0.166
1023.62	0.163
1023.79	0.165
1023.95	0.165
1024.12	0.165
1024.28	0.164
1024.44	0.164
1024.61	0.164
1024.77	0.164
1024.93	0.162
1025.10	0.163
1025.26	0.160
1025.43	0.161
1025.59	0.157
1025.75	0.161
1025.92	0.159
1026.08	0.157
1026.24	0.157
1026.41	0.158
1026.57	0.155
1026.73	0.153
1026.90	0.155
1027.06	0.154
1027.23	0.155
1027.39	0.155
1027.55	0.155
1027.72	0.154
1027.88	0.154
1028.04	0.155
1028.21	0.156
1028.37	0.151
1028.53	0.156
1028.70	0.153
1028.86	0.152
1029.02	0.152
1029.19	0.152
1029.35	0.151
1029.51	0.150
1029.67	0.150
1029.84	0.151
1030.00	0.145
1030.16	0.146
1030.33	0.149
1030.49	0.146
1030.65	0.144
1030.82	0.160
1030.98	0.146
1031.14	0.146
1031.31	0.147
1031.47	0.145
1031.63	0.147
1031.79	0.147
1031.96	0.148
1032.12	0.150
1032.28	0.148
1032.45	0.152
1032.61	0.151
1032.77	0.150
1032.93	0.148
1033.10	0.149
1033.26	0.150
1033.42	0.148
1033.58	0.149
1033.75	0.149
1033.91	0.147
1034.07	0.150
1034.24	0.147
1034.40	0.146
1034.56	0.145
1034.72	0.146
1034.89	0.146
1035.05	0.144
1035.21	0.144
1035.37	0.142
1035.54	0.145
1035.70	0.143
1035.86	0.142
1036.02	0.144
1036.19	0.140
1036.35	0.139
1036.51	0.143
1036.67	0.140
1036.83	0.141
1037.00	0.139
1037.16	0.139
1037.32	0.140
1037.48	0.139
1037.65	0.143
1037.81	0.139
1037.97	0.139
1038.13	0.139
1038.29	0.137
1038.46	0.134
1038.62	0.138
1038.78	0.136
1038.94	0.131
1039.10	0.135
1039.27	0.132
1039.43	0.134
1039.59	0.133
1039.75	0.134
1039.91	0.134
1040.08	0.134
1040.24	0.137
1040.40	0.138
1040.56	0.136
1040.72	0.132
1040.89	0.134
1041.05	0.136
1041.21	0.134
1041.37	0.132
1041.53	0.138
1041.69	0.134
1041.86	0.134
1042.02	0.131
1042.18	0.131
1042.34	0.134
1042.50	0.138
1042.66	0.135
1042.83	0.133
1042.99	0.136
1043.15	0.131
1043.31	0.131
1043.47	0.136
1043.63	0.133
1043.79	0.132
1043.96	0.133
1044.12	0.136
1044.28	0.132
1044.44	0.133
1044.60	0.128
1044.76	0.127
1044.92	0.130
1045.09	0.133
1045.25	0.129
1045.41	0.128
1045.57	0.124
1045.73	0.124
1045.89	0.125
1046.05	0.128
1046.21	0.114
1046.38	0.132
1046.54	0.132
1046.70	0.132
1046.86	0.135
>>>>>End Processed Spectral Data<<<<<
