SpectraSuite Data File
++++++++++++++++++++++++++++++++++++
Date: Mon May 20 12:13:17 CDT 2013
User: Students
Dark Spectrum Present: Yes
Reference Spectrum Present: Yes
Number of Sampled Component Spectra: 1
Spectrometers: USB4H00887
Integration Time (usec): 60000 (USB4H00887)
Spectra Averaged: 5 (USB4H00887)
Boxcar Smoothing: 5 (USB4H00887)
Correct for Electrical Dark: No (USB4H00887)
Strobe/Lamp Enabled: No (USB4H00887)
Correct for Detector Non-linearity: No (USB4H00887)
Correct for Stray Light: No (USB4H00887)
Number of Pixels in Processed Spectrum: 3648
>>>>>Begin Processed Spectral Data<<<<<
345.83	-0.069
346.05	-0.069
346.26	-0.069
346.48	-0.000
346.70	0.196
346.92	0.042
347.14	0.034
347.35	0.015
347.57	0.050
347.79	-0.137
348.01	-0.115
348.23	-0.177
348.44	-0.000
348.66	0.180
348.88	-0.300
349.10	-0.158
349.32	0.047
349.53	-0.009
349.75	-0.032
349.97	-0.031
350.19	0.013
350.41	0.005
350.62	-0.043
350.84	0.004
351.06	0.020
351.28	0.042
351.50	0.186
351.71	0.147
351.93	0.130
352.15	0.005
352.37	0.097
352.58	0.037
352.80	0.057
353.02	0.084
353.24	0.117
353.46	0.640
353.67	-0.123
353.89	0.051
354.11	0.050
354.33	0.056
354.54	0.122
354.76	0.175
354.98	0.291
355.20	0.177
355.41	0.093
355.63	0.168
355.85	0.087
356.07	-0.000
356.28	0.098
356.50	0.158
356.72	0.057
356.94	0.198
357.15	0.294
357.37	-0.000
357.59	0.141
357.81	0.085
358.02	0.132
358.24	0.103
358.46	0.212
358.68	0.203
358.89	0.122
359.11	-0.000
359.33	0.098
359.55	-0.557
359.76	0.129
359.98	0.138
360.20	0.125
360.42	0.121
360.63	0.096
360.85	0.055
361.07	0.153
361.29	0.034
361.50	0.174
361.72	0.068
361.94	0.352
362.15	0.135
362.37	0.093
362.59	0.091
362.81	0.132
363.02	0.270
363.24	0.504
363.46	0.295
363.68	0.356
363.89	0.177
364.11	0.254
364.33	0.280
364.54	0.176
364.76	0.209
364.98	0.216
365.20	0.251
365.41	0.153
365.63	0.182
365.85	0.125
366.06	0.455
366.28	0.528
366.50	0.331
366.71	0.148
366.93	0.184
367.15	0.164
367.37	0.152
367.58	0.173
367.80	0.185
368.02	0.438
368.23	0.129
368.45	0.117
368.67	0.107
368.88	0.115
369.10	-0.000
369.32	0.117
369.53	0.072
369.75	0.143
369.97	0.436
370.19	0.261
370.40	0.112
370.62	0.392
370.84	0.135
371.05	0.980
371.27	0.193
371.49	0.203
371.70	0.238
371.92	0.377
372.14	0.137
372.35	0.152
372.57	0.184
372.79	0.517
373.00	0.109
373.22	0.197
373.44	0.220
373.65	0.149
373.87	0.226
374.09	0.964
374.30	0.136
374.52	0.154
374.74	0.088
374.95	0.306
375.17	0.104
375.39	-0.000
375.60	0.120
375.82	0.174
376.04	0.081
376.25	0.082
376.47	0.067
376.68	0.184
376.90	0.120
377.12	0.299
377.33	0.153
377.55	0.373
377.77	0.188
377.98	0.303
378.20	0.172
378.42	0.204
378.63	0.289
378.85	-0.000
379.07	0.191
379.28	0.899
379.50	0.423
379.71	0.221
379.93	0.153
380.15	0.218
380.36	0.345
380.58	0.236
380.80	0.837
381.01	0.210
381.23	0.172
381.44	0.200
381.66	0.243
381.88	0.315
382.09	-0.113
382.31	0.190
382.53	0.186
382.74	-0.000
382.96	0.266
383.17	0.206
383.39	0.260
383.61	0.350
383.82	0.230
384.04	0.272
384.25	0.309
384.47	0.260
384.69	0.256
384.90	0.238
385.12	0.500
385.33	0.314
385.55	0.234
385.77	0.386
385.98	0.190
386.20	0.230
386.41	0.180
386.63	0.221
386.85	0.197
387.06	0.223
387.28	0.359
387.49	0.246
387.71	0.173
387.93	0.161
388.14	0.472
388.36	0.185
388.57	0.176
388.79	0.204
389.01	1.578
389.22	0.295
389.44	0.268
389.65	0.211
389.87	0.201
390.08	0.243
390.30	0.184
390.52	0.337
390.73	0.348
390.95	0.249
391.16	0.247
391.38	-0.000
391.59	0.254
391.81	0.223
392.03	0.213
392.24	0.242
392.46	0.194
392.67	0.171
392.89	0.240
393.10	0.379
393.32	0.262
393.53	0.299
393.75	0.199
393.97	0.220
394.18	0.290
394.40	0.249
394.61	0.277
394.83	0.243
395.04	0.287
395.26	0.191
395.47	0.293
395.69	0.243
395.91	0.261
396.12	0.318
396.34	0.322
396.55	0.209
396.77	0.312
396.98	1.371
397.20	0.369
397.41	0.420
397.63	0.294
397.84	0.253
398.06	0.239
398.27	0.236
398.49	0.264
398.71	0.196
398.92	0.231
399.14	0.289
399.35	0.352
399.57	0.353
399.78	0.251
400.00	0.250
400.21	0.324
400.43	0.264
400.64	0.291
400.86	0.630
401.07	0.351
401.29	0.318
401.50	0.342
401.72	0.506
401.93	0.312
402.15	0.366
402.36	0.323
402.58	0.259
402.79	0.287
403.01	0.458
403.22	0.375
403.44	0.260
403.65	0.395
403.87	0.439
404.08	0.340
404.30	0.540
404.51	0.309
404.73	0.384
404.94	0.332
405.16	0.344
405.37	0.275
405.59	0.483
405.80	0.302
406.02	0.385
406.23	0.388
406.45	0.426
406.66	0.470
406.88	0.305
407.09	0.479
407.31	0.381
407.52	0.468
407.74	0.373
407.95	0.444
408.17	0.415
408.38	0.423
408.60	0.284
408.81	0.510
409.03	0.367
409.24	0.370
409.45	0.428
409.67	0.421
409.88	0.370
410.10	0.468
410.31	0.390
410.53	0.370
410.74	0.523
410.96	0.492
411.17	0.502
411.39	0.390
411.60	0.358
411.82	0.411
412.03	0.387
412.24	0.374
412.46	0.529
412.67	0.441
412.89	0.436
413.10	0.443
413.32	0.408
413.53	0.472
413.75	0.477
413.96	0.367
414.17	0.483
414.39	0.496
414.60	0.410
414.82	0.568
415.03	0.431
415.25	0.471
415.46	0.327
415.68	0.462
415.89	0.846
416.10	0.710
416.32	0.383
416.53	0.456
416.75	0.429
416.96	0.516
417.18	0.426
417.39	0.409
417.60	0.419
417.82	0.600
418.03	0.521
418.25	0.441
418.46	0.451
418.67	0.412
418.89	0.441
419.10	0.467
419.32	0.632
419.53	0.587
419.75	0.500
419.96	0.436
420.17	0.545
420.39	0.505
420.60	0.514
420.82	0.650
421.03	0.515
421.24	0.433
421.46	0.477
421.67	0.523
421.89	0.455
422.10	0.488
422.31	0.468
422.53	0.646
422.74	0.488
422.96	0.393
423.17	0.427
423.38	0.519
423.60	0.439
423.81	0.532
424.03	0.450
424.24	0.494
424.45	0.492
424.67	0.497
424.88	0.450
425.09	0.491
425.31	0.457
425.52	0.492
425.74	0.555
425.95	0.595
426.16	0.472
426.38	0.569
426.59	0.518
426.80	0.588
427.02	0.619
427.23	0.483
427.45	0.618
427.66	0.600
427.87	0.469
428.09	0.509
428.30	0.569
428.51	0.549
428.73	0.594
428.94	0.529
429.15	0.518
429.37	0.497
429.58	0.525
429.79	0.487
430.01	0.589
430.22	0.569
430.44	0.568
430.65	0.516
430.86	0.562
431.08	0.539
431.29	0.495
431.50	0.590
431.72	0.785
431.93	0.637
432.14	0.485
432.36	0.529
432.57	0.546
432.78	0.572
433.00	0.519
433.21	0.516
433.42	0.634
433.64	0.558
433.85	0.622
434.06	0.503
434.28	0.533
434.49	0.550
434.70	0.556
434.92	0.573
435.13	0.609
435.34	0.623
435.56	0.582
435.77	0.583
435.98	0.737
436.20	0.626
436.41	0.547
436.62	0.534
436.83	0.605
437.05	0.690
437.26	0.605
437.47	0.537
437.69	0.589
437.90	0.542
438.11	0.536
438.33	0.583
438.54	0.606
438.75	0.765
438.97	0.753
439.18	0.564
439.39	0.587
439.60	0.627
439.82	0.588
440.03	0.541
440.24	0.764
440.46	0.581
440.67	0.569
440.88	0.601
441.10	0.564
441.31	0.564
441.52	0.615
441.73	0.686
441.95	0.616
442.16	0.575
442.37	0.878
442.58	0.568
442.80	0.556
443.01	0.705
443.22	0.645
443.44	0.553
443.65	0.648
443.86	0.642
444.07	0.682
444.29	0.591
444.50	0.746
444.71	0.579
444.92	0.549
445.14	0.691
445.35	0.725
445.56	0.579
445.78	0.673
445.99	0.670
446.20	0.581
446.41	0.649
446.63	0.655
446.84	0.615
447.05	0.614
447.26	0.717
447.48	0.624
447.69	0.595
447.90	0.674
448.11	0.607
448.33	0.633
448.54	0.651
448.75	0.685
448.96	0.693
449.18	0.731
449.39	0.655
449.60	0.643
449.81	0.760
450.03	0.667
450.24	0.721
450.45	0.681
450.66	0.665
450.87	0.695
451.09	0.649
451.30	0.628
451.51	0.693
451.72	0.709
451.94	0.727
452.15	0.792
452.36	0.666
452.57	0.676
452.78	0.677
453.00	0.706
453.21	0.667
453.42	0.647
453.63	0.731
453.85	0.698
454.06	0.689
454.27	0.799
454.48	0.724
454.69	0.658
454.91	0.729
455.12	0.639
455.33	0.710
455.54	0.718
455.75	0.691
455.97	0.718
456.18	0.707
456.39	0.718
456.60	0.738
456.81	0.679
457.03	0.690
457.24	0.689
457.45	0.770
457.66	0.722
457.87	0.690
458.09	0.705
458.30	0.627
458.51	0.743
458.72	0.759
458.93	0.773
459.15	0.686
459.36	0.742
459.57	0.765
459.78	0.802
459.99	0.723
460.20	0.685
460.42	0.757
460.63	0.724
460.84	0.706
461.05	0.721
461.26	0.774
461.47	0.702
461.69	0.751
461.90	0.777
462.11	0.743
462.32	0.797
462.53	0.742
462.74	0.832
462.96	0.728
463.17	0.724
463.38	0.769
463.59	0.872
463.80	0.727
464.01	0.750
464.23	0.831
464.44	0.793
464.65	0.798
464.86	0.826
465.07	0.826
465.28	0.792
465.49	0.804
465.71	0.757
465.92	0.790
466.13	0.832
466.34	0.772
466.55	0.817
466.76	0.777
466.97	0.801
467.19	0.790
467.40	0.825
467.61	0.825
467.82	0.760
468.03	0.745
468.24	0.803
468.45	0.838
468.66	0.825
468.88	0.836
469.09	0.842
469.30	0.883
469.51	0.812
469.72	0.849
469.93	0.822
470.14	0.800
470.35	0.880
470.57	0.837
470.78	0.781
470.99	0.894
471.20	0.841
471.41	0.802
471.62	0.847
471.83	0.822
472.04	0.848
472.25	0.889
472.47	0.818
472.68	0.822
472.89	0.830
473.10	0.867
473.31	0.823
473.52	0.874
473.73	0.892
473.94	0.822
474.15	0.848
474.36	0.852
474.57	0.872
474.79	0.849
475.00	0.853
475.21	0.836
475.42	0.918
475.63	0.829
475.84	0.857
476.05	0.863
476.26	0.837
476.47	0.863
476.68	0.901
476.89	0.838
477.10	0.879
477.32	0.867
477.53	0.914
477.74	0.843
477.95	0.882
478.16	0.838
478.37	0.878
478.58	0.883
478.79	0.901
479.00	0.901
479.21	0.865
479.42	0.905
479.63	0.907
479.84	0.874
480.05	0.873
480.26	0.896
480.47	0.914
480.69	0.914
480.90	0.880
481.11	0.877
481.32	0.927
481.53	0.874
481.74	0.917
481.95	0.891
482.16	0.905
482.37	0.913
482.58	0.885
482.79	0.899
483.00	0.924
483.21	0.877
483.42	0.850
483.63	0.917
483.84	0.940
484.05	0.930
484.26	0.902
484.47	0.902
484.68	0.867
484.89	0.872
485.10	0.915
485.31	0.898
485.52	0.904
485.73	0.906
485.94	0.941
486.15	0.897
486.37	0.911
486.58	0.882
486.79	0.895
487.00	0.942
487.21	0.935
487.42	0.930
487.63	0.932
487.84	0.948
488.05	0.942
488.26	0.906
488.47	0.912
488.68	0.936
488.89	0.916
489.10	0.909
489.31	0.917
489.52	0.947
489.73	0.919
489.94	0.952
490.15	0.912
490.36	0.948
490.57	0.909
490.78	0.896
490.99	0.928
491.20	0.994
491.41	0.957
491.62	0.910
491.83	0.932
492.04	0.927
492.25	0.934
492.45	0.937
492.66	0.958
492.87	0.947
493.08	0.936
493.29	0.924
493.50	0.915
493.71	0.921
493.92	0.916
494.13	0.929
494.34	0.947
494.55	0.953
494.76	0.979
494.97	0.972
495.18	0.944
495.39	0.958
495.60	0.914
495.81	0.917
496.02	0.933
496.23	0.928
496.44	0.959
496.65	0.952
496.86	0.955
497.07	0.977
497.28	0.974
497.49	0.927
497.70	0.930
497.91	0.949
498.12	0.931
498.32	0.968
498.53	0.955
498.74	0.945
498.95	0.967
499.16	0.929
499.37	0.933
499.58	0.941
499.79	0.969
500.00	0.964
500.21	0.988
500.42	0.943
500.63	0.946
500.84	0.965
501.05	0.946
501.26	0.970
501.46	1.003
501.67	0.971
501.88	0.974
502.09	0.951
502.30	0.958
502.51	1.002
502.72	0.961
502.93	0.973
503.14	0.991
503.35	0.967
503.56	0.963
503.77	0.989
503.97	0.969
504.18	0.967
504.39	1.000
504.60	0.973
504.81	0.999
505.02	0.992
505.23	0.993
505.44	0.975
505.65	0.978
505.86	0.962
506.07	1.022
506.27	0.983
506.48	0.988
506.69	0.970
506.90	0.988
507.11	0.984
507.32	0.963
507.53	0.969
507.74	0.963
507.95	0.976
508.15	0.981
508.36	0.982
508.57	0.993
508.78	0.982
508.99	0.982
509.20	0.960
509.41	0.980
509.62	0.968
509.82	0.964
510.03	0.975
510.24	0.976
510.45	0.994
510.66	0.988
510.87	0.983
511.08	0.949
511.29	0.984
511.49	0.965
511.70	1.006
511.91	0.950
512.12	0.951
512.33	0.977
512.54	0.989
512.75	0.975
512.95	0.996
513.16	0.987
513.37	0.966
513.58	0.998
513.79	0.965
514.00	0.969
514.20	0.986
514.41	0.974
514.62	0.948
514.83	0.983
515.04	0.976
515.25	0.959
515.46	0.970
515.66	0.973
515.87	0.983
516.08	0.956
516.29	0.977
516.50	0.960
516.71	0.956
516.91	0.964
517.12	0.979
517.33	0.964
517.54	0.951
517.75	0.954
517.95	0.965
518.16	0.974
518.37	0.946
518.58	0.950
518.79	0.929
519.00	0.955
519.20	0.963
519.41	0.940
519.62	0.958
519.83	0.968
520.04	0.938
520.24	0.936
520.45	0.946
520.66	0.967
520.87	0.934
521.08	0.930
521.28	0.935
521.49	0.947
521.70	0.921
521.91	0.932
522.12	0.918
522.32	0.936
522.53	0.921
522.74	0.909
522.95	0.917
523.16	0.920
523.36	0.931
523.57	0.913
523.78	0.909
523.99	0.913
524.20	0.906
524.40	0.914
524.61	0.920
524.82	0.898
525.03	0.901
525.23	0.902
525.44	0.887
525.65	0.887
525.86	0.905
526.06	0.880
526.27	0.879
526.48	0.888
526.69	0.873
526.90	0.874
527.10	0.905
527.31	0.867
527.52	0.860
527.73	0.853
527.93	0.861
528.14	0.866
528.35	0.857
528.56	0.859
528.76	0.851
528.97	0.843
529.18	0.836
529.39	0.834
529.59	0.837
529.80	0.864
530.01	0.840
530.22	0.838
530.42	0.812
530.63	0.827
530.84	0.808
531.05	0.819
531.25	0.822
531.46	0.816
531.67	0.797
531.88	0.812
532.08	0.806
532.29	0.803
532.50	0.795
532.70	0.789
532.91	0.781
533.12	0.784
533.33	0.806
533.53	0.781
533.74	0.780
533.95	0.786
534.15	0.776
534.36	0.776
534.57	0.762
534.78	0.763
534.98	0.771
535.19	0.745
535.40	0.746
535.60	0.762
535.81	0.744
536.02	0.747
536.23	0.739
536.43	0.742
536.64	0.731
536.85	0.739
537.05	0.747
537.26	0.727
537.47	0.730
537.67	0.721
537.88	0.716
538.09	0.722
538.30	0.712
538.50	0.703
538.71	0.712
538.92	0.700
539.12	0.696
539.33	0.691
539.54	0.691
539.74	0.696
539.95	0.687
540.16	0.686
540.36	0.679
540.57	0.680
540.78	0.675
540.98	0.674
541.19	0.672
541.40	0.661
541.60	0.671
541.81	0.666
542.02	0.666
542.22	0.656
542.43	0.650
542.64	0.645
542.84	0.645
543.05	0.637
543.26	0.638
543.46	0.640
543.67	0.638
543.88	0.634
544.08	0.626
544.29	0.621
544.50	0.622
544.70	0.624
544.91	0.616
545.12	0.617
545.32	0.612
545.53	0.615
545.74	0.605
545.94	0.601
546.15	0.598
546.35	0.596
546.56	0.592
546.77	0.588
546.97	0.585
547.18	0.577
547.39	0.577
547.59	0.575
547.80	0.572
548.01	0.575
548.21	0.572
548.42	0.564
548.62	0.563
548.83	0.561
549.04	0.558
549.24	0.551
549.45	0.551
549.65	0.549
549.86	0.545
550.07	0.544
550.27	0.542
550.48	0.549
550.69	0.536
550.89	0.536
551.10	0.533
551.30	0.532
551.51	0.532
551.72	0.522
551.92	0.522
552.13	0.522
552.33	0.522
552.54	0.517
552.75	0.510
552.95	0.511
553.16	0.507
553.36	0.505
553.57	0.503
553.78	0.500
553.98	0.500
554.19	0.493
554.39	0.490
554.60	0.492
554.80	0.493
555.01	0.486
555.22	0.488
555.42	0.485
555.63	0.479
555.83	0.483
556.04	0.477
556.25	0.480
556.45	0.471
556.66	0.470
556.86	0.473
557.07	0.470
557.27	0.469
557.48	0.463
557.68	0.462
557.89	0.462
558.10	0.459
558.30	0.456
558.51	0.454
558.71	0.452
558.92	0.447
559.12	0.449
559.33	0.452
559.54	0.446
559.74	0.442
559.95	0.439
560.15	0.439
560.36	0.438
560.56	0.433
560.77	0.433
560.97	0.433
561.18	0.428
561.38	0.428
561.59	0.431
561.79	0.428
562.00	0.426
562.21	0.423
562.41	0.422
562.62	0.421
562.82	0.419
563.03	0.416
563.23	0.416
563.44	0.415
563.64	0.412
563.85	0.413
564.05	0.407
564.26	0.407
564.46	0.406
564.67	0.405
564.87	0.400
565.08	0.397
565.28	0.397
565.49	0.398
565.69	0.395
565.90	0.391
566.10	0.394
566.31	0.387
566.51	0.389
566.72	0.390
566.92	0.385
567.13	0.384
567.33	0.383
567.54	0.381
567.74	0.380
567.95	0.376
568.15	0.378
568.36	0.377
568.56	0.376
568.77	0.371
568.97	0.370
569.18	0.370
569.38	0.368
569.59	0.369
569.79	0.366
570.00	0.364
570.20	0.363
570.41	0.361
570.61	0.360
570.82	0.361
571.02	0.357
571.23	0.359
571.43	0.354
571.64	0.353
571.84	0.352
572.05	0.351
572.25	0.351
572.45	0.349
572.66	0.346
572.86	0.344
573.07	0.343
573.27	0.344
573.48	0.343
573.68	0.339
573.89	0.339
574.09	0.340
574.30	0.337
574.50	0.335
574.70	0.336
574.91	0.334
575.11	0.335
575.32	0.334
575.52	0.330
575.73	0.329
575.93	0.329
576.14	0.327
576.34	0.326
576.54	0.325
576.75	0.323
576.95	0.322
577.16	0.320
577.36	0.318
577.57	0.317
577.77	0.315
577.97	0.313
578.18	0.314
578.38	0.311
578.59	0.309
578.79	0.308
579.00	0.309
579.20	0.307
579.40	0.307
579.61	0.306
579.81	0.305
580.02	0.304
580.22	0.304
580.42	0.303
580.63	0.303
580.83	0.302
581.04	0.300
581.24	0.299
581.45	0.298
581.65	0.298
581.85	0.297
582.06	0.296
582.26	0.295
582.47	0.293
582.67	0.293
582.87	0.292
583.08	0.290
583.28	0.290
583.48	0.288
583.69	0.285
583.89	0.286
584.10	0.286
584.30	0.284
584.50	0.282
584.71	0.281
584.91	0.281
585.12	0.279
585.32	0.280
585.52	0.278
585.73	0.277
585.93	0.276
586.13	0.275
586.34	0.275
586.54	0.274
586.75	0.273
586.95	0.272
587.15	0.272
587.36	0.271
587.56	0.270
587.76	0.269
587.97	0.268
588.17	0.266
588.37	0.266
588.58	0.266
588.78	0.263
588.98	0.263
589.19	0.262
589.39	0.260
589.60	0.262
589.80	0.259
590.00	0.259
590.21	0.259
590.41	0.257
590.61	0.257
590.82	0.256
591.02	0.255
591.22	0.254
591.43	0.254
591.63	0.253
591.83	0.252
592.04	0.251
592.24	0.252
592.44	0.249
592.65	0.248
592.85	0.248
593.05	0.248
593.26	0.247
593.46	0.246
593.66	0.246
593.86	0.245
594.07	0.243
594.27	0.243
594.47	0.242
594.68	0.241
594.88	0.242
595.08	0.241
595.29	0.241
595.49	0.238
595.69	0.238
595.90	0.236
596.10	0.237
596.30	0.236
596.50	0.235
596.71	0.235
596.91	0.234
597.11	0.233
597.32	0.233
597.52	0.232
597.72	0.232
597.93	0.231
598.13	0.230
598.33	0.230
598.53	0.228
598.74	0.228
598.94	0.227
599.14	0.226
599.35	0.227
599.55	0.227
599.75	0.225
599.95	0.225
600.16	0.225
600.36	0.224
600.56	0.224
600.76	0.224
600.97	0.223
601.17	0.222
601.37	0.222
601.58	0.221
601.78	0.221
601.98	0.221
602.18	0.219
602.39	0.220
602.59	0.219
602.79	0.218
602.99	0.217
603.20	0.216
603.40	0.217
603.60	0.216
603.80	0.216
604.01	0.216
604.21	0.214
604.41	0.214
604.61	0.213
604.82	0.212
605.02	0.213
605.22	0.212
605.42	0.212
605.62	0.211
605.83	0.210
606.03	0.209
606.23	0.210
606.43	0.209
606.64	0.210
606.84	0.209
607.04	0.208
607.24	0.208
607.45	0.208
607.65	0.207
607.85	0.208
608.05	0.206
608.25	0.206
608.46	0.205
608.66	0.205
608.86	0.204
609.06	0.203
609.26	0.202
609.47	0.202
609.67	0.201
609.87	0.202
610.07	0.201
610.28	0.200
610.48	0.200
610.68	0.200
610.88	0.199
611.08	0.200
611.29	0.199
611.49	0.198
611.69	0.199
611.89	0.197
612.09	0.197
612.29	0.197
612.50	0.196
612.70	0.196
612.90	0.194
613.10	0.194
613.30	0.193
613.51	0.194
613.71	0.193
613.91	0.197
614.11	0.192
614.31	0.192
614.51	0.192
614.72	0.192
614.92	0.191
615.12	0.191
615.32	0.192
615.52	0.191
615.72	0.191
615.93	0.191
616.13	0.190
616.33	0.191
616.53	0.190
616.73	0.190
616.93	0.189
617.14	0.189
617.34	0.189
617.54	0.188
617.74	0.189
617.94	0.187
618.14	0.187
618.34	0.186
618.55	0.186
618.75	0.186
618.95	0.186
619.15	0.186
619.35	0.184
619.55	0.183
619.75	0.184
619.96	0.183
620.16	0.183
620.36	0.183
620.56	0.183
620.76	0.183
620.96	0.182
621.16	0.182
621.36	0.181
621.57	0.182
621.77	0.182
621.97	0.181
622.17	0.181
622.37	0.181
622.57	0.181
622.77	0.180
622.97	0.179
623.18	0.179
623.38	0.180
623.58	0.179
623.78	0.178
623.98	0.178
624.18	0.178
624.38	0.177
624.58	0.178
624.78	0.178
624.98	0.178
625.19	0.177
625.39	0.177
625.59	0.176
625.79	0.176
625.99	0.176
626.19	0.176
626.39	0.175
626.59	0.175
626.79	0.175
626.99	0.174
627.19	0.174
627.40	0.175
627.60	0.174
627.80	0.174
628.00	0.174
628.20	0.174
628.40	0.174
628.60	0.174
628.80	0.173
629.00	0.173
629.20	0.172
629.40	0.172
629.60	0.171
629.80	0.171
630.00	0.171
630.20	0.170
630.41	0.169
630.61	0.169
630.81	0.169
631.01	0.170
631.21	0.168
631.41	0.169
631.61	0.169
631.81	0.169
632.01	0.168
632.21	0.169
632.41	0.167
632.61	0.167
632.81	0.168
633.01	0.168
633.21	0.167
633.41	0.168
633.61	0.167
633.81	0.166
634.01	0.166
634.21	0.166
634.41	0.165
634.61	0.166
634.81	0.165
635.01	0.165
635.22	0.165
635.42	0.165
635.62	0.165
635.82	0.165
636.02	0.164
636.22	0.164
636.42	0.163
636.62	0.164
636.82	0.163
637.02	0.163
637.22	0.163
637.42	0.162
637.62	0.161
637.82	0.161
638.02	0.161
638.22	0.160
638.42	0.160
638.62	0.160
638.82	0.159
639.02	0.159
639.22	0.159
639.42	0.158
639.62	0.158
639.82	0.157
640.02	0.158
640.22	0.157
640.42	0.157
640.62	0.157
640.82	0.157
641.02	0.156
641.22	0.157
641.42	0.156
641.61	0.157
641.81	0.157
642.01	0.157
642.21	0.156
642.41	0.156
642.61	0.156
642.81	0.156
643.01	0.156
643.21	0.156
643.41	0.156
643.61	0.155
643.81	0.155
644.01	0.154
644.21	0.154
644.41	0.154
644.61	0.154
644.81	0.154
645.01	0.154
645.21	0.153
645.41	0.153
645.61	0.153
645.81	0.152
646.01	0.152
646.21	0.153
646.40	0.152
646.60	0.152
646.80	0.152
647.00	0.152
647.20	0.151
647.40	0.151
647.60	0.151
647.80	0.150
648.00	0.150
648.20	0.150
648.40	0.149
648.60	0.149
648.80	0.149
649.00	0.149
649.20	0.149
649.39	0.148
649.59	0.148
649.79	0.148
649.99	0.148
650.19	0.147
650.39	0.147
650.59	0.147
650.79	0.147
650.99	0.146
651.19	0.146
651.39	0.146
651.58	0.145
651.78	0.145
651.98	0.145
652.18	0.145
652.38	0.144
652.58	0.144
652.78	0.144
652.98	0.143
653.18	0.144
653.38	0.144
653.57	0.144
653.77	0.144
653.97	0.144
654.17	0.144
654.37	0.143
654.57	0.143
654.77	0.143
654.97	0.143
655.16	0.142
655.36	0.142
655.56	0.141
655.76	0.141
655.96	0.141
656.16	0.140
656.36	0.141
656.56	0.140
656.75	0.140
656.95	0.140
657.15	0.140
657.35	0.140
657.55	0.139
657.75	0.140
657.95	0.139
658.14	0.139
658.34	0.139
658.54	0.139
658.74	0.138
658.94	0.138
659.14	0.138
659.34	0.138
659.53	0.137
659.73	0.137
659.93	0.136
660.13	0.136
660.33	0.136
660.53	0.135
660.72	0.136
660.92	0.136
661.12	0.135
661.32	0.135
661.52	0.134
661.72	0.134
661.91	0.133
662.11	0.134
662.31	0.133
662.51	0.133
662.71	0.133
662.90	0.132
663.10	0.132
663.30	0.132
663.50	0.132
663.70	0.131
663.90	0.131
664.09	0.131
664.29	0.130
664.49	0.130
664.69	0.130
664.89	0.130
665.08	0.130
665.28	0.130
665.48	0.130
665.68	0.129
665.88	0.129
666.07	0.128
666.27	0.129
666.47	0.129
666.67	0.129
666.87	0.129
667.06	0.128
667.26	0.128
667.46	0.127
667.66	0.128
667.85	0.128
668.05	0.128
668.25	0.128
668.45	0.128
668.65	0.128
668.84	0.127
669.04	0.127
669.24	0.127
669.44	0.126
669.63	0.125
669.83	0.125
670.03	0.124
670.23	0.124
670.42	0.124
670.62	0.123
670.82	0.123
671.02	0.123
671.22	0.123
671.41	0.122
671.61	0.123
671.81	0.123
672.01	0.123
672.20	0.123
672.40	0.122
672.60	0.122
672.80	0.122
672.99	0.122
673.19	0.121
673.39	0.121
673.58	0.121
673.78	0.120
673.98	0.120
674.18	0.120
674.37	0.120
674.57	0.119
674.77	0.120
674.97	0.119
675.16	0.119
675.36	0.119
675.56	0.118
675.75	0.118
675.95	0.118
676.15	0.118
676.35	0.118
676.54	0.118
676.74	0.118
676.94	0.118
677.13	0.117
677.33	0.117
677.53	0.117
677.73	0.117
677.92	0.117
678.12	0.117
678.32	0.116
678.51	0.116
678.71	0.116
678.91	0.115
679.11	0.115
679.30	0.115
679.50	0.115
679.70	0.114
679.89	0.114
680.09	0.115
680.29	0.114
680.48	0.114
680.68	0.114
680.88	0.113
681.07	0.114
681.27	0.114
681.47	0.113
681.66	0.113
681.86	0.113
682.06	0.113
682.25	0.113
682.45	0.113
682.65	0.113
682.84	0.112
683.04	0.112
683.24	0.111
683.43	0.111
683.63	0.111
683.83	0.111
684.02	0.110
684.22	0.110
684.42	0.110
684.61	0.110
684.81	0.110
685.01	0.109
685.20	0.109
685.40	0.109
685.60	0.109
685.79	0.109
685.99	0.110
686.19	0.109
686.38	0.109
686.58	0.109
686.77	0.109
686.97	0.109
687.17	0.109
687.36	0.109
687.56	0.108
687.76	0.108
687.95	0.108
688.15	0.107
688.34	0.107
688.54	0.107
688.74	0.106
688.93	0.106
689.13	0.106
689.33	0.106
689.52	0.106
689.72	0.106
689.91	0.106
690.11	0.105
690.31	0.105
690.50	0.105
690.70	0.105
690.89	0.105
691.09	0.104
691.29	0.104
691.48	0.104
691.68	0.104
691.87	0.104
692.07	0.104
692.27	0.103
692.46	0.103
692.66	0.103
692.85	0.103
693.05	0.103
693.25	0.103
693.44	0.103
693.64	0.103
693.83	0.103
694.03	0.102
694.22	0.102
694.42	0.102
694.62	0.103
694.81	0.103
695.01	0.103
695.20	0.102
695.40	0.102
695.59	0.101
695.79	0.101
695.99	0.101
696.18	0.102
696.38	0.102
696.57	0.102
696.77	0.101
696.96	0.101
697.16	0.101
697.36	0.101
697.55	0.101
697.75	0.100
697.94	0.100
698.14	0.100
698.33	0.099
698.53	0.099
698.72	0.099
698.92	0.098
699.11	0.098
699.31	0.098
699.51	0.098
699.70	0.098
699.90	0.098
700.09	0.098
700.29	0.098
700.48	0.098
700.68	0.098
700.87	0.098
701.07	0.097
701.26	0.097
701.46	0.097
701.65	0.097
701.85	0.096
702.04	0.096
702.24	0.096
702.43	0.096
702.63	0.096
702.82	0.096
703.02	0.095
703.21	0.095
703.41	0.095
703.60	0.095
703.80	0.094
703.99	0.094
704.19	0.095
704.38	0.094
704.58	0.094
704.77	0.094
704.97	0.094
705.16	0.094
705.36	0.095
705.55	0.094
705.75	0.094
705.94	0.094
706.14	0.094
706.33	0.094
706.53	0.094
706.72	0.094
706.92	0.094
707.11	0.094
707.31	0.093
707.50	0.093
707.70	0.093
707.89	0.093
708.09	0.093
708.28	0.093
708.48	0.093
708.67	0.092
708.86	0.092
709.06	0.092
709.25	0.092
709.45	0.092
709.64	0.092
709.84	0.092
710.03	0.092
710.23	0.092
710.42	0.091
710.62	0.091
710.81	0.091
711.00	0.092
711.20	0.091
711.39	0.091
711.59	0.091
711.78	0.091
711.98	0.091
712.17	0.091
712.37	0.091
712.56	0.091
712.75	0.091
712.95	0.091
713.14	0.091
713.34	0.091
713.53	0.091
713.73	0.092
713.92	0.092
714.11	0.092
714.31	0.092
714.50	0.092
714.70	0.092
714.89	0.092
715.08	0.092
715.28	0.092
715.47	0.091
715.67	0.091
715.86	0.091
716.06	0.091
716.25	0.091
716.44	0.090
716.64	0.090
716.83	0.090
717.03	0.090
717.22	0.090
717.41	0.089
717.61	0.089
717.80	0.089
717.99	0.089
718.19	0.089
718.38	0.089
718.58	0.089
718.77	0.088
718.96	0.088
719.16	0.088
719.35	0.088
719.55	0.088
719.74	0.088
719.93	0.088
720.13	0.088
720.32	0.088
720.51	0.088
720.71	0.088
720.90	0.088
721.10	0.088
721.29	0.088
721.48	0.088
721.68	0.088
721.87	0.087
722.06	0.087
722.26	0.088
722.45	0.088
722.64	0.088
722.84	0.088
723.03	0.087
723.22	0.088
723.42	0.088
723.61	0.088
723.80	0.088
724.00	0.088
724.19	0.088
724.38	0.088
724.58	0.087
724.77	0.087
724.96	0.087
725.16	0.087
725.35	0.087
725.54	0.087
725.74	0.087
725.93	0.087
726.12	0.087
726.32	0.087
726.51	0.087
726.70	0.087
726.90	0.087
727.09	0.087
727.28	0.087
727.48	0.087
727.67	0.087
727.86	0.086
728.06	0.087
728.25	0.087
728.44	0.087
728.64	0.086
728.83	0.086
729.02	0.086
729.21	0.087
729.41	0.087
729.60	0.087
729.79	0.087
729.99	0.086
730.18	0.087
730.37	0.087
730.56	0.087
730.76	0.087
730.95	0.087
731.14	0.086
731.34	0.086
731.53	0.087
731.72	0.086
731.91	0.086
732.11	0.086
732.30	0.086
732.49	0.087
732.69	0.087
732.88	0.087
733.07	0.087
733.26	0.087
733.46	0.087
733.65	0.087
733.84	0.087
734.03	0.087
734.23	0.087
734.42	0.087
734.61	0.087
734.80	0.087
735.00	0.087
735.19	0.087
735.38	0.087
735.57	0.087
735.77	0.087
735.96	0.087
736.15	0.087
736.34	0.087
736.54	0.087
736.73	0.087
736.92	0.087
737.11	0.087
737.31	0.087
737.50	0.088
737.69	0.087
737.88	0.087
738.07	0.087
738.27	0.087
738.46	0.087
738.65	0.087
738.84	0.087
739.04	0.087
739.23	0.087
739.42	0.087
739.61	0.087
739.80	0.086
740.00	0.086
740.19	0.087
740.38	0.087
740.57	0.087
740.76	0.086
740.96	0.086
741.15	0.086
741.34	0.086
741.53	0.086
741.72	0.086
741.92	0.086
742.11	0.086
742.30	0.086
742.49	0.085
742.68	0.085
742.88	0.086
743.07	0.086
743.26	0.086
743.45	0.086
743.64	0.085
743.84	0.085
744.03	0.085
744.22	0.085
744.41	0.085
744.60	0.085
744.79	0.085
744.99	0.085
745.18	0.085
745.37	0.084
745.56	0.084
745.75	0.084
745.94	0.084
746.14	0.084
746.33	0.084
746.52	0.085
746.71	0.085
746.90	0.084
747.09	0.084
747.28	0.084
747.48	0.084
747.67	0.084
747.86	0.084
748.05	0.084
748.24	0.084
748.43	0.084
748.62	0.084
748.82	0.084
749.01	0.083
749.20	0.083
749.39	0.083
749.58	0.083
749.77	0.083
749.96	0.083
750.16	0.083
750.35	0.083
750.54	0.083
750.73	0.083
750.92	0.083
751.11	0.083
751.30	0.083
751.49	0.083
751.68	0.083
751.88	0.083
752.07	0.082
752.26	0.082
752.45	0.083
752.64	0.082
752.83	0.083
753.02	0.082
753.21	0.082
753.40	0.082
753.60	0.082
753.79	0.082
753.98	0.082
754.17	0.082
754.36	0.082
754.55	0.082
754.74	0.082
754.93	0.081
755.12	0.081
755.31	0.081
755.50	0.081
755.70	0.081
755.89	0.081
756.08	0.081
756.27	0.081
756.46	0.082
756.65	0.082
756.84	0.081
757.03	0.081
757.22	0.081
757.41	0.081
757.60	0.081
757.79	0.081
757.98	0.081
758.17	0.081
758.36	0.081
758.56	0.081
758.75	0.081
758.94	0.081
759.13	0.081
759.32	0.081
759.51	0.081
759.70	0.081
759.89	0.081
760.08	0.081
760.27	0.080
760.46	0.081
760.65	0.081
760.84	0.081
761.03	0.080
761.22	0.080
761.41	0.080
761.60	0.080
761.79	0.080
761.98	0.080
762.17	0.079
762.36	0.079
762.55	0.079
762.74	0.078
762.93	0.078
763.12	0.078
763.31	0.078
763.50	0.078
763.69	0.078
763.88	0.078
764.07	0.078
764.26	0.078
764.45	0.078
764.64	0.079
764.83	0.078
765.02	0.078
765.21	0.079
765.40	0.079
765.59	0.079
765.78	0.079
765.97	0.079
766.16	0.079
766.35	0.079
766.54	0.079
766.73	0.079
766.92	0.078
767.11	0.078
767.30	0.078
767.49	0.078
767.68	0.078
767.87	0.078
768.06	0.078
768.25	0.078
768.44	0.078
768.63	0.077
768.82	0.077
769.01	0.077
769.20	0.077
769.39	0.078
769.58	0.078
769.77	0.078
769.96	0.078
770.15	0.078
770.34	0.078
770.53	0.077
770.72	0.077
770.91	0.077
771.10	0.077
771.29	0.077
771.47	0.077
771.66	0.076
771.85	0.077
772.04	0.077
772.23	0.077
772.42	0.076
772.61	0.077
772.80	0.077
772.99	0.077
773.18	0.077
773.37	0.078
773.56	0.077
773.75	0.078
773.94	0.078
774.13	0.077
774.31	0.078
774.50	0.078
774.69	0.077
774.88	0.077
775.07	0.077
775.26	0.077
775.45	0.076
775.64	0.076
775.83	0.075
776.02	0.075
776.21	0.075
776.40	0.076
776.58	0.075
776.77	0.075
776.96	0.075
777.15	0.075
777.34	0.075
777.53	0.076
777.72	0.076
777.91	0.076
778.10	0.076
778.28	0.076
778.47	0.075
778.66	0.075
778.85	0.075
779.04	0.075
779.23	0.075
779.42	0.075
779.61	0.075
779.79	0.075
779.98	0.075
780.17	0.075
780.36	0.075
780.55	0.075
780.74	0.075
780.93	0.074
781.12	0.075
781.30	0.074
781.49	0.074
781.68	0.074
781.87	0.075
782.06	0.074
782.25	0.074
782.44	0.074
782.62	0.074
782.81	0.075
783.00	0.075
783.19	0.075
783.38	0.075
783.57	0.075
783.75	0.074
783.94	0.074
784.13	0.074
784.32	0.074
784.51	0.074
784.70	0.074
784.88	0.074
785.07	0.074
785.26	0.073
785.45	0.073
785.64	0.073
785.83	0.073
786.01	0.073
786.20	0.073
786.39	0.073
786.58	0.073
786.77	0.073
786.95	0.073
787.14	0.073
787.33	0.073
787.52	0.073
787.71	0.073
787.90	0.073
788.08	0.073
788.27	0.073
788.46	0.073
788.65	0.073
788.84	0.073
789.02	0.073
789.21	0.073
789.40	0.074
789.59	0.073
789.77	0.074
789.96	0.073
790.15	0.073
790.34	0.073
790.53	0.073
790.71	0.073
790.90	0.073
791.09	0.072
791.28	0.073
791.46	0.073
791.65	0.072
791.84	0.072
792.03	0.072
792.22	0.072
792.40	0.072
792.59	0.072
792.78	0.072
792.97	0.072
793.15	0.073
793.34	0.072
793.53	0.072
793.72	0.072
793.90	0.072
794.09	0.072
794.28	0.072
794.47	0.072
794.65	0.072
794.84	0.072
795.03	0.072
795.22	0.072
795.40	0.072
795.59	0.071
795.78	0.072
795.97	0.072
796.15	0.072
796.34	0.072
796.53	0.072
796.71	0.072
796.90	0.073
797.09	0.073
797.28	0.072
797.46	0.072
797.65	0.072
797.84	0.072
798.02	0.072
798.21	0.071
798.40	0.071
798.59	0.071
798.77	0.071
798.96	0.070
799.15	0.070
799.33	0.071
799.52	0.070
799.71	0.070
799.90	0.071
800.08	0.071
800.27	0.071
800.46	0.070
800.64	0.070
800.83	0.070
801.02	0.071
801.20	0.071
801.39	0.070
801.58	0.071
801.76	0.071
801.95	0.071
802.14	0.070
802.32	0.070
802.51	0.070
802.70	0.070
802.88	0.070
803.07	0.070
803.26	0.069
803.44	0.069
803.63	0.069
803.82	0.069
804.00	0.069
804.19	0.070
804.38	0.070
804.56	0.070
804.75	0.070
804.94	0.070
805.12	0.070
805.31	0.071
805.50	0.071
805.68	0.071
805.87	0.071
806.06	0.071
806.24	0.071
806.43	0.071
806.62	0.071
806.80	0.071
806.99	0.070
807.17	0.070
807.36	0.070
807.55	0.070
807.73	0.070
807.92	0.070
808.11	0.070
808.29	0.070
808.48	0.069
808.66	0.070
808.85	0.069
809.04	0.069
809.22	0.069
809.41	0.069
809.59	0.069
809.78	0.069
809.97	0.069
810.15	0.069
810.34	0.069
810.53	0.069
810.71	0.068
810.90	0.069
811.08	0.069
811.27	0.069
811.45	0.069
811.64	0.069
811.83	0.069
812.01	0.069
812.20	0.069
812.38	0.069
812.57	0.070
812.76	0.070
812.94	0.069
813.13	0.069
813.31	0.069
813.50	0.069
813.68	0.069
813.87	0.068
814.06	0.069
814.24	0.069
814.43	0.069
814.61	0.069
814.80	0.069
814.98	0.069
815.17	0.069
815.36	0.069
815.54	0.069
815.73	0.069
815.91	0.069
816.10	0.069
816.28	0.070
816.47	0.069
816.65	0.069
816.84	0.069
817.03	0.069
817.21	0.070
817.40	0.070
817.58	0.070
817.77	0.070
817.95	0.069
818.14	0.069
818.32	0.069
818.51	0.070
818.69	0.070
818.88	0.070
819.06	0.070
819.25	0.069
819.43	0.069
819.62	0.070
819.80	0.069
819.99	0.069
820.18	0.070
820.36	0.069
820.55	0.069
820.73	0.069
820.92	0.069
821.10	0.069
821.29	0.069
821.47	0.069
821.66	0.069
821.84	0.069
822.03	0.069
822.21	0.069
822.40	0.069
822.58	0.070
822.77	0.069
822.95	0.070
823.14	0.070
823.32	0.070
823.50	0.071
823.69	0.071
823.87	0.071
824.06	0.071
824.24	0.071
824.43	0.071
824.61	0.071
824.80	0.071
824.98	0.071
825.17	0.071
825.35	0.071
825.54	0.071
825.72	0.071
825.91	0.071
826.09	0.071
826.28	0.070
826.46	0.071
826.64	0.071
826.83	0.071
827.01	0.071
827.20	0.070
827.38	0.070
827.57	0.071
827.75	0.071
827.94	0.071
828.12	0.071
828.31	0.072
828.49	0.072
828.67	0.072
828.86	0.072
829.04	0.073
829.23	0.073
829.41	0.073
829.60	0.073
829.78	0.074
829.96	0.074
830.15	0.074
830.33	0.074
830.52	0.074
830.70	0.075
830.88	0.075
831.07	0.075
831.25	0.075
831.44	0.075
831.62	0.075
831.81	0.075
831.99	0.075
832.17	0.075
832.36	0.075
832.54	0.075
832.73	0.075
832.91	0.074
833.09	0.074
833.28	0.074
833.46	0.074
833.65	0.074
833.83	0.074
834.01	0.074
834.20	0.075
834.38	0.074
834.56	0.075
834.75	0.075
834.93	0.075
835.12	0.075
835.30	0.075
835.48	0.076
835.67	0.075
835.85	0.075
836.03	0.075
836.22	0.075
836.40	0.075
836.59	0.075
836.77	0.075
836.95	0.076
837.14	0.076
837.32	0.076
837.50	0.076
837.69	0.076
837.87	0.076
838.05	0.076
838.24	0.075
838.42	0.076
838.60	0.076
838.79	0.076
838.97	0.076
839.15	0.076
839.34	0.076
839.52	0.076
839.70	0.076
839.89	0.076
840.07	0.077
840.25	0.077
840.44	0.077
840.62	0.077
840.80	0.076
840.99	0.077
841.17	0.076
841.35	0.076
841.54	0.076
841.72	0.076
841.90	0.076
842.09	0.076
842.27	0.076
842.45	0.076
842.64	0.076
842.82	0.077
843.00	0.077
843.19	0.077
843.37	0.077
843.55	0.077
843.73	0.077
843.92	0.077
844.10	0.077
844.28	0.077
844.47	0.077
844.65	0.077
844.83	0.077
845.01	0.077
845.20	0.077
845.38	0.078
845.56	0.078
845.75	0.078
845.93	0.078
846.11	0.078
846.29	0.078
846.48	0.078
846.66	0.078
846.84	0.078
847.02	0.077
847.21	0.077
847.39	0.077
847.57	0.077
847.76	0.077
847.94	0.077
848.12	0.076
848.30	0.076
848.49	0.076
848.67	0.077
848.85	0.077
849.03	0.077
849.22	0.077
849.40	0.077
849.58	0.077
849.76	0.078
849.95	0.078
850.13	0.078
850.31	0.078
850.49	0.078
850.67	0.078
850.86	0.078
851.04	0.078
851.22	0.078
851.40	0.077
851.59	0.077
851.77	0.077
851.95	0.077
852.13	0.077
852.31	0.077
852.50	0.078
852.68	0.078
852.86	0.077
853.04	0.077
853.23	0.077
853.41	0.078
853.59	0.078
853.77	0.078
853.95	0.078
854.14	0.078
854.32	0.078
854.50	0.078
854.68	0.078
854.86	0.078
855.04	0.078
855.23	0.078
855.41	0.079
855.59	0.078
855.77	0.078
855.95	0.079
856.14	0.079
856.32	0.079
856.50	0.079
856.68	0.079
856.86	0.079
857.04	0.078
857.23	0.078
857.41	0.078
857.59	0.078
857.77	0.078
857.95	0.078
858.13	0.078
858.32	0.078
858.50	0.078
858.68	0.078
858.86	0.078
859.04	0.078
859.22	0.078
859.41	0.078
859.59	0.078
859.77	0.078
859.95	0.078
860.13	0.078
860.31	0.078
860.49	0.078
860.68	0.078
860.86	0.078
861.04	0.078
861.22	0.078
861.40	0.078
861.58	0.078
861.76	0.078
861.94	0.078
862.13	0.078
862.31	0.078
862.49	0.078
862.67	0.078
862.85	0.078
863.03	0.079
863.21	0.079
863.39	0.079
863.57	0.079
863.76	0.079
863.94	0.079
864.12	0.080
864.30	0.080
864.48	0.079
864.66	0.080
864.84	0.080
865.02	0.080
865.20	0.080
865.38	0.080
865.57	0.080
865.75	0.080
865.93	0.080
866.11	0.080
866.29	0.080
866.47	0.080
866.65	0.080
866.83	0.080
867.01	0.080
867.19	0.080
867.37	0.080
867.55	0.080
867.73	0.080
867.92	0.080
868.10	0.080
868.28	0.080
868.46	0.080
868.64	0.080
868.82	0.080
869.00	0.080
869.18	0.080
869.36	0.080
869.54	0.080
869.72	0.080
869.90	0.080
870.08	0.081
870.26	0.081
870.44	0.081
870.62	0.081
870.80	0.080
870.98	0.080
871.16	0.081
871.34	0.080
871.53	0.080
871.71	0.080
871.89	0.080
872.07	0.080
872.25	0.080
872.43	0.080
872.61	0.080
872.79	0.081
872.97	0.081
873.15	0.081
873.33	0.082
873.51	0.082
873.69	0.082
873.87	0.082
874.05	0.082
874.23	0.082
874.41	0.082
874.59	0.083
874.77	0.082
874.95	0.082
875.13	0.082
875.31	0.082
875.49	0.082
875.67	0.082
875.85	0.082
876.03	0.082
876.21	0.082
876.39	0.082
876.57	0.082
876.75	0.082
876.93	0.082
877.11	0.082
877.29	0.081
877.47	0.081
877.65	0.082
877.82	0.083
878.00	0.083
878.18	0.083
878.36	0.083
878.54	0.083
878.72	0.082
878.90	0.083
879.08	0.083
879.26	0.083
879.44	0.083
879.62	0.083
879.80	0.083
879.98	0.083
880.16	0.082
880.34	0.082
880.52	0.082
880.70	0.082
880.88	0.082
881.06	0.082
881.24	0.082
881.42	0.082
881.59	0.082
881.77	0.082
881.95	0.082
882.13	0.082
882.31	0.082
882.49	0.082
882.67	0.083
882.85	0.082
883.03	0.082
883.21	0.082
883.39	0.082
883.57	0.083
883.75	0.083
883.92	0.083
884.10	0.083
884.28	0.083
884.46	0.083
884.64	0.083
884.82	0.083
885.00	0.083
885.18	0.084
885.36	0.084
885.54	0.083
885.71	0.084
885.89	0.084
886.07	0.084
886.25	0.084
886.43	0.084
886.61	0.084
886.79	0.083
886.97	0.083
887.15	0.083
887.32	0.084
887.50	0.084
887.68	0.084
887.86	0.084
888.04	0.084
888.22	0.084
888.40	0.084
888.57	0.085
888.75	0.085
888.93	0.085
889.11	0.085
889.29	0.085
889.47	0.085
889.65	0.085
889.82	0.085
890.00	0.086
890.18	0.086
890.36	0.086
890.54	0.086
890.72	0.086
890.90	0.086
891.07	0.086
891.25	0.086
891.43	0.085
891.61	0.085
891.79	0.085
891.97	0.085
892.14	0.085
892.32	0.085
892.50	0.085
892.68	0.085
892.86	0.085
893.03	0.085
893.21	0.086
893.39	0.086
893.57	0.086
893.75	0.086
893.93	0.086
894.10	0.086
894.28	0.086
894.46	0.086
894.64	0.086
894.82	0.086
894.99	0.086
895.17	0.086
895.35	0.086
895.53	0.086
895.71	0.085
895.88	0.086
896.06	0.086
896.24	0.086
896.42	0.086
896.59	0.086
896.77	0.086
896.95	0.086
897.13	0.086
897.31	0.086
897.48	0.086
897.66	0.087
897.84	0.087
898.02	0.087
898.19	0.087
898.37	0.087
898.55	0.087
898.73	0.087
898.91	0.087
899.08	0.087
899.26	0.087
899.44	0.086
899.62	0.086
899.79	0.087
899.97	0.087
900.15	0.087
900.33	0.087
900.50	0.087
900.68	0.087
900.86	0.087
901.04	0.088
901.21	0.088
901.39	0.088
901.57	0.088
901.74	0.088
901.92	0.088
902.10	0.088
902.28	0.088
902.45	0.088
902.63	0.087
902.81	0.087
902.99	0.088
903.16	0.088
903.34	0.088
903.52	0.088
903.69	0.088
903.87	0.088
904.05	0.088
904.22	0.089
904.40	0.089
904.58	0.089
904.76	0.089
904.93	0.089
905.11	0.089
905.29	0.089
905.46	0.089
905.64	0.089
905.82	0.089
905.99	0.089
906.17	0.089
906.35	0.089
906.53	0.089
906.70	0.089
906.88	0.089
907.06	0.089
907.23	0.089
907.41	0.089
907.59	0.089
907.76	0.090
907.94	0.090
908.12	0.090
908.29	0.090
908.47	0.090
908.65	0.091
908.82	0.091
909.00	0.090
909.18	0.091
909.35	0.091
909.53	0.091
909.71	0.091
909.88	0.090
910.06	0.090
910.23	0.090
910.41	0.091
910.59	0.090
910.76	0.090
910.94	0.091
911.12	0.091
911.29	0.091
911.47	0.091
911.65	0.092
911.82	0.092
912.00	0.092
912.17	0.092
912.35	0.092
912.53	0.092
912.70	0.092
912.88	0.092
913.06	0.093
913.23	0.093
913.41	0.093
913.58	0.093
913.76	0.093
913.94	0.093
914.11	0.094
914.29	0.094
914.46	0.094
914.64	0.094
914.82	0.094
914.99	0.094
915.17	0.094
915.34	0.094
915.52	0.094
915.70	0.094
915.87	0.094
916.05	0.094
916.22	0.094
916.40	0.094
916.57	0.095
916.75	0.095
916.93	0.095
917.10	0.095
917.28	0.095
917.45	0.095
917.63	0.095
917.80	0.095
917.98	0.095
918.16	0.095
918.33	0.095
918.51	0.095
918.68	0.095
918.86	0.096
919.03	0.096
919.21	0.096
919.39	0.097
919.56	0.098
919.74	0.098
919.91	0.098
920.09	0.098
920.26	0.098
920.44	0.099
920.61	0.099
920.79	0.099
920.96	0.099
921.14	0.099
921.31	0.099
921.49	0.099
921.67	0.099
921.84	0.099
922.02	0.100
922.19	0.100
922.37	0.100
922.54	0.100
922.72	0.100
922.89	0.101
923.07	0.101
923.24	0.101
923.42	0.101
923.59	0.101
923.77	0.102
923.94	0.102
924.12	0.102
924.29	0.103
924.47	0.103
924.64	0.104
924.82	0.104
924.99	0.104
925.17	0.105
925.34	0.105
925.52	0.105
925.69	0.105
925.87	0.105
926.04	0.105
926.22	0.106
926.39	0.106
926.57	0.106
926.74	0.106
926.91	0.106
927.09	0.107
927.26	0.107
927.44	0.107
927.61	0.108
927.79	0.108
927.96	0.109
928.14	0.109
928.31	0.109
928.49	0.109
928.66	0.110
928.84	0.110
929.01	0.111
929.18	0.112
929.36	0.112
929.53	0.113
929.71	0.113
929.88	0.114
930.06	0.114
930.23	0.115
930.41	0.115
930.58	0.116
930.75	0.116
930.93	0.117
931.10	0.117
931.28	0.117
931.45	0.118
931.63	0.118
931.80	0.118
931.97	0.119
932.15	0.119
932.32	0.119
932.50	0.120
932.67	0.120
932.84	0.121
933.02	0.122
933.19	0.121
933.37	0.122
933.54	0.123
933.71	0.123
933.89	0.124
934.06	0.124
934.24	0.125
934.41	0.125
934.58	0.125
934.76	0.126
934.93	0.127
935.11	0.127
935.28	0.127
935.45	0.127
935.63	0.128
935.80	0.128
935.98	0.128
936.15	0.128
936.32	0.129
936.50	0.129
936.67	0.130
936.84	0.130
937.02	0.131
937.19	0.132
937.36	0.132
937.54	0.133
937.71	0.134
937.89	0.134
938.06	0.135
938.23	0.135
938.41	0.136
938.58	0.137
938.75	0.137
938.93	0.138
939.10	0.138
939.27	0.138
939.45	0.139
939.62	0.139
939.79	0.140
939.97	0.140
940.14	0.141
940.31	0.142
940.49	0.142
940.66	0.143
940.83	0.143
941.01	0.144
941.18	0.145
941.35	0.145
941.53	0.146
941.70	0.147
941.87	0.147
942.05	0.148
942.22	0.149
942.39	0.150
942.57	0.150
942.74	0.151
942.91	0.151
943.08	0.152
943.26	0.152
943.43	0.153
943.60	0.153
943.78	0.154
943.95	0.155
944.12	0.155
944.29	0.156
944.47	0.156
944.64	0.157
944.81	0.158
944.99	0.159
945.16	0.159
945.33	0.160
945.50	0.161
945.68	0.161
945.85	0.162
946.02	0.164
946.20	0.165
946.37	0.166
946.54	0.167
946.71	0.168
946.89	0.168
947.06	0.169
947.23	0.170
947.40	0.171
947.58	0.171
947.75	0.172
947.92	0.173
948.09	0.173
948.27	0.174
948.44	0.176
948.61	0.177
948.78	0.177
948.96	0.179
949.13	0.180
949.30	0.181
949.47	0.182
949.65	0.183
949.82	0.185
949.99	0.185
950.16	0.187
950.33	0.188
950.51	0.189
950.68	0.191
950.85	0.192
951.02	0.193
951.20	0.193
951.37	0.195
951.54	0.195
951.71	0.197
951.88	0.198
952.06	0.199
952.23	0.200
952.40	0.201
952.57	0.202
952.74	0.204
952.92	0.205
953.09	0.206
953.26	0.208
953.43	0.209
953.60	0.210
953.77	0.210
953.95	0.211
954.12	0.214
954.29	0.214
954.46	0.217
954.63	0.218
954.81	0.219
954.98	0.219
955.15	0.221
955.32	0.223
955.49	0.223
955.66	0.224
955.84	0.225
956.01	0.225
956.18	0.228
956.35	0.229
956.52	0.229
956.69	0.231
956.87	0.231
957.04	0.232
957.21	0.235
957.38	0.234
957.55	0.236
957.72	0.237
957.89	0.238
958.07	0.238
958.24	0.240
958.41	0.241
958.58	0.241
958.75	0.242
958.92	0.243
959.09	0.244
959.26	0.244
959.44	0.245
959.61	0.247
959.78	0.247
959.95	0.249
960.12	0.249
960.29	0.252
960.46	0.251
960.63	0.251
960.81	0.251
960.98	0.252
961.15	0.253
961.32	0.254
961.49	0.253
961.66	0.254
961.83	0.255
962.00	0.254
962.17	0.255
962.34	0.255
962.52	0.255
962.69	0.256
962.86	0.256
963.03	0.256
963.20	0.256
963.37	0.255
963.54	0.256
963.71	0.256
963.88	0.256
964.05	0.257
964.22	0.258
964.39	0.257
964.56	0.257
964.74	0.259
964.91	0.259
965.08	0.259
965.25	0.260
965.42	0.260
965.59	0.261
965.76	0.261
965.93	0.263
966.10	0.261
966.27	0.262
966.44	0.262
966.61	0.263
966.78	0.262
966.95	0.262
967.12	0.263
967.29	0.265
967.46	0.264
967.63	0.263
967.80	0.264
967.97	0.264
968.14	0.264
968.32	0.264
968.49	0.265
968.66	0.264
968.83	0.264
969.00	0.265
969.17	0.264
969.34	0.265
969.51	0.266
969.68	0.265
969.85	0.265
970.02	0.266
970.19	0.265
970.36	0.265
970.53	0.265
970.70	0.264
970.87	0.264
971.04	0.263
971.21	0.264
971.38	0.264
971.55	0.265
971.72	0.264
971.89	0.265
972.06	0.265
972.23	0.265
972.40	0.265
972.57	0.264
972.74	0.264
972.91	0.265
973.07	0.265
973.24	0.265
973.41	0.265
973.58	0.263
973.75	0.276
973.92	0.264
974.09	0.263
974.26	0.263
974.43	0.262
974.60	0.263
974.77	0.264
974.94	0.263
975.11	0.263
975.28	0.264
975.45	0.262
975.62	0.263
975.79	0.265
975.96	0.263
976.13	0.263
976.30	0.264
976.47	0.263
976.64	0.263
976.80	0.263
976.97	0.263
977.14	0.263
977.31	0.263
977.48	0.263
977.65	0.263
977.82	0.262
977.99	0.263
978.16	0.263
978.33	0.263
978.50	0.263
978.67	0.262
978.83	0.262
979.00	0.263
979.17	0.262
979.34	0.262
979.51	0.261
979.68	0.262
979.85	0.261
980.02	0.262
980.19	0.260
980.36	0.262
980.52	0.263
980.69	0.261
980.86	0.261
981.03	0.260
981.20	0.259
981.37	0.260
981.54	0.261
981.71	0.260
981.88	0.260
982.04	0.260
982.21	0.259
982.38	0.260
982.55	0.259
982.72	0.258
982.89	0.259
983.06	0.257
983.22	0.257
983.39	0.257
983.56	0.256
983.73	0.256
983.90	0.256
984.07	0.257
984.24	0.256
984.40	0.255
984.57	0.254
984.74	0.256
984.91	0.257
985.08	0.255
985.25	0.252
985.41	0.254
985.58	0.254
985.75	0.254
985.92	0.253
986.09	0.252
986.26	0.252
986.42	0.251
986.59	0.250
986.76	0.251
986.93	0.252
987.10	0.252
987.27	0.249
987.43	0.248
987.60	0.250
987.77	0.249
987.94	0.247
988.11	0.249
988.27	0.248
988.44	0.248
988.61	0.246
988.78	0.245
988.95	0.245
989.11	0.246
989.28	0.245
989.45	0.244
989.62	0.244
989.79	0.244
989.95	0.243
990.12	0.245
990.29	0.244
990.46	0.243
990.62	0.241
990.79	0.243
990.96	0.243
991.13	0.243
991.30	0.242
991.46	0.241
991.63	0.240
991.80	0.239
991.97	0.239
992.13	0.240
992.30	0.241
992.47	0.240
992.64	0.239
992.80	0.239
992.97	0.240
993.14	0.237
993.31	0.235
993.47	0.238
993.64	0.236
993.81	0.235
993.98	0.236
994.14	0.234
994.31	0.233
994.48	0.235
994.64	0.235
994.81	0.234
994.98	0.234
995.15	0.232
995.31	0.232
995.48	0.231
995.65	0.233
995.82	0.230
995.98	0.230
996.15	0.231
996.32	0.232
996.48	0.230
996.65	0.230
996.82	0.227
996.99	0.228
997.15	0.227
997.32	0.229
997.49	0.227
997.65	0.228
997.82	0.227
997.99	0.225
998.15	0.225
998.32	0.227
998.49	0.225
998.65	0.226
998.82	0.225
998.99	0.223
999.15	0.224
999.32	0.223
999.49	0.223
999.65	0.222
999.82	0.221
999.99	0.221
1000.15	0.221
1000.32	0.221
1000.49	0.220
1000.65	0.218
1000.82	0.217
1000.99	0.218
1001.15	0.217
1001.32	0.217
1001.49	0.217
1001.65	0.216
1001.82	0.218
1001.99	0.214
1002.15	0.213
1002.32	0.214
1002.49	0.215
1002.65	0.214
1002.82	0.213
1002.99	0.212
1003.15	0.214
1003.32	0.213
1003.48	0.214
1003.65	0.214
1003.82	0.214
1003.98	0.211
1004.15	0.211
1004.32	0.211
1004.48	0.212
1004.65	0.213
1004.81	0.210
1004.98	0.209
1005.15	0.210
1005.31	0.209
1005.48	0.207
1005.64	0.207
1005.81	0.209
1005.98	0.205
1006.14	0.205
1006.31	0.204
1006.47	0.203
1006.64	0.202
1006.81	0.201
1006.97	0.201
1007.14	0.201
1007.30	0.202
1007.47	0.201
1007.63	0.199
1007.80	0.198
1007.97	0.197
1008.13	0.197
1008.30	0.197
1008.46	0.198
1008.63	0.197
1008.79	0.197
1008.96	0.198
1009.13	0.198
1009.29	0.196
1009.46	0.196
1009.62	0.196
1009.79	0.195
1009.95	0.195
1010.12	0.195
1010.28	0.195
1010.45	0.194
1010.62	0.194
1010.78	0.192
1010.95	0.191
1011.11	0.191
1011.28	0.191
1011.44	0.193
1011.61	0.191
1011.77	0.189
1011.94	0.189
1012.10	0.188
1012.27	0.188
1012.43	0.188
1012.60	0.187
1012.76	0.187
1012.93	0.187
1013.10	0.186
1013.26	0.183
1013.43	0.185
1013.59	0.193
1013.76	0.186
1013.92	0.185
1014.09	0.183
1014.25	0.184
1014.42	0.184
1014.58	0.184
1014.75	0.186
1014.91	0.184
1015.08	0.186
1015.24	0.183
1015.41	0.184
1015.57	0.184
1015.73	0.183
1015.90	0.181
1016.06	0.184
1016.23	0.182
1016.39	0.182
1016.56	0.183
1016.72	0.182
1016.89	0.182
1017.05	0.184
1017.22	0.180
1017.38	0.180
1017.55	0.179
1017.71	0.180
1017.88	0.179
1018.04	0.180
1018.21	0.177
1018.37	0.177
1018.53	0.177
1018.70	0.175
1018.86	0.174
1019.03	0.176
1019.19	0.174
1019.36	0.174
1019.52	0.175
1019.69	0.175
1019.85	0.174
1020.01	0.174
1020.18	0.172
1020.34	0.173
1020.51	0.172
1020.67	0.173
1020.84	0.171
1021.00	0.171
1021.16	0.170
1021.33	0.170
1021.49	0.169
1021.66	0.169
1021.82	0.167
1021.98	0.168
1022.15	0.167
1022.31	0.167
1022.48	0.166
1022.64	0.167
1022.80	0.165
1022.97	0.164
1023.13	0.164
1023.30	0.165
1023.46	0.166
1023.62	0.164
1023.79	0.164
1023.95	0.165
1024.12	0.164
1024.28	0.163
1024.44	0.164
1024.61	0.162
1024.77	0.162
1024.93	0.160
1025.10	0.160
1025.26	0.158
1025.43	0.159
1025.59	0.154
1025.75	0.157
1025.92	0.157
1026.08	0.156
1026.24	0.156
1026.41	0.158
1026.57	0.157
1026.73	0.155
1026.90	0.158
1027.06	0.156
1027.23	0.157
1027.39	0.157
1027.55	0.157
1027.72	0.157
1027.88	0.157
1028.04	0.157
1028.21	0.156
1028.37	0.149
1028.53	0.155
1028.70	0.154
1028.86	0.151
1029.02	0.151
1029.19	0.152
1029.35	0.150
1029.51	0.150
1029.67	0.148
1029.84	0.151
1030.00	0.146
1030.16	0.148
1030.33	0.150
1030.49	0.147
1030.65	0.144
1030.82	0.160
1030.98	0.148
1031.14	0.148
1031.31	0.147
1031.47	0.146
1031.63	0.148
1031.79	0.147
1031.96	0.149
1032.12	0.150
1032.28	0.147
1032.45	0.152
1032.61	0.151
1032.77	0.149
1032.93	0.146
1033.10	0.148
1033.26	0.149
1033.42	0.147
1033.58	0.146
1033.75	0.147
1033.91	0.145
1034.07	0.148
1034.24	0.146
1034.40	0.144
1034.56	0.144
1034.72	0.145
1034.89	0.145
1035.05	0.143
1035.21	0.143
1035.37	0.141
1035.54	0.143
1035.70	0.142
1035.86	0.141
1036.02	0.143
1036.19	0.141
1036.35	0.139
1036.51	0.143
1036.67	0.140
1036.83	0.140
1037.00	0.139
1037.16	0.139
1037.32	0.141
1037.48	0.139
1037.65	0.144
1037.81	0.140
1037.97	0.140
1038.13	0.141
1038.29	0.139
1038.46	0.137
1038.62	0.141
1038.78	0.138
1038.94	0.135
1039.10	0.139
1039.27	0.134
1039.43	0.135
1039.59	0.133
1039.75	0.133
1039.91	0.131
1040.08	0.131
1040.24	0.133
1040.40	0.135
1040.56	0.133
1040.72	0.127
1040.89	0.130
1041.05	0.134
1041.21	0.132
1041.37	0.131
1041.53	0.136
1041.69	0.134
1041.86	0.132
1042.02	0.130
1042.18	0.129
1042.34	0.131
1042.50	0.137
1042.66	0.133
1042.83	0.130
1042.99	0.134
1043.15	0.129
1043.31	0.129
1043.47	0.133
1043.63	0.130
1043.79	0.129
1043.96	0.131
1044.12	0.135
1044.28	0.130
1044.44	0.132
1044.60	0.126
1044.76	0.124
1044.92	0.127
1045.09	0.128
1045.25	0.126
1045.41	0.127
1045.57	0.122
1045.73	0.122
1045.89	0.122
1046.05	0.124
1046.21	0.131
1046.38	0.123
1046.54	0.128
1046.70	0.128
1046.86	0.123
>>>>>End Processed Spectral Data<<<<<
