SpectraSuite Data File
++++++++++++++++++++++++++++++++++++
Date: Mon May 20 12:12:51 CDT 2013
User: Students
Dark Spectrum Present: Yes
Reference Spectrum Present: Yes
Number of Sampled Component Spectra: 1
Spectrometers: USB4H00887
Integration Time (usec): 60000 (USB4H00887)
Spectra Averaged: 5 (USB4H00887)
Boxcar Smoothing: 5 (USB4H00887)
Correct for Electrical Dark: No (USB4H00887)
Strobe/Lamp Enabled: No (USB4H00887)
Correct for Detector Non-linearity: No (USB4H00887)
Correct for Stray Light: No (USB4H00887)
Number of Pixels in Processed Spectrum: 3648
>>>>>Begin Processed Spectral Data<<<<<
345.83	-0.000
346.05	-0.000
346.26	-0.000
346.48	-0.000
346.70	-0.100
346.92	-0.003
347.14	0.039
347.35	0.059
347.57	0.527
347.79	-0.320
348.01	-0.231
348.23	-0.387
348.44	-0.000
348.66	0.445
348.88	-0.439
349.10	-0.207
349.32	0.140
349.53	-0.032
349.75	-0.061
349.97	-0.065
350.19	-0.007
350.41	-0.010
350.62	0.064
350.84	0.007
351.06	0.008
351.28	-0.005
351.50	-0.157
351.71	-0.101
351.93	-0.128
352.15	-0.023
352.37	-0.030
352.58	-0.022
352.80	0.005
353.02	0.033
353.24	0.056
353.46	0.192
353.67	-0.119
353.89	0.052
354.11	0.059
354.33	0.063
354.54	0.111
354.76	0.217
354.98	0.403
355.20	0.383
355.41	0.143
355.63	0.334
355.85	0.151
356.07	-0.000
356.28	0.141
356.50	0.277
356.72	0.119
356.94	0.351
357.15	0.448
357.37	-0.000
357.59	0.171
357.81	0.099
358.02	0.134
358.24	0.109
358.46	0.262
358.68	0.202
358.89	0.114
359.11	-0.000
359.33	0.097
359.55	-0.656
359.76	0.156
359.98	0.184
360.20	0.193
360.42	0.162
360.63	0.179
360.85	0.115
361.07	0.698
361.29	0.100
361.50	0.312
361.72	0.114
361.94	0.409
362.15	0.188
362.37	0.115
362.59	0.123
362.81	0.211
363.02	0.323
363.24	0.539
363.46	0.285
363.68	0.365
363.89	0.212
364.11	0.271
364.33	0.286
364.54	0.135
364.76	0.152
364.98	0.147
365.20	0.154
365.41	0.100
365.63	0.139
365.85	0.099
366.06	0.179
366.28	0.190
366.50	0.129
366.71	0.065
366.93	0.125
367.15	0.126
367.37	0.116
367.58	0.142
367.80	0.168
368.02	0.402
368.23	0.129
368.45	0.158
368.67	0.144
368.88	0.157
369.10	-0.000
369.32	0.184
369.53	0.098
369.75	0.163
369.97	0.497
370.19	0.283
370.40	0.107
370.62	0.333
370.84	0.120
371.05	0.928
371.27	0.151
371.49	0.176
371.70	0.191
371.92	0.303
372.14	0.128
372.35	0.140
372.57	0.157
372.79	0.415
373.00	0.110
373.22	0.170
373.44	0.138
373.65	0.109
373.87	0.135
374.09	0.557
374.30	0.125
374.52	0.132
374.74	0.093
374.95	0.388
375.17	0.108
375.39	-0.000
375.60	0.132
375.82	0.248
376.04	0.129
376.25	0.151
376.47	0.091
376.68	0.241
376.90	0.147
377.12	0.316
377.33	0.154
377.55	0.379
377.77	0.170
377.98	0.260
378.20	0.160
378.42	0.185
378.63	0.258
378.85	-0.000
379.07	0.176
379.28	0.821
379.50	0.380
379.71	0.197
379.93	0.149
380.15	0.214
380.36	0.351
380.58	0.227
380.80	0.774
381.01	0.192
381.23	0.158
381.44	0.170
381.66	0.188
381.88	0.255
382.09	-0.099
382.31	0.153
382.53	0.152
382.74	0.897
382.96	0.200
383.17	0.168
383.39	0.224
383.61	0.265
383.82	0.186
384.04	0.233
384.25	0.287
384.47	0.262
384.69	0.271
384.90	0.248
385.12	0.552
385.33	0.345
385.55	0.263
385.77	0.393
385.98	0.203
386.20	0.286
386.41	0.245
386.63	0.261
386.85	0.216
387.06	0.265
387.28	0.417
387.49	0.258
387.71	0.186
387.93	0.163
388.14	0.509
388.36	0.205
388.57	0.176
388.79	0.181
389.01	0.962
389.22	0.262
389.44	0.212
389.65	0.178
389.87	0.185
390.08	0.226
390.30	0.173
390.52	0.351
390.73	0.347
390.95	0.258
391.16	0.258
391.38	-0.000
391.59	0.318
391.81	0.281
392.03	0.247
392.24	0.291
392.46	0.227
392.67	0.210
392.89	0.277
393.10	0.443
393.32	0.282
393.53	0.346
393.75	0.226
393.97	0.243
394.18	0.318
394.40	0.294
394.61	0.298
394.83	0.269
395.04	0.303
395.26	0.206
395.47	0.313
395.69	0.269
395.91	0.280
396.12	0.332
396.34	0.329
396.55	0.211
396.77	0.305
396.98	1.277
397.20	0.360
397.41	0.426
397.63	0.290
397.84	0.253
398.06	0.230
398.27	0.243
398.49	0.284
398.71	0.213
398.92	0.265
399.14	0.347
399.35	0.452
399.57	0.426
399.78	0.301
400.00	0.307
400.21	0.411
400.43	0.326
400.64	0.325
400.86	0.771
401.07	0.400
401.29	0.350
401.50	0.381
401.72	0.559
401.93	0.347
402.15	0.396
402.36	0.358
402.58	0.288
402.79	0.323
403.01	0.548
403.22	0.420
403.44	0.277
403.65	0.420
403.87	0.457
404.08	0.358
404.30	0.610
404.51	0.343
404.73	0.403
404.94	0.355
405.16	0.350
405.37	0.280
405.59	0.511
405.80	0.319
406.02	0.429
406.23	0.435
406.45	0.489
406.66	0.486
406.88	0.316
407.09	0.490
407.31	0.381
407.52	0.490
407.74	0.394
407.95	0.469
408.17	0.433
408.38	0.436
408.60	0.276
408.81	0.462
409.03	0.356
409.24	0.352
409.45	0.411
409.67	0.402
409.88	0.360
410.10	0.462
410.31	0.392
410.53	0.383
410.74	0.540
410.96	0.546
411.17	0.574
411.39	0.430
411.60	0.391
411.82	0.464
412.03	0.442
412.24	0.421
412.46	0.621
412.67	0.499
412.89	0.477
413.10	0.492
413.32	0.438
413.53	0.500
413.75	0.533
413.96	0.394
414.17	0.521
414.39	0.529
414.60	0.433
414.82	0.579
415.03	0.443
415.25	0.494
415.46	0.330
415.68	0.475
415.89	0.960
416.10	0.717
416.32	0.402
416.53	0.482
416.75	0.439
416.96	0.542
417.18	0.461
417.39	0.434
417.60	0.443
417.82	0.663
418.03	0.565
418.25	0.465
418.46	0.487
418.67	0.431
418.89	0.457
419.10	0.487
419.32	0.643
419.53	0.587
419.75	0.496
419.96	0.428
420.17	0.527
420.39	0.490
420.60	0.510
420.82	0.633
421.03	0.513
421.24	0.433
421.46	0.479
421.67	0.528
421.89	0.463
422.10	0.503
422.31	0.500
422.53	0.724
422.74	0.533
422.96	0.423
423.17	0.469
423.38	0.589
423.60	0.492
423.81	0.626
424.03	0.530
424.24	0.589
424.45	0.592
424.67	0.584
424.88	0.521
425.09	0.566
425.31	0.515
425.52	0.551
425.74	0.607
425.95	0.665
426.16	0.502
426.38	0.599
426.59	0.546
426.80	0.623
427.02	0.658
427.23	0.510
427.45	0.681
427.66	0.674
427.87	0.515
428.09	0.554
428.30	0.628
428.51	0.614
428.73	0.668
428.94	0.585
429.15	0.567
429.37	0.545
429.58	0.573
429.79	0.526
430.01	0.628
430.22	0.617
430.44	0.640
430.65	0.566
430.86	0.622
431.08	0.597
431.29	0.543
431.50	0.649
431.72	0.870
431.93	0.688
432.14	0.516
432.36	0.571
432.57	0.589
432.78	0.603
433.00	0.551
433.21	0.535
433.42	0.680
433.64	0.592
433.85	0.675
434.06	0.544
434.28	0.583
434.49	0.592
434.70	0.606
434.92	0.611
435.13	0.661
435.34	0.670
435.56	0.644
435.77	0.637
435.98	0.827
436.20	0.687
436.41	0.591
436.62	0.576
436.83	0.666
437.05	0.756
437.26	0.663
437.47	0.584
437.69	0.638
437.90	0.581
438.11	0.568
438.33	0.621
438.54	0.642
438.75	0.824
438.97	0.814
439.18	0.594
439.39	0.620
439.60	0.665
439.82	0.627
440.03	0.582
440.24	0.855
440.46	0.642
440.67	0.618
440.88	0.660
441.10	0.618
441.31	0.617
441.52	0.681
441.73	0.777
441.95	0.690
442.16	0.632
442.37	1.037
442.58	0.618
442.80	0.603
443.01	0.794
443.22	0.723
443.44	0.609
443.65	0.723
443.86	0.718
444.07	0.754
444.29	0.651
444.50	0.830
444.71	0.626
444.92	0.587
445.14	0.740
445.35	0.781
445.56	0.610
445.78	0.722
445.99	0.716
446.20	0.617
446.41	0.700
446.63	0.701
446.84	0.668
447.05	0.668
447.26	0.800
447.48	0.690
447.69	0.655
447.90	0.756
448.11	0.672
448.33	0.701
448.54	0.727
448.75	0.764
448.96	0.777
449.18	0.817
449.39	0.725
449.60	0.704
449.81	0.849
450.03	0.729
450.24	0.782
450.45	0.738
450.66	0.722
450.87	0.753
451.09	0.702
451.30	0.673
451.51	0.756
451.72	0.770
451.94	0.796
452.15	0.870
452.36	0.721
452.57	0.745
452.78	0.743
453.00	0.777
453.21	0.728
453.42	0.702
453.63	0.799
453.85	0.752
454.06	0.747
454.27	0.883
454.48	0.784
454.69	0.708
454.91	0.785
455.12	0.680
455.33	0.760
455.54	0.778
455.75	0.745
455.97	0.783
456.18	0.777
456.39	0.780
456.60	0.806
456.81	0.741
457.03	0.754
457.24	0.755
457.45	0.853
457.66	0.801
457.87	0.747
458.09	0.773
458.30	0.681
458.51	0.805
458.72	0.832
458.93	0.843
459.15	0.740
459.36	0.802
459.57	0.822
459.78	0.872
459.99	0.774
460.20	0.740
460.42	0.831
460.63	0.783
460.84	0.766
461.05	0.793
461.26	0.857
461.47	0.770
461.69	0.825
461.90	0.865
462.11	0.810
462.32	0.871
462.53	0.804
462.74	0.903
462.96	0.781
463.17	0.767
463.38	0.803
463.59	0.921
463.80	0.759
464.01	0.785
464.23	0.875
464.44	0.838
464.65	0.845
464.86	0.869
465.07	0.869
465.28	0.831
465.49	0.864
465.71	0.814
465.92	0.856
466.13	0.907
466.34	0.836
466.55	0.892
466.76	0.848
466.97	0.868
467.19	0.856
467.40	0.899
467.61	0.900
467.82	0.818
468.03	0.798
468.24	0.869
468.45	0.908
468.66	0.891
468.88	0.902
469.09	0.903
469.30	0.962
469.51	0.879
469.72	0.921
469.93	0.891
470.14	0.861
470.35	0.960
470.57	0.907
470.78	0.840
470.99	0.979
471.20	0.913
471.41	0.867
471.62	0.919
471.83	0.893
472.04	0.925
472.25	0.971
472.47	0.882
472.68	0.894
472.89	0.898
473.10	0.944
473.31	0.889
473.52	0.953
473.73	0.980
473.94	0.895
474.15	0.923
474.36	0.926
474.57	0.952
474.79	0.920
475.00	0.918
475.21	0.905
475.42	0.996
475.63	0.896
475.84	0.927
476.05	0.931
476.26	0.898
476.47	0.932
476.68	0.980
476.89	0.904
477.10	0.958
477.32	0.944
477.53	1.000
477.74	0.919
477.95	0.962
478.16	0.908
478.37	0.952
478.58	0.960
478.79	0.975
479.00	0.974
479.21	0.929
479.42	0.973
479.63	0.980
479.84	0.940
480.05	0.939
480.26	0.968
480.47	0.987
480.69	0.990
480.90	0.952
481.11	0.947
481.32	1.011
481.53	0.949
481.74	1.002
481.95	0.963
482.16	0.984
482.37	0.991
482.58	0.955
482.79	0.974
483.00	1.005
483.21	0.947
483.42	0.919
483.63	1.000
483.84	1.029
484.05	1.016
484.26	0.985
484.47	0.981
484.68	0.944
484.89	0.953
485.10	1.005
485.31	0.985
485.52	0.990
485.73	0.991
485.94	1.036
486.15	0.980
486.37	1.000
486.58	0.964
486.79	0.977
487.00	1.030
487.21	1.020
487.42	1.012
487.63	1.019
487.84	1.040
488.05	1.029
488.26	0.985
488.47	0.993
488.68	1.024
488.89	1.001
489.10	0.994
489.31	1.004
489.52	1.040
489.73	1.007
489.94	1.045
490.15	0.999
490.36	1.049
490.57	0.996
490.78	0.977
490.99	1.016
491.20	1.102
491.41	1.052
491.62	0.991
491.83	1.022
492.04	1.020
492.25	1.028
492.45	1.029
492.66	1.056
492.87	1.045
493.08	1.031
493.29	1.016
493.50	1.002
493.71	1.013
493.92	1.010
494.13	1.026
494.34	1.047
494.55	1.053
494.76	1.084
494.97	1.071
495.18	1.033
495.39	1.051
495.60	0.998
495.81	1.000
496.02	1.020
496.23	1.013
496.44	1.047
496.65	1.034
496.86	1.037
497.07	1.064
497.28	1.062
497.49	1.009
497.70	1.011
497.91	1.034
498.12	1.014
498.32	1.061
498.53	1.040
498.74	1.029
498.95	1.061
499.16	1.013
499.37	1.019
499.58	1.031
499.79	1.063
500.00	1.056
500.21	1.084
500.42	1.024
500.63	1.026
500.84	1.050
501.05	1.025
501.26	1.050
501.46	1.095
501.67	1.053
501.88	1.055
502.09	1.026
502.30	1.034
502.51	1.088
502.72	1.040
502.93	1.056
503.14	1.081
503.35	1.051
503.56	1.048
503.77	1.081
503.97	1.058
504.18	1.054
504.39	1.091
504.60	1.058
504.81	1.087
505.02	1.074
505.23	1.075
505.44	1.052
505.65	1.061
505.86	1.042
506.07	1.109
506.27	1.063
506.48	1.068
506.69	1.053
506.90	1.072
507.11	1.068
507.32	1.043
507.53	1.054
507.74	1.047
507.95	1.063
508.15	1.067
508.36	1.076
508.57	1.089
508.78	1.071
508.99	1.072
509.20	1.048
509.41	1.075
509.62	1.065
509.82	1.063
510.03	1.073
510.24	1.073
510.45	1.099
510.66	1.086
510.87	1.079
511.08	1.036
511.29	1.082
511.49	1.059
511.70	1.110
511.91	1.036
512.12	1.031
512.33	1.067
512.54	1.084
512.75	1.066
512.95	1.095
513.16	1.087
513.37	1.060
513.58	1.099
513.79	1.058
514.00	1.063
514.20	1.081
514.41	1.071
514.62	1.036
514.83	1.080
515.04	1.068
515.25	1.045
515.46	1.057
515.66	1.060
515.87	1.073
516.08	1.038
516.29	1.064
516.50	1.044
516.71	1.036
516.91	1.048
517.12	1.064
517.33	1.048
517.54	1.035
517.75	1.037
517.95	1.050
518.16	1.061
518.37	1.030
518.58	1.036
518.79	1.011
519.00	1.044
519.20	1.051
519.41	1.023
519.62	1.044
519.83	1.055
520.04	1.019
520.24	1.019
520.45	1.030
520.66	1.051
520.87	1.011
521.08	1.008
521.28	1.013
521.49	1.029
521.70	0.998
521.91	1.012
522.12	0.991
522.32	1.015
522.53	0.994
522.74	0.984
522.95	0.994
523.16	0.996
523.36	1.006
523.57	0.987
523.78	0.983
523.99	0.989
524.20	0.982
524.40	0.995
524.61	1.000
524.82	0.974
525.03	0.979
525.23	0.981
525.44	0.965
525.65	0.964
525.86	0.988
526.06	0.957
526.27	0.957
526.48	0.968
526.69	0.949
526.90	0.955
527.10	0.992
527.31	0.945
527.52	0.938
527.73	0.929
527.93	0.940
528.14	0.944
528.35	0.934
528.56	0.935
528.76	0.927
528.97	0.919
529.18	0.910
529.39	0.909
529.59	0.912
529.80	0.946
530.01	0.918
530.22	0.916
530.42	0.884
530.63	0.903
530.84	0.880
531.05	0.893
531.25	0.895
531.46	0.887
531.67	0.865
531.88	0.885
532.08	0.876
532.29	0.872
532.50	0.865
532.70	0.859
532.91	0.849
533.12	0.852
533.33	0.878
533.53	0.847
533.74	0.846
533.95	0.852
534.15	0.839
534.36	0.840
534.57	0.822
534.78	0.822
534.98	0.831
535.19	0.800
535.40	0.801
535.60	0.821
535.81	0.800
536.02	0.803
536.23	0.795
536.43	0.798
536.64	0.785
536.85	0.793
537.05	0.803
537.26	0.780
537.47	0.783
537.67	0.772
537.88	0.768
538.09	0.775
538.30	0.765
538.50	0.755
538.71	0.766
538.92	0.753
539.12	0.749
539.33	0.743
539.54	0.744
539.74	0.748
539.95	0.739
540.16	0.735
540.36	0.725
540.57	0.725
540.78	0.717
540.98	0.716
541.19	0.715
541.40	0.701
541.60	0.712
541.81	0.707
542.02	0.708
542.22	0.696
542.43	0.691
542.64	0.685
542.84	0.685
543.05	0.676
543.26	0.676
543.46	0.678
543.67	0.677
543.88	0.672
544.08	0.661
544.29	0.655
544.50	0.656
544.70	0.657
544.91	0.648
545.12	0.648
545.32	0.644
545.53	0.648
545.74	0.636
545.94	0.633
546.15	0.630
546.35	0.628
546.56	0.624
546.77	0.619
546.97	0.617
547.18	0.608
547.39	0.609
547.59	0.607
547.80	0.602
548.01	0.608
548.21	0.603
548.42	0.594
548.62	0.593
548.83	0.591
549.04	0.588
549.24	0.581
549.45	0.580
549.65	0.575
549.86	0.571
550.07	0.571
550.27	0.569
550.48	0.576
550.69	0.562
550.89	0.562
551.10	0.556
551.30	0.555
551.51	0.555
551.72	0.544
551.92	0.546
552.13	0.545
552.33	0.545
552.54	0.540
552.75	0.533
552.95	0.534
553.16	0.529
553.36	0.528
553.57	0.527
553.78	0.524
553.98	0.525
554.19	0.516
554.39	0.513
554.60	0.516
554.80	0.516
555.01	0.509
555.22	0.510
555.42	0.507
555.63	0.499
555.83	0.502
556.04	0.495
556.25	0.498
556.45	0.489
556.66	0.486
556.86	0.490
557.07	0.487
557.27	0.485
557.48	0.480
557.68	0.478
557.89	0.479
558.10	0.476
558.30	0.473
558.51	0.470
558.71	0.468
558.92	0.464
559.12	0.466
559.33	0.469
559.54	0.463
559.74	0.458
559.95	0.456
560.15	0.455
560.36	0.453
560.56	0.448
560.77	0.448
560.97	0.448
561.18	0.442
561.38	0.441
561.59	0.444
561.79	0.440
562.00	0.437
562.21	0.434
562.41	0.433
562.62	0.432
562.82	0.430
563.03	0.426
563.23	0.425
563.44	0.424
563.64	0.421
563.85	0.422
564.05	0.416
564.26	0.415
564.46	0.414
564.67	0.414
564.87	0.409
565.08	0.407
565.28	0.406
565.49	0.407
565.69	0.405
565.90	0.401
566.10	0.404
566.31	0.397
566.51	0.399
566.72	0.400
566.92	0.394
567.13	0.393
567.33	0.392
567.54	0.391
567.74	0.390
567.95	0.386
568.15	0.386
568.36	0.386
568.56	0.384
568.77	0.378
568.97	0.376
569.18	0.376
569.38	0.374
569.59	0.375
569.79	0.372
570.00	0.370
570.20	0.368
570.41	0.366
570.61	0.364
570.82	0.365
571.02	0.361
571.23	0.363
571.43	0.358
571.64	0.357
571.84	0.356
572.05	0.355
572.25	0.354
572.45	0.352
572.66	0.350
572.86	0.348
573.07	0.347
573.27	0.348
573.48	0.347
573.68	0.343
573.89	0.342
574.09	0.343
574.30	0.341
574.50	0.339
574.70	0.339
574.91	0.336
575.11	0.337
575.32	0.336
575.52	0.332
575.73	0.331
575.93	0.331
576.14	0.330
576.34	0.328
576.54	0.327
576.75	0.325
576.95	0.324
577.16	0.323
577.36	0.321
577.57	0.321
577.77	0.319
577.97	0.316
578.18	0.318
578.38	0.315
578.59	0.313
578.79	0.312
579.00	0.313
579.20	0.311
579.40	0.311
579.61	0.310
579.81	0.308
580.02	0.306
580.22	0.305
580.42	0.304
580.63	0.304
580.83	0.302
581.04	0.301
581.24	0.300
581.45	0.299
581.65	0.298
581.85	0.296
582.06	0.294
582.26	0.295
582.47	0.293
582.67	0.292
582.87	0.292
583.08	0.290
583.28	0.289
583.48	0.287
583.69	0.284
583.89	0.285
584.10	0.286
584.30	0.284
584.50	0.282
584.71	0.282
584.91	0.282
585.12	0.279
585.32	0.280
585.52	0.277
585.73	0.276
585.93	0.276
586.13	0.275
586.34	0.274
586.54	0.273
586.75	0.272
586.95	0.270
587.15	0.270
587.36	0.269
587.56	0.268
587.76	0.267
587.97	0.266
588.17	0.264
588.37	0.264
588.58	0.264
588.78	0.261
588.98	0.261
589.19	0.260
589.39	0.258
589.60	0.260
589.80	0.257
590.00	0.256
590.21	0.256
590.41	0.254
590.61	0.254
590.82	0.254
591.02	0.253
591.22	0.251
591.43	0.253
591.63	0.251
591.83	0.250
592.04	0.248
592.24	0.249
592.44	0.246
592.65	0.245
592.85	0.245
593.05	0.246
593.26	0.244
593.46	0.243
593.66	0.243
593.86	0.242
594.07	0.240
594.27	0.240
594.47	0.240
594.68	0.239
594.88	0.239
595.08	0.239
595.29	0.239
595.49	0.236
595.69	0.236
595.90	0.235
596.10	0.236
596.30	0.235
596.50	0.233
596.71	0.233
596.91	0.232
597.11	0.232
597.32	0.231
597.52	0.230
597.72	0.229
597.93	0.228
598.13	0.227
598.33	0.227
598.53	0.226
598.74	0.226
598.94	0.225
599.14	0.224
599.35	0.224
599.55	0.224
599.75	0.223
599.95	0.223
600.16	0.223
600.36	0.221
600.56	0.221
600.76	0.220
600.97	0.219
601.17	0.218
601.37	0.218
601.58	0.217
601.78	0.216
601.98	0.215
602.18	0.213
602.39	0.214
602.59	0.214
602.79	0.213
602.99	0.212
603.20	0.211
603.40	0.211
603.60	0.211
603.80	0.210
604.01	0.210
604.21	0.209
604.41	0.209
604.61	0.208
604.82	0.207
605.02	0.207
605.22	0.207
605.42	0.207
605.62	0.206
605.83	0.205
606.03	0.205
606.23	0.205
606.43	0.205
606.64	0.204
606.84	0.204
607.04	0.203
607.24	0.203
607.45	0.203
607.65	0.201
607.85	0.202
608.05	0.201
608.25	0.200
608.46	0.200
608.66	0.200
608.86	0.199
609.06	0.198
609.26	0.197
609.47	0.197
609.67	0.196
609.87	0.197
610.07	0.196
610.28	0.195
610.48	0.195
610.68	0.195
610.88	0.194
611.08	0.194
611.29	0.193
611.49	0.193
611.69	0.193
611.89	0.191
612.09	0.191
612.29	0.191
612.50	0.190
612.70	0.190
612.90	0.189
613.10	0.189
613.30	0.188
613.51	0.188
613.71	0.187
613.91	0.191
614.11	0.187
614.31	0.187
614.51	0.187
614.72	0.186
614.92	0.185
615.12	0.185
615.32	0.185
615.52	0.185
615.72	0.185
615.93	0.185
616.13	0.184
616.33	0.184
616.53	0.183
616.73	0.184
616.93	0.182
617.14	0.183
617.34	0.182
617.54	0.182
617.74	0.181
617.94	0.180
618.14	0.180
618.34	0.179
618.55	0.179
618.75	0.179
618.95	0.179
619.15	0.178
619.35	0.178
619.55	0.177
619.75	0.178
619.96	0.177
620.16	0.177
620.36	0.176
620.56	0.176
620.76	0.176
620.96	0.175
621.16	0.176
621.36	0.176
621.57	0.176
621.77	0.176
621.97	0.175
622.17	0.175
622.37	0.175
622.57	0.175
622.77	0.174
622.97	0.173
623.18	0.173
623.38	0.173
623.58	0.172
623.78	0.172
623.98	0.171
624.18	0.171
624.38	0.171
624.58	0.171
624.78	0.171
624.98	0.171
625.19	0.171
625.39	0.170
625.59	0.170
625.79	0.170
625.99	0.170
626.19	0.169
626.39	0.169
626.59	0.169
626.79	0.169
626.99	0.169
627.19	0.168
627.40	0.169
627.60	0.168
627.80	0.168
628.00	0.168
628.20	0.168
628.40	0.167
628.60	0.167
628.80	0.167
629.00	0.167
629.20	0.166
629.40	0.166
629.60	0.165
629.80	0.165
630.00	0.165
630.20	0.164
630.41	0.164
630.61	0.164
630.81	0.163
631.01	0.164
631.21	0.162
631.41	0.163
631.61	0.164
631.81	0.163
632.01	0.163
632.21	0.163
632.41	0.162
632.61	0.161
632.81	0.162
633.01	0.162
633.21	0.162
633.41	0.162
633.61	0.161
633.81	0.160
634.01	0.159
634.21	0.160
634.41	0.159
634.61	0.159
634.81	0.159
635.01	0.158
635.22	0.158
635.42	0.158
635.62	0.158
635.82	0.158
636.02	0.158
636.22	0.157
636.42	0.157
636.62	0.157
636.82	0.157
637.02	0.157
637.22	0.157
637.42	0.156
637.62	0.155
637.82	0.155
638.02	0.155
638.22	0.155
638.42	0.155
638.62	0.154
638.82	0.154
639.02	0.154
639.22	0.154
639.42	0.153
639.62	0.153
639.82	0.153
640.02	0.153
640.22	0.153
640.42	0.152
640.62	0.152
640.82	0.152
641.02	0.151
641.22	0.152
641.42	0.150
641.61	0.151
641.81	0.151
642.01	0.150
642.21	0.150
642.41	0.151
642.61	0.150
642.81	0.150
643.01	0.150
643.21	0.150
643.41	0.150
643.61	0.149
643.81	0.149
644.01	0.148
644.21	0.148
644.41	0.148
644.61	0.147
644.81	0.147
645.01	0.147
645.21	0.147
645.41	0.146
645.61	0.146
645.81	0.146
646.01	0.145
646.21	0.145
646.40	0.145
646.60	0.145
646.80	0.146
647.00	0.145
647.20	0.144
647.40	0.145
647.60	0.145
647.80	0.144
648.00	0.144
648.20	0.144
648.40	0.144
648.60	0.144
648.80	0.144
649.00	0.144
649.20	0.144
649.39	0.144
649.59	0.143
649.79	0.142
649.99	0.142
650.19	0.142
650.39	0.142
650.59	0.141
650.79	0.141
650.99	0.140
651.19	0.140
651.39	0.140
651.58	0.139
651.78	0.139
651.98	0.139
652.18	0.139
652.38	0.138
652.58	0.138
652.78	0.138
652.98	0.138
653.18	0.138
653.38	0.138
653.57	0.138
653.77	0.138
653.97	0.137
654.17	0.137
654.37	0.137
654.57	0.137
654.77	0.137
654.97	0.137
655.16	0.137
655.36	0.136
655.56	0.136
655.76	0.135
655.96	0.136
656.16	0.135
656.36	0.135
656.56	0.134
656.75	0.134
656.95	0.134
657.15	0.134
657.35	0.134
657.55	0.134
657.75	0.134
657.95	0.134
658.14	0.133
658.34	0.134
658.54	0.133
658.74	0.133
658.94	0.132
659.14	0.132
659.34	0.132
659.53	0.131
659.73	0.131
659.93	0.130
660.13	0.130
660.33	0.130
660.53	0.130
660.72	0.130
660.92	0.130
661.12	0.129
661.32	0.129
661.52	0.129
661.72	0.129
661.91	0.129
662.11	0.129
662.31	0.129
662.51	0.129
662.71	0.128
662.90	0.128
663.10	0.127
663.30	0.127
663.50	0.127
663.70	0.127
663.90	0.127
664.09	0.126
664.29	0.126
664.49	0.125
664.69	0.125
664.89	0.125
665.08	0.125
665.28	0.125
665.48	0.125
665.68	0.124
665.88	0.124
666.07	0.123
666.27	0.123
666.47	0.123
666.67	0.123
666.87	0.123
667.06	0.123
667.26	0.122
667.46	0.122
667.66	0.122
667.85	0.122
668.05	0.123
668.25	0.123
668.45	0.123
668.65	0.123
668.84	0.123
669.04	0.123
669.24	0.122
669.44	0.122
669.63	0.122
669.83	0.121
670.03	0.120
670.23	0.120
670.42	0.119
670.62	0.119
670.82	0.119
671.02	0.118
671.22	0.118
671.41	0.117
671.61	0.118
671.81	0.118
672.01	0.118
672.20	0.118
672.40	0.118
672.60	0.117
672.80	0.117
672.99	0.117
673.19	0.117
673.39	0.117
673.58	0.117
673.78	0.117
673.98	0.116
674.18	0.116
674.37	0.115
674.57	0.115
674.77	0.115
674.97	0.115
675.16	0.115
675.36	0.115
675.56	0.114
675.75	0.114
675.95	0.114
676.15	0.114
676.35	0.114
676.54	0.114
676.74	0.114
676.94	0.114
677.13	0.113
677.33	0.113
677.53	0.113
677.73	0.112
677.92	0.112
678.12	0.112
678.32	0.111
678.51	0.111
678.71	0.111
678.91	0.111
679.11	0.110
679.30	0.111
679.50	0.110
679.70	0.110
679.89	0.110
680.09	0.110
680.29	0.110
680.48	0.110
680.68	0.109
680.88	0.109
681.07	0.109
681.27	0.109
681.47	0.109
681.66	0.109
681.86	0.108
682.06	0.108
682.25	0.108
682.45	0.107
682.65	0.107
682.84	0.107
683.04	0.107
683.24	0.107
683.43	0.107
683.63	0.107
683.83	0.107
684.02	0.107
684.22	0.106
684.42	0.106
684.61	0.107
684.81	0.106
685.01	0.106
685.20	0.105
685.40	0.106
685.60	0.106
685.79	0.105
685.99	0.105
686.19	0.105
686.38	0.104
686.58	0.105
686.77	0.104
686.97	0.104
687.17	0.104
687.36	0.104
687.56	0.103
687.76	0.103
687.95	0.103
688.15	0.103
688.34	0.103
688.54	0.102
688.74	0.102
688.93	0.101
689.13	0.101
689.33	0.102
689.52	0.101
689.72	0.102
689.91	0.101
690.11	0.101
690.31	0.100
690.50	0.101
690.70	0.101
690.89	0.101
691.09	0.101
691.29	0.101
691.48	0.100
691.68	0.100
691.87	0.100
692.07	0.101
692.27	0.100
692.46	0.100
692.66	0.100
692.85	0.100
693.05	0.100
693.25	0.100
693.44	0.099
693.64	0.099
693.83	0.099
694.03	0.099
694.22	0.098
694.42	0.098
694.62	0.098
694.81	0.098
695.01	0.099
695.20	0.098
695.40	0.098
695.59	0.098
695.79	0.097
695.99	0.098
696.18	0.098
696.38	0.097
696.57	0.097
696.77	0.097
696.96	0.097
697.16	0.097
697.36	0.097
697.55	0.097
697.75	0.097
697.94	0.096
698.14	0.096
698.33	0.096
698.53	0.096
698.72	0.096
698.92	0.096
699.11	0.096
699.31	0.095
699.51	0.095
699.70	0.094
699.90	0.095
700.09	0.095
700.29	0.094
700.48	0.094
700.68	0.094
700.87	0.094
701.07	0.094
701.26	0.093
701.46	0.093
701.65	0.094
701.85	0.094
702.04	0.093
702.24	0.093
702.43	0.093
702.63	0.093
702.82	0.093
703.02	0.093
703.21	0.093
703.41	0.092
703.60	0.092
703.80	0.092
703.99	0.091
704.19	0.091
704.38	0.091
704.58	0.090
704.77	0.090
704.97	0.091
705.16	0.090
705.36	0.090
705.55	0.090
705.75	0.090
705.94	0.090
706.14	0.090
706.33	0.090
706.53	0.091
706.72	0.091
706.92	0.091
707.11	0.091
707.31	0.090
707.50	0.090
707.70	0.090
707.89	0.090
708.09	0.090
708.28	0.090
708.48	0.090
708.67	0.090
708.86	0.090
709.06	0.090
709.25	0.089
709.45	0.090
709.64	0.089
709.84	0.089
710.03	0.089
710.23	0.089
710.42	0.089
710.62	0.089
710.81	0.088
711.00	0.088
711.20	0.088
711.39	0.088
711.59	0.087
711.78	0.087
711.98	0.088
712.17	0.088
712.37	0.087
712.56	0.087
712.75	0.087
712.95	0.087
713.14	0.087
713.34	0.088
713.53	0.088
713.73	0.089
713.92	0.089
714.11	0.088
714.31	0.089
714.50	0.089
714.70	0.089
714.89	0.089
715.08	0.089
715.28	0.089
715.47	0.088
715.67	0.088
715.86	0.088
716.06	0.088
716.25	0.088
716.44	0.088
716.64	0.087
716.83	0.087
717.03	0.087
717.22	0.087
717.41	0.086
717.61	0.086
717.80	0.087
717.99	0.087
718.19	0.087
718.38	0.087
718.58	0.087
718.77	0.087
718.96	0.087
719.16	0.087
719.35	0.086
719.55	0.086
719.74	0.086
719.93	0.085
720.13	0.085
720.32	0.085
720.51	0.084
720.71	0.085
720.90	0.085
721.10	0.085
721.29	0.085
721.48	0.085
721.68	0.085
721.87	0.085
722.06	0.085
722.26	0.086
722.45	0.085
722.64	0.085
722.84	0.085
723.03	0.085
723.22	0.085
723.42	0.085
723.61	0.085
723.80	0.085
724.00	0.085
724.19	0.085
724.38	0.085
724.58	0.085
724.77	0.085
724.96	0.084
725.16	0.085
725.35	0.085
725.54	0.085
725.74	0.085
725.93	0.085
726.12	0.085
726.32	0.085
726.51	0.085
726.70	0.085
726.90	0.086
727.09	0.085
727.28	0.085
727.48	0.085
727.67	0.085
727.86	0.085
728.06	0.085
728.25	0.086
728.44	0.086
728.64	0.086
728.83	0.085
729.02	0.085
729.21	0.086
729.41	0.085
729.60	0.085
729.79	0.085
729.99	0.085
730.18	0.085
730.37	0.084
730.56	0.084
730.76	0.084
730.95	0.084
731.14	0.084
731.34	0.084
731.53	0.084
731.72	0.084
731.91	0.085
732.11	0.085
732.30	0.085
732.49	0.085
732.69	0.085
732.88	0.085
733.07	0.085
733.26	0.085
733.46	0.085
733.65	0.085
733.84	0.085
734.03	0.085
734.23	0.085
734.42	0.085
734.61	0.085
734.80	0.084
735.00	0.085
735.19	0.084
735.38	0.084
735.57	0.084
735.77	0.084
735.96	0.084
736.15	0.084
736.34	0.084
736.54	0.085
736.73	0.085
736.92	0.085
737.11	0.085
737.31	0.084
737.50	0.084
737.69	0.085
737.88	0.085
738.07	0.085
738.27	0.085
738.46	0.085
738.65	0.085
738.84	0.085
739.04	0.085
739.23	0.085
739.42	0.085
739.61	0.085
739.80	0.084
740.00	0.084
740.19	0.084
740.38	0.084
740.57	0.084
740.76	0.084
740.96	0.084
741.15	0.084
741.34	0.084
741.53	0.084
741.72	0.084
741.92	0.084
742.11	0.084
742.30	0.084
742.49	0.084
742.68	0.084
742.88	0.085
743.07	0.084
743.26	0.085
743.45	0.085
743.64	0.084
743.84	0.084
744.03	0.084
744.22	0.084
744.41	0.084
744.60	0.083
744.79	0.084
744.99	0.083
745.18	0.083
745.37	0.083
745.56	0.083
745.75	0.083
745.94	0.083
746.14	0.083
746.33	0.083
746.52	0.083
746.71	0.083
746.90	0.083
747.09	0.083
747.28	0.082
747.48	0.082
747.67	0.082
747.86	0.082
748.05	0.082
748.24	0.082
748.43	0.082
748.62	0.082
748.82	0.082
749.01	0.082
749.20	0.082
749.39	0.082
749.58	0.082
749.77	0.082
749.96	0.082
750.16	0.082
750.35	0.082
750.54	0.082
750.73	0.082
750.92	0.082
751.11	0.082
751.30	0.082
751.49	0.081
751.68	0.081
751.88	0.081
752.07	0.081
752.26	0.081
752.45	0.081
752.64	0.081
752.83	0.081
753.02	0.081
753.21	0.081
753.40	0.080
753.60	0.081
753.79	0.081
753.98	0.081
754.17	0.080
754.36	0.080
754.55	0.080
754.74	0.080
754.93	0.080
755.12	0.080
755.31	0.080
755.50	0.080
755.70	0.080
755.89	0.079
756.08	0.079
756.27	0.079
756.46	0.079
756.65	0.079
756.84	0.079
757.03	0.079
757.22	0.078
757.41	0.078
757.60	0.078
757.79	0.079
757.98	0.079
758.17	0.079
758.36	0.079
758.56	0.079
758.75	0.079
758.94	0.079
759.13	0.079
759.32	0.079
759.51	0.079
759.70	0.079
759.89	0.079
760.08	0.079
760.27	0.079
760.46	0.079
760.65	0.079
760.84	0.079
761.03	0.079
761.22	0.079
761.41	0.079
761.60	0.079
761.79	0.078
761.98	0.079
762.17	0.078
762.36	0.078
762.55	0.078
762.74	0.078
762.93	0.078
763.12	0.078
763.31	0.078
763.50	0.078
763.69	0.078
763.88	0.077
764.07	0.077
764.26	0.077
764.45	0.077
764.64	0.078
764.83	0.077
765.02	0.077
765.21	0.077
765.40	0.077
765.59	0.077
765.78	0.077
765.97	0.077
766.16	0.078
766.35	0.077
766.54	0.077
766.73	0.077
766.92	0.077
767.11	0.077
767.30	0.078
767.49	0.077
767.68	0.077
767.87	0.077
768.06	0.077
768.25	0.077
768.44	0.077
768.63	0.077
768.82	0.076
769.01	0.076
769.20	0.076
769.39	0.076
769.58	0.076
769.77	0.076
769.96	0.077
770.15	0.076
770.34	0.077
770.53	0.076
770.72	0.076
770.91	0.076
771.10	0.076
771.29	0.076
771.47	0.076
771.66	0.076
771.85	0.076
772.04	0.076
772.23	0.076
772.42	0.075
772.61	0.076
772.80	0.076
772.99	0.076
773.18	0.076
773.37	0.076
773.56	0.076
773.75	0.076
773.94	0.076
774.13	0.075
774.31	0.075
774.50	0.075
774.69	0.075
774.88	0.075
775.07	0.076
775.26	0.075
775.45	0.075
775.64	0.075
775.83	0.075
776.02	0.075
776.21	0.075
776.40	0.075
776.58	0.075
776.77	0.075
776.96	0.075
777.15	0.075
777.34	0.075
777.53	0.075
777.72	0.075
777.91	0.075
778.10	0.075
778.28	0.075
778.47	0.075
778.66	0.075
778.85	0.074
779.04	0.074
779.23	0.074
779.42	0.074
779.61	0.074
779.79	0.074
779.98	0.074
780.17	0.074
780.36	0.074
780.55	0.073
780.74	0.073
780.93	0.073
781.12	0.073
781.30	0.073
781.49	0.073
781.68	0.073
781.87	0.073
782.06	0.073
782.25	0.073
782.44	0.073
782.62	0.073
782.81	0.074
783.00	0.074
783.19	0.074
783.38	0.074
783.57	0.074
783.75	0.073
783.94	0.073
784.13	0.073
784.32	0.073
784.51	0.073
784.70	0.073
784.88	0.073
785.07	0.073
785.26	0.073
785.45	0.072
785.64	0.072
785.83	0.072
786.01	0.072
786.20	0.072
786.39	0.072
786.58	0.072
786.77	0.072
786.95	0.072
787.14	0.072
787.33	0.072
787.52	0.072
787.71	0.072
787.90	0.072
788.08	0.072
788.27	0.071
788.46	0.072
788.65	0.072
788.84	0.072
789.02	0.072
789.21	0.072
789.40	0.072
789.59	0.072
789.77	0.072
789.96	0.072
790.15	0.072
790.34	0.072
790.53	0.072
790.71	0.072
790.90	0.072
791.09	0.071
791.28	0.071
791.46	0.072
791.65	0.071
791.84	0.071
792.03	0.071
792.22	0.071
792.40	0.071
792.59	0.071
792.78	0.071
792.97	0.072
793.15	0.072
793.34	0.072
793.53	0.072
793.72	0.071
793.90	0.071
794.09	0.072
794.28	0.072
794.47	0.072
794.65	0.072
794.84	0.071
795.03	0.071
795.22	0.071
795.40	0.071
795.59	0.071
795.78	0.071
795.97	0.071
796.15	0.071
796.34	0.071
796.53	0.071
796.71	0.071
796.90	0.072
797.09	0.072
797.28	0.071
797.46	0.071
797.65	0.071
797.84	0.071
798.02	0.071
798.21	0.070
798.40	0.070
798.59	0.070
798.77	0.070
798.96	0.070
799.15	0.070
799.33	0.070
799.52	0.069
799.71	0.069
799.90	0.070
800.08	0.070
800.27	0.069
800.46	0.069
800.64	0.069
800.83	0.069
801.02	0.069
801.20	0.070
801.39	0.069
801.58	0.070
801.76	0.069
801.95	0.069
802.14	0.069
802.32	0.070
802.51	0.070
802.70	0.069
802.88	0.069
803.07	0.069
803.26	0.069
803.44	0.069
803.63	0.069
803.82	0.069
804.00	0.069
804.19	0.070
804.38	0.070
804.56	0.070
804.75	0.069
804.94	0.070
805.12	0.070
805.31	0.070
805.50	0.070
805.68	0.070
805.87	0.070
806.06	0.070
806.24	0.069
806.43	0.069
806.62	0.070
806.80	0.070
806.99	0.069
807.17	0.069
807.36	0.070
807.55	0.070
807.73	0.069
807.92	0.069
808.11	0.069
808.29	0.069
808.48	0.069
808.66	0.069
808.85	0.069
809.04	0.069
809.22	0.069
809.41	0.069
809.59	0.068
809.78	0.069
809.97	0.068
810.15	0.068
810.34	0.069
810.53	0.069
810.71	0.068
810.90	0.069
811.08	0.069
811.27	0.069
811.45	0.069
811.64	0.069
811.83	0.069
812.01	0.069
812.20	0.069
812.38	0.069
812.57	0.069
812.76	0.069
812.94	0.069
813.13	0.069
813.31	0.068
813.50	0.068
813.68	0.068
813.87	0.068
814.06	0.068
814.24	0.068
814.43	0.068
814.61	0.068
814.80	0.068
814.98	0.068
815.17	0.068
815.36	0.069
815.54	0.069
815.73	0.068
815.91	0.069
816.10	0.069
816.28	0.069
816.47	0.068
816.65	0.068
816.84	0.068
817.03	0.069
817.21	0.069
817.40	0.069
817.58	0.069
817.77	0.069
817.95	0.069
818.14	0.069
818.32	0.069
818.51	0.069
818.69	0.069
818.88	0.069
819.06	0.069
819.25	0.069
819.43	0.068
819.62	0.069
819.80	0.068
819.99	0.069
820.18	0.069
820.36	0.069
820.55	0.069
820.73	0.069
820.92	0.069
821.10	0.069
821.29	0.069
821.47	0.069
821.66	0.069
821.84	0.069
822.03	0.069
822.21	0.069
822.40	0.068
822.58	0.068
822.77	0.068
822.95	0.068
823.14	0.068
823.32	0.069
823.50	0.069
823.69	0.069
823.87	0.069
824.06	0.069
824.24	0.069
824.43	0.069
824.61	0.069
824.80	0.069
824.98	0.070
825.17	0.070
825.35	0.069
825.54	0.069
825.72	0.069
825.91	0.069
826.09	0.069
826.28	0.069
826.46	0.070
826.64	0.070
826.83	0.070
827.01	0.070
827.20	0.071
827.38	0.071
827.57	0.071
827.75	0.071
827.94	0.071
828.12	0.071
828.31	0.072
828.49	0.071
828.67	0.072
828.86	0.072
829.04	0.072
829.23	0.072
829.41	0.072
829.60	0.072
829.78	0.072
829.96	0.073
830.15	0.073
830.33	0.073
830.52	0.073
830.70	0.073
830.88	0.073
831.07	0.073
831.25	0.073
831.44	0.073
831.62	0.073
831.81	0.073
831.99	0.073
832.17	0.073
832.36	0.073
832.54	0.073
832.73	0.073
832.91	0.073
833.09	0.073
833.28	0.073
833.46	0.074
833.65	0.074
833.83	0.074
834.01	0.074
834.20	0.074
834.38	0.074
834.56	0.074
834.75	0.074
834.93	0.075
835.12	0.075
835.30	0.075
835.48	0.075
835.67	0.075
835.85	0.075
836.03	0.075
836.22	0.074
836.40	0.075
836.59	0.075
836.77	0.075
836.95	0.075
837.14	0.075
837.32	0.075
837.50	0.075
837.69	0.075
837.87	0.075
838.05	0.075
838.24	0.075
838.42	0.075
838.60	0.075
838.79	0.076
838.97	0.075
839.15	0.076
839.34	0.076
839.52	0.076
839.70	0.076
839.89	0.076
840.07	0.076
840.25	0.076
840.44	0.076
840.62	0.076
840.80	0.076
840.99	0.076
841.17	0.076
841.35	0.076
841.54	0.076
841.72	0.076
841.90	0.076
842.09	0.076
842.27	0.076
842.45	0.076
842.64	0.076
842.82	0.076
843.00	0.076
843.19	0.076
843.37	0.076
843.55	0.076
843.73	0.076
843.92	0.076
844.10	0.076
844.28	0.076
844.47	0.076
844.65	0.076
844.83	0.076
845.01	0.076
845.20	0.076
845.38	0.076
845.56	0.077
845.75	0.076
845.93	0.076
846.11	0.076
846.29	0.077
846.48	0.077
846.66	0.077
846.84	0.077
847.02	0.076
847.21	0.076
847.39	0.076
847.57	0.076
847.76	0.076
847.94	0.076
848.12	0.076
848.30	0.076
848.49	0.076
848.67	0.077
848.85	0.077
849.03	0.077
849.22	0.077
849.40	0.078
849.58	0.078
849.76	0.078
849.95	0.078
850.13	0.079
850.31	0.079
850.49	0.079
850.67	0.079
850.86	0.078
851.04	0.078
851.22	0.078
851.40	0.077
851.59	0.077
851.77	0.077
851.95	0.077
852.13	0.077
852.31	0.077
852.50	0.077
852.68	0.077
852.86	0.077
853.04	0.077
853.23	0.077
853.41	0.077
853.59	0.077
853.77	0.077
853.95	0.077
854.14	0.077
854.32	0.077
854.50	0.077
854.68	0.077
854.86	0.077
855.04	0.077
855.23	0.077
855.41	0.078
855.59	0.078
855.77	0.078
855.95	0.078
856.14	0.078
856.32	0.078
856.50	0.078
856.68	0.079
856.86	0.079
857.04	0.078
857.23	0.078
857.41	0.078
857.59	0.078
857.77	0.078
857.95	0.077
858.13	0.077
858.32	0.077
858.50	0.078
858.68	0.077
858.86	0.078
859.04	0.078
859.22	0.078
859.41	0.078
859.59	0.078
859.77	0.078
859.95	0.077
860.13	0.078
860.31	0.078
860.49	0.077
860.68	0.077
860.86	0.078
861.04	0.077
861.22	0.078
861.40	0.077
861.58	0.078
861.76	0.078
861.94	0.078
862.13	0.078
862.31	0.078
862.49	0.078
862.67	0.078
862.85	0.078
863.03	0.078
863.21	0.078
863.39	0.078
863.57	0.078
863.76	0.078
863.94	0.078
864.12	0.078
864.30	0.078
864.48	0.078
864.66	0.078
864.84	0.079
865.02	0.079
865.20	0.079
865.38	0.079
865.57	0.079
865.75	0.079
865.93	0.079
866.11	0.079
866.29	0.079
866.47	0.080
866.65	0.080
866.83	0.080
867.01	0.079
867.19	0.079
867.37	0.079
867.55	0.079
867.73	0.079
867.92	0.079
868.10	0.079
868.28	0.079
868.46	0.079
868.64	0.078
868.82	0.079
869.00	0.079
869.18	0.079
869.36	0.079
869.54	0.079
869.72	0.080
869.90	0.080
870.08	0.080
870.26	0.080
870.44	0.080
870.62	0.080
870.80	0.080
870.98	0.080
871.16	0.080
871.34	0.080
871.53	0.080
871.71	0.080
871.89	0.080
872.07	0.080
872.25	0.079
872.43	0.080
872.61	0.080
872.79	0.080
872.97	0.080
873.15	0.080
873.33	0.080
873.51	0.080
873.69	0.080
873.87	0.081
874.05	0.081
874.23	0.081
874.41	0.080
874.59	0.081
874.77	0.081
874.95	0.080
875.13	0.080
875.31	0.080
875.49	0.080
875.67	0.080
875.85	0.080
876.03	0.080
876.21	0.081
876.39	0.081
876.57	0.081
876.75	0.081
876.93	0.081
877.11	0.081
877.29	0.081
877.47	0.081
877.65	0.082
877.82	0.082
878.00	0.082
878.18	0.082
878.36	0.082
878.54	0.082
878.72	0.081
878.90	0.081
879.08	0.082
879.26	0.082
879.44	0.082
879.62	0.081
879.80	0.081
879.98	0.081
880.16	0.081
880.34	0.081
880.52	0.081
880.70	0.081
880.88	0.081
881.06	0.081
881.24	0.081
881.42	0.081
881.59	0.081
881.77	0.081
881.95	0.081
882.13	0.082
882.31	0.082
882.49	0.082
882.67	0.082
882.85	0.082
883.03	0.082
883.21	0.082
883.39	0.082
883.57	0.083
883.75	0.083
883.92	0.082
884.10	0.082
884.28	0.082
884.46	0.083
884.64	0.083
884.82	0.083
885.00	0.082
885.18	0.083
885.36	0.083
885.54	0.083
885.71	0.083
885.89	0.083
886.07	0.083
886.25	0.083
886.43	0.083
886.61	0.083
886.79	0.083
886.97	0.083
887.15	0.083
887.32	0.083
887.50	0.083
887.68	0.083
887.86	0.083
888.04	0.083
888.22	0.083
888.40	0.083
888.57	0.083
888.75	0.083
888.93	0.083
889.11	0.083
889.29	0.083
889.47	0.083
889.65	0.083
889.82	0.084
890.00	0.084
890.18	0.084
890.36	0.084
890.54	0.084
890.72	0.084
890.90	0.084
891.07	0.085
891.25	0.084
891.43	0.084
891.61	0.085
891.79	0.085
891.97	0.085
892.14	0.085
892.32	0.085
892.50	0.085
892.68	0.085
892.86	0.085
893.03	0.085
893.21	0.086
893.39	0.086
893.57	0.086
893.75	0.086
893.93	0.085
894.10	0.085
894.28	0.085
894.46	0.085
894.64	0.085
894.82	0.085
894.99	0.085
895.17	0.085
895.35	0.085
895.53	0.085
895.71	0.084
895.88	0.085
896.06	0.085
896.24	0.086
896.42	0.085
896.59	0.086
896.77	0.086
896.95	0.086
897.13	0.086
897.31	0.087
897.48	0.086
897.66	0.087
897.84	0.086
898.02	0.086
898.19	0.086
898.37	0.086
898.55	0.086
898.73	0.087
898.91	0.086
899.08	0.086
899.26	0.086
899.44	0.087
899.62	0.087
899.79	0.087
899.97	0.087
900.15	0.087
900.33	0.087
900.50	0.087
900.68	0.087
900.86	0.087
901.04	0.087
901.21	0.087
901.39	0.087
901.57	0.087
901.74	0.087
901.92	0.087
902.10	0.087
902.28	0.087
902.45	0.088
902.63	0.088
902.81	0.087
902.99	0.088
903.16	0.087
903.34	0.088
903.52	0.088
903.69	0.088
903.87	0.088
904.05	0.088
904.22	0.088
904.40	0.088
904.58	0.088
904.76	0.088
904.93	0.088
905.11	0.088
905.29	0.088
905.46	0.088
905.64	0.088
905.82	0.089
905.99	0.089
906.17	0.088
906.35	0.089
906.53	0.089
906.70	0.089
906.88	0.089
907.06	0.089
907.23	0.089
907.41	0.089
907.59	0.089
907.76	0.089
907.94	0.089
908.12	0.089
908.29	0.089
908.47	0.090
908.65	0.090
908.82	0.089
909.00	0.089
909.18	0.090
909.35	0.090
909.53	0.090
909.71	0.090
909.88	0.090
910.06	0.090
910.23	0.090
910.41	0.090
910.59	0.090
910.76	0.090
910.94	0.090
911.12	0.090
911.29	0.090
911.47	0.090
911.65	0.090
911.82	0.090
912.00	0.091
912.17	0.091
912.35	0.091
912.53	0.092
912.70	0.092
912.88	0.092
913.06	0.093
913.23	0.093
913.41	0.092
913.58	0.093
913.76	0.093
913.94	0.093
914.11	0.093
914.29	0.093
914.46	0.093
914.64	0.093
914.82	0.093
914.99	0.093
915.17	0.093
915.34	0.093
915.52	0.093
915.70	0.093
915.87	0.093
916.05	0.093
916.22	0.093
916.40	0.093
916.57	0.093
916.75	0.094
916.93	0.094
917.10	0.094
917.28	0.094
917.45	0.094
917.63	0.094
917.80	0.094
917.98	0.094
918.16	0.094
918.33	0.095
918.51	0.095
918.68	0.095
918.86	0.095
919.03	0.095
919.21	0.096
919.39	0.096
919.56	0.097
919.74	0.097
919.91	0.097
920.09	0.097
920.26	0.097
920.44	0.097
920.61	0.097
920.79	0.098
920.96	0.098
921.14	0.098
921.31	0.098
921.49	0.098
921.67	0.098
921.84	0.099
922.02	0.099
922.19	0.099
922.37	0.099
922.54	0.100
922.72	0.100
922.89	0.100
923.07	0.100
923.24	0.100
923.42	0.100
923.59	0.101
923.77	0.101
923.94	0.101
924.12	0.102
924.29	0.102
924.47	0.102
924.64	0.103
924.82	0.103
924.99	0.103
925.17	0.104
925.34	0.104
925.52	0.104
925.69	0.105
925.87	0.105
926.04	0.105
926.22	0.106
926.39	0.106
926.57	0.106
926.74	0.106
926.91	0.107
927.09	0.107
927.26	0.107
927.44	0.107
927.61	0.107
927.79	0.108
927.96	0.108
928.14	0.109
928.31	0.109
928.49	0.109
928.66	0.110
928.84	0.110
929.01	0.110
929.18	0.111
929.36	0.111
929.53	0.112
929.71	0.112
929.88	0.112
930.06	0.113
930.23	0.113
930.41	0.113
930.58	0.114
930.75	0.115
930.93	0.115
931.10	0.115
931.28	0.116
931.45	0.116
931.63	0.116
931.80	0.117
931.97	0.117
932.15	0.118
932.32	0.118
932.50	0.118
932.67	0.119
932.84	0.120
933.02	0.121
933.19	0.121
933.37	0.121
933.54	0.122
933.71	0.122
933.89	0.123
934.06	0.123
934.24	0.124
934.41	0.124
934.58	0.125
934.76	0.125
934.93	0.126
935.11	0.126
935.28	0.126
935.45	0.127
935.63	0.127
935.80	0.128
935.98	0.128
936.15	0.129
936.32	0.129
936.50	0.129
936.67	0.129
936.84	0.129
937.02	0.131
937.19	0.132
937.36	0.132
937.54	0.132
937.71	0.134
937.89	0.133
938.06	0.134
938.23	0.135
938.41	0.136
938.58	0.136
938.75	0.137
938.93	0.137
939.10	0.137
939.27	0.137
939.45	0.138
939.62	0.138
939.79	0.139
939.97	0.139
940.14	0.140
940.31	0.141
940.49	0.141
940.66	0.141
940.83	0.142
941.01	0.143
941.18	0.144
941.35	0.145
941.53	0.146
941.70	0.146
941.87	0.147
942.05	0.147
942.22	0.148
942.39	0.149
942.57	0.150
942.74	0.151
942.91	0.151
943.08	0.151
943.26	0.151
943.43	0.152
943.60	0.152
943.78	0.154
943.95	0.154
944.12	0.154
944.29	0.155
944.47	0.155
944.64	0.156
944.81	0.157
944.99	0.158
945.16	0.159
945.33	0.159
945.50	0.160
945.68	0.161
945.85	0.162
946.02	0.163
946.20	0.164
946.37	0.166
946.54	0.166
946.71	0.167
946.89	0.167
947.06	0.168
947.23	0.169
947.40	0.170
947.58	0.170
947.75	0.172
947.92	0.172
948.09	0.173
948.27	0.174
948.44	0.175
948.61	0.176
948.78	0.177
948.96	0.179
949.13	0.179
949.30	0.180
949.47	0.181
949.65	0.182
949.82	0.184
949.99	0.184
950.16	0.187
950.33	0.188
950.51	0.189
950.68	0.191
950.85	0.191
951.02	0.193
951.20	0.194
951.37	0.195
951.54	0.196
951.71	0.197
951.88	0.199
952.06	0.199
952.23	0.199
952.40	0.201
952.57	0.202
952.74	0.204
952.92	0.204
953.09	0.206
953.26	0.207
953.43	0.208
953.60	0.209
953.77	0.210
953.95	0.211
954.12	0.213
954.29	0.214
954.46	0.217
954.63	0.218
954.81	0.219
954.98	0.219
955.15	0.222
955.32	0.223
955.49	0.223
955.66	0.225
955.84	0.226
956.01	0.226
956.18	0.228
956.35	0.229
956.52	0.229
956.69	0.231
956.87	0.232
957.04	0.232
957.21	0.235
957.38	0.235
957.55	0.236
957.72	0.237
957.89	0.238
958.07	0.238
958.24	0.241
958.41	0.242
958.58	0.242
958.75	0.243
958.92	0.244
959.09	0.244
959.26	0.245
959.44	0.245
959.61	0.246
959.78	0.247
959.95	0.249
960.12	0.248
960.29	0.251
960.46	0.250
960.63	0.250
960.81	0.250
960.98	0.251
961.15	0.251
961.32	0.253
961.49	0.252
961.66	0.254
961.83	0.254
962.00	0.254
962.17	0.255
962.34	0.254
962.52	0.256
962.69	0.256
962.86	0.256
963.03	0.256
963.20	0.257
963.37	0.256
963.54	0.256
963.71	0.256
963.88	0.256
964.05	0.257
964.22	0.259
964.39	0.257
964.56	0.257
964.74	0.258
964.91	0.258
965.08	0.259
965.25	0.259
965.42	0.260
965.59	0.261
965.76	0.261
965.93	0.262
966.10	0.260
966.27	0.262
966.44	0.261
966.61	0.263
966.78	0.262
966.95	0.261
967.12	0.262
967.29	0.264
967.46	0.263
967.63	0.262
967.80	0.263
967.97	0.263
968.14	0.263
968.32	0.264
968.49	0.264
968.66	0.263
968.83	0.264
969.00	0.264
969.17	0.264
969.34	0.266
969.51	0.266
969.68	0.264
969.85	0.265
970.02	0.265
970.19	0.265
970.36	0.265
970.53	0.265
970.70	0.264
970.87	0.264
971.04	0.264
971.21	0.264
971.38	0.265
971.55	0.265
971.72	0.265
971.89	0.266
972.06	0.265
972.23	0.265
972.40	0.265
972.57	0.264
972.74	0.264
972.91	0.265
973.07	0.264
973.24	0.264
973.41	0.264
973.58	0.262
973.75	0.275
973.92	0.263
974.09	0.262
974.26	0.262
974.43	0.261
974.60	0.262
974.77	0.263
974.94	0.262
975.11	0.263
975.28	0.264
975.45	0.262
975.62	0.264
975.79	0.266
975.96	0.264
976.13	0.264
976.30	0.265
976.47	0.264
976.64	0.264
976.80	0.265
976.97	0.264
977.14	0.263
977.31	0.263
977.48	0.264
977.65	0.263
977.82	0.262
977.99	0.264
978.16	0.263
978.33	0.263
978.50	0.262
978.67	0.262
978.83	0.262
979.00	0.263
979.17	0.262
979.34	0.261
979.51	0.261
979.68	0.262
979.85	0.261
980.02	0.262
980.19	0.260
980.36	0.261
980.52	0.262
980.69	0.260
980.86	0.260
981.03	0.260
981.20	0.259
981.37	0.260
981.54	0.260
981.71	0.259
981.88	0.259
982.04	0.259
982.21	0.258
982.38	0.259
982.55	0.258
982.72	0.257
982.89	0.258
983.06	0.257
983.22	0.256
983.39	0.256
983.56	0.256
983.73	0.255
983.90	0.254
984.07	0.255
984.24	0.254
984.40	0.254
984.57	0.252
984.74	0.255
984.91	0.255
985.08	0.253
985.25	0.252
985.41	0.253
985.58	0.253
985.75	0.255
985.92	0.254
986.09	0.252
986.26	0.253
986.42	0.252
986.59	0.250
986.76	0.251
986.93	0.252
987.10	0.252
987.27	0.249
987.43	0.248
987.60	0.249
987.77	0.250
987.94	0.249
988.11	0.250
988.27	0.250
988.44	0.250
988.61	0.248
988.78	0.246
988.95	0.247
989.11	0.248
989.28	0.246
989.45	0.245
989.62	0.245
989.79	0.245
989.95	0.244
990.12	0.245
990.29	0.245
990.46	0.244
990.62	0.242
990.79	0.242
990.96	0.243
991.13	0.244
991.30	0.242
991.46	0.242
991.63	0.241
991.80	0.240
991.97	0.239
992.13	0.240
992.30	0.241
992.47	0.239
992.64	0.238
992.80	0.238
992.97	0.239
993.14	0.236
993.31	0.233
993.47	0.236
993.64	0.234
993.81	0.235
993.98	0.235
994.14	0.233
994.31	0.232
994.48	0.234
994.64	0.234
994.81	0.233
994.98	0.233
995.15	0.231
995.31	0.231
995.48	0.230
995.65	0.233
995.82	0.230
995.98	0.230
996.15	0.231
996.32	0.233
996.48	0.231
996.65	0.230
996.82	0.228
996.99	0.229
997.15	0.229
997.32	0.229
997.49	0.226
997.65	0.227
997.82	0.226
997.99	0.224
998.15	0.225
998.32	0.226
998.49	0.225
998.65	0.225
998.82	0.224
998.99	0.221
999.15	0.222
999.32	0.222
999.49	0.221
999.65	0.222
999.82	0.219
999.99	0.219
1000.15	0.219
1000.32	0.220
1000.49	0.220
1000.65	0.218
1000.82	0.218
1000.99	0.218
1001.15	0.218
1001.32	0.217
1001.49	0.218
1001.65	0.218
1001.82	0.220
1001.99	0.217
1002.15	0.216
1002.32	0.216
1002.49	0.216
1002.65	0.215
1002.82	0.213
1002.99	0.213
1003.15	0.215
1003.32	0.213
1003.48	0.213
1003.65	0.212
1003.82	0.211
1003.98	0.208
1004.15	0.208
1004.32	0.209
1004.48	0.208
1004.65	0.210
1004.81	0.207
1004.98	0.206
1005.15	0.207
1005.31	0.207
1005.48	0.205
1005.64	0.205
1005.81	0.208
1005.98	0.205
1006.14	0.203
1006.31	0.204
1006.47	0.203
1006.64	0.201
1006.81	0.201
1006.97	0.201
1007.14	0.201
1007.30	0.202
1007.47	0.201
1007.63	0.199
1007.80	0.197
1007.97	0.197
1008.13	0.197
1008.30	0.197
1008.46	0.198
1008.63	0.197
1008.79	0.197
1008.96	0.197
1009.13	0.198
1009.29	0.196
1009.46	0.196
1009.62	0.196
1009.79	0.194
1009.95	0.194
1010.12	0.195
1010.28	0.195
1010.45	0.194
1010.62	0.194
1010.78	0.192
1010.95	0.191
1011.11	0.192
1011.28	0.192
1011.44	0.194
1011.61	0.192
1011.77	0.191
1011.94	0.191
1012.10	0.190
1012.27	0.190
1012.43	0.190
1012.60	0.189
1012.76	0.190
1012.93	0.189
1013.10	0.187
1013.26	0.185
1013.43	0.186
1013.59	0.194
1013.76	0.186
1013.92	0.185
1014.09	0.183
1014.25	0.184
1014.42	0.185
1014.58	0.184
1014.75	0.186
1014.91	0.184
1015.08	0.186
1015.24	0.182
1015.41	0.184
1015.57	0.184
1015.73	0.183
1015.90	0.181
1016.06	0.184
1016.23	0.181
1016.39	0.181
1016.56	0.182
1016.72	0.181
1016.89	0.181
1017.05	0.182
1017.22	0.178
1017.38	0.178
1017.55	0.177
1017.71	0.178
1017.88	0.177
1018.04	0.178
1018.21	0.176
1018.37	0.176
1018.53	0.176
1018.70	0.174
1018.86	0.174
1019.03	0.176
1019.19	0.174
1019.36	0.175
1019.52	0.176
1019.69	0.176
1019.85	0.174
1020.01	0.174
1020.18	0.173
1020.34	0.173
1020.51	0.173
1020.67	0.174
1020.84	0.172
1021.00	0.172
1021.16	0.169
1021.33	0.171
1021.49	0.168
1021.66	0.170
1021.82	0.168
1021.98	0.167
1022.15	0.167
1022.31	0.166
1022.48	0.165
1022.64	0.167
1022.80	0.165
1022.97	0.164
1023.13	0.164
1023.30	0.165
1023.46	0.165
1023.62	0.162
1023.79	0.164
1023.95	0.164
1024.12	0.164
1024.28	0.163
1024.44	0.162
1024.61	0.161
1024.77	0.160
1024.93	0.159
1025.10	0.159
1025.26	0.157
1025.43	0.159
1025.59	0.155
1025.75	0.159
1025.92	0.159
1026.08	0.158
1026.24	0.158
1026.41	0.160
1026.57	0.158
1026.73	0.156
1026.90	0.158
1027.06	0.155
1027.23	0.155
1027.39	0.155
1027.55	0.155
1027.72	0.153
1027.88	0.152
1028.04	0.152
1028.21	0.153
1028.37	0.147
1028.53	0.152
1028.70	0.151
1028.86	0.150
1029.02	0.151
1029.19	0.152
1029.35	0.150
1029.51	0.149
1029.67	0.149
1029.84	0.151
1030.00	0.146
1030.16	0.148
1030.33	0.151
1030.49	0.148
1030.65	0.145
1030.82	0.161
1030.98	0.148
1031.14	0.148
1031.31	0.148
1031.47	0.145
1031.63	0.148
1031.79	0.146
1031.96	0.147
1032.12	0.149
1032.28	0.146
1032.45	0.151
1032.61	0.148
1032.77	0.147
1032.93	0.144
1033.10	0.146
1033.26	0.147
1033.42	0.145
1033.58	0.144
1033.75	0.145
1033.91	0.143
1034.07	0.145
1034.24	0.143
1034.40	0.141
1034.56	0.141
1034.72	0.142
1034.89	0.141
1035.05	0.140
1035.21	0.139
1035.37	0.140
1035.54	0.143
1035.70	0.141
1035.86	0.140
1036.02	0.142
1036.19	0.142
1036.35	0.139
1036.51	0.143
1036.67	0.140
1036.83	0.138
1037.00	0.139
1037.16	0.139
1037.32	0.139
1037.48	0.138
1037.65	0.142
1037.81	0.137
1037.97	0.137
1038.13	0.137
1038.29	0.136
1038.46	0.134
1038.62	0.139
1038.78	0.136
1038.94	0.131
1039.10	0.136
1039.27	0.132
1039.43	0.134
1039.59	0.135
1039.75	0.135
1039.91	0.134
1040.08	0.134
1040.24	0.137
1040.40	0.139
1040.56	0.137
1040.72	0.132
1040.89	0.135
1041.05	0.137
1041.21	0.135
1041.37	0.132
1041.53	0.137
1041.69	0.134
1041.86	0.132
1042.02	0.129
1042.18	0.129
1042.34	0.131
1042.50	0.135
1042.66	0.132
1042.83	0.130
1042.99	0.132
1043.15	0.127
1043.31	0.129
1043.47	0.133
1043.63	0.130
1043.79	0.130
1043.96	0.129
1044.12	0.133
1044.28	0.131
1044.44	0.132
1044.60	0.127
1044.76	0.125
1044.92	0.128
1045.09	0.130
1045.25	0.126
1045.41	0.128
1045.57	0.123
1045.73	0.124
1045.89	0.125
1046.05	0.128
1046.21	0.134
1046.38	0.127
1046.54	0.132
1046.70	0.135
1046.86	0.140
>>>>>End Processed Spectral Data<<<<<
