SpectraSuite Data File
++++++++++++++++++++++++++++++++++++
Date: Mon May 20 12:12:35 CDT 2013
User: Students
Dark Spectrum Present: Yes
Reference Spectrum Present: Yes
Number of Sampled Component Spectra: 1
Spectrometers: USB4H00887
Integration Time (usec): 60000 (USB4H00887)
Spectra Averaged: 5 (USB4H00887)
Boxcar Smoothing: 5 (USB4H00887)
Correct for Electrical Dark: No (USB4H00887)
Strobe/Lamp Enabled: No (USB4H00887)
Correct for Detector Non-linearity: No (USB4H00887)
Correct for Stray Light: No (USB4H00887)
Number of Pixels in Processed Spectrum: 3648
>>>>>Begin Processed Spectral Data<<<<<
345.83	-0.107
346.05	-0.107
346.26	-0.107
346.48	-0.000
346.70	-0.000
346.92	0.071
347.14	0.067
347.35	0.053
347.57	0.291
347.79	-0.204
348.01	-0.158
348.23	-0.264
348.44	-0.000
348.66	0.155
348.88	-0.274
349.10	-0.096
349.32	0.032
349.53	0.034
349.75	0.033
349.97	0.035
350.19	0.031
350.41	0.011
350.62	0.037
350.84	-0.033
351.06	-0.038
351.28	-0.062
351.50	-0.216
351.71	-0.162
351.93	-0.135
352.15	-0.023
352.37	-0.114
352.58	-0.021
352.80	-0.006
353.02	0.022
353.24	0.072
353.46	0.282
353.67	-0.162
353.89	0.046
354.11	0.037
354.33	0.036
354.54	0.024
354.76	0.090
354.98	0.164
355.20	0.177
355.41	0.071
355.63	0.113
355.85	0.074
356.07	0.425
356.28	0.065
356.50	0.117
356.72	0.043
356.94	0.199
357.15	0.187
357.37	-0.000
357.59	0.081
357.81	0.040
358.02	0.046
358.24	0.030
358.46	0.092
358.68	0.074
358.89	0.047
359.11	-0.000
359.33	0.015
359.55	-0.213
359.76	0.042
359.98	0.029
360.20	0.037
360.42	0.056
360.63	0.061
360.85	0.036
361.07	0.159
361.29	0.032
361.50	0.139
361.72	0.062
361.94	0.246
362.15	0.124
362.37	0.083
362.59	0.104
362.81	0.151
363.02	0.205
363.24	0.307
363.46	0.200
363.68	0.264
363.89	0.172
364.11	0.235
364.33	0.301
364.54	0.197
364.76	0.223
364.98	0.184
365.20	0.227
365.41	0.142
365.63	0.189
365.85	0.116
366.06	0.357
366.28	0.410
366.50	0.261
366.71	0.110
366.93	0.144
367.15	0.122
367.37	0.122
367.58	0.172
367.80	0.216
368.02	0.690
368.23	0.187
368.45	0.190
368.67	0.168
368.88	0.163
369.10	-0.000
369.32	0.148
369.53	0.100
369.75	0.161
369.97	0.419
370.19	0.254
370.40	0.093
370.62	0.279
370.84	0.110
371.05	0.462
371.27	0.148
371.49	0.172
371.70	0.238
371.92	0.404
372.14	0.159
372.35	0.174
372.57	0.197
372.79	0.739
373.00	0.125
373.22	0.199
373.44	0.223
373.65	0.143
373.87	0.188
374.09	0.862
374.30	0.127
374.52	0.159
374.74	0.088
374.95	0.281
375.17	0.084
375.39	-0.000
375.60	0.117
375.82	0.201
376.04	0.080
376.25	0.089
376.47	0.051
376.68	0.111
376.90	0.055
377.12	0.153
377.33	0.119
377.55	0.284
377.77	0.128
377.98	0.189
378.20	0.113
378.42	0.157
378.63	0.219
378.85	-0.000
379.07	0.158
379.28	0.646
379.50	0.324
379.71	0.166
379.93	0.128
380.15	0.175
380.36	0.259
380.58	0.180
380.80	0.434
381.01	0.131
381.23	0.117
381.44	0.120
381.66	0.148
381.88	0.187
382.09	-0.084
382.31	0.123
382.53	0.125
382.74	0.748
382.96	0.199
383.17	0.164
383.39	0.215
383.61	0.269
383.82	0.195
384.04	0.220
384.25	0.262
384.47	0.241
384.69	0.243
384.90	0.247
385.12	0.504
385.33	0.321
385.55	0.242
385.77	0.388
385.98	0.197
386.20	0.283
386.41	0.258
386.63	0.313
386.85	0.262
387.06	0.324
387.28	0.498
387.49	0.322
387.71	0.232
387.93	0.214
388.14	0.768
388.36	0.261
388.57	0.231
388.79	0.259
389.01	-0.000
389.22	0.305
389.44	0.263
389.65	0.217
389.87	0.210
390.08	0.234
390.30	0.183
390.52	0.375
390.73	0.382
390.95	0.270
391.16	0.265
391.38	-0.000
391.59	0.328
391.81	0.262
392.03	0.248
392.24	0.295
392.46	0.263
392.67	0.233
392.89	0.317
393.10	0.513
393.32	0.333
393.53	0.374
393.75	0.235
393.97	0.258
394.18	0.382
394.40	0.315
394.61	0.318
394.83	0.255
395.04	0.300
395.26	0.204
395.47	0.308
395.69	0.258
395.91	0.285
396.12	0.328
396.34	0.342
396.55	0.211
396.77	0.330
396.98	-0.000
397.20	0.458
397.41	0.526
397.63	0.343
397.84	0.309
398.06	0.285
398.27	0.286
398.49	0.332
398.71	0.239
398.92	0.297
399.14	0.384
399.35	0.468
399.57	0.448
399.78	0.298
400.00	0.296
400.21	0.378
400.43	0.309
400.64	0.321
400.86	0.779
401.07	0.403
401.29	0.331
401.50	0.353
401.72	0.488
401.93	0.305
402.15	0.381
402.36	0.357
402.58	0.285
402.79	0.301
403.01	0.483
403.22	0.381
403.44	0.261
403.65	0.430
403.87	0.479
404.08	0.393
404.30	0.678
404.51	0.340
404.73	0.422
404.94	0.365
405.16	0.393
405.37	0.309
405.59	0.599
405.80	0.343
406.02	0.418
406.23	0.435
406.45	0.487
406.66	0.520
406.88	0.336
407.09	0.508
407.31	0.404
407.52	0.497
407.74	0.398
407.95	0.485
408.17	0.464
408.38	0.494
408.60	0.306
408.81	0.516
409.03	0.380
409.24	0.381
409.45	0.440
409.67	0.415
409.88	0.364
410.10	0.459
410.31	0.377
410.53	0.360
410.74	0.515
410.96	0.515
411.17	0.548
411.39	0.414
411.60	0.381
411.82	0.434
412.03	0.414
412.24	0.407
412.46	0.597
412.67	0.496
412.89	0.492
413.10	0.493
413.32	0.441
413.53	0.506
413.75	0.521
413.96	0.391
414.17	0.537
414.39	0.567
414.60	0.467
414.82	0.639
415.03	0.467
415.25	0.519
415.46	0.340
415.68	0.484
415.89	0.980
416.10	0.760
416.32	0.410
416.53	0.492
416.75	0.447
416.96	0.547
417.18	0.464
417.39	0.447
417.60	0.446
417.82	0.689
418.03	0.579
418.25	0.470
418.46	0.489
418.67	0.429
418.89	0.462
419.10	0.492
419.32	0.652
419.53	0.614
419.75	0.510
419.96	0.451
420.17	0.554
420.39	0.527
420.60	0.543
420.82	0.687
421.03	0.553
421.24	0.459
421.46	0.495
421.67	0.531
421.89	0.451
422.10	0.487
422.31	0.478
422.53	0.671
422.74	0.502
422.96	0.404
423.17	0.444
423.38	0.549
423.60	0.469
423.81	0.597
424.03	0.521
424.24	0.588
424.45	0.587
424.67	0.591
424.88	0.527
425.09	0.568
425.31	0.515
425.52	0.545
425.74	0.612
425.95	0.673
426.16	0.511
426.38	0.589
426.59	0.532
426.80	0.623
427.02	0.656
427.23	0.511
427.45	0.674
427.66	0.672
427.87	0.515
428.09	0.547
428.30	0.607
428.51	0.596
428.73	0.668
428.94	0.605
429.15	0.579
429.37	0.552
429.58	0.588
429.79	0.538
430.01	0.645
430.22	0.643
430.44	0.666
430.65	0.582
430.86	0.635
431.08	0.615
431.29	0.549
431.50	0.662
431.72	0.902
431.93	0.709
432.14	0.528
432.36	0.574
432.57	0.584
432.78	0.601
433.00	0.560
433.21	0.554
433.42	0.693
433.64	0.603
433.85	0.678
434.06	0.549
434.28	0.581
434.49	0.591
434.70	0.610
434.92	0.624
435.13	0.671
435.34	0.680
435.56	0.638
435.77	0.629
435.98	0.833
436.20	0.695
436.41	0.595
436.62	0.576
436.83	0.666
437.05	0.769
437.26	0.666
437.47	0.586
437.69	0.640
437.90	0.590
438.11	0.587
438.33	0.633
438.54	0.645
438.75	0.831
438.97	0.822
439.18	0.608
439.39	0.637
439.60	0.691
439.82	0.647
440.03	0.595
440.24	0.874
440.46	0.645
440.67	0.619
440.88	0.671
441.10	0.620
441.31	0.627
441.52	0.680
441.73	0.761
441.95	0.675
442.16	0.634
442.37	1.044
442.58	0.621
442.80	0.611
443.01	0.812
443.22	0.734
443.44	0.624
443.65	0.740
443.86	0.734
444.07	0.791
444.29	0.674
444.50	0.857
444.71	0.640
444.92	0.603
445.14	0.760
445.35	0.803
445.56	0.629
445.78	0.743
445.99	0.733
446.20	0.638
446.41	0.726
446.63	0.727
446.84	0.682
447.05	0.693
447.26	0.833
447.48	0.709
447.69	0.670
447.90	0.770
448.11	0.684
448.33	0.715
448.54	0.736
448.75	0.763
448.96	0.775
449.18	0.823
449.39	0.716
449.60	0.703
449.81	0.853
450.03	0.736
450.24	0.798
450.45	0.740
450.66	0.724
450.87	0.757
451.09	0.709
451.30	0.685
451.51	0.763
451.72	0.783
451.94	0.799
452.15	0.876
452.36	0.720
452.57	0.740
452.78	0.744
453.00	0.776
453.21	0.726
453.42	0.695
453.63	0.798
453.85	0.762
454.06	0.758
454.27	0.899
454.48	0.788
454.69	0.710
454.91	0.780
455.12	0.679
455.33	0.765
455.54	0.784
455.75	0.761
455.97	0.785
456.18	0.778
456.39	0.789
456.60	0.816
456.81	0.760
457.03	0.770
457.24	0.770
457.45	0.870
457.66	0.808
457.87	0.764
458.09	0.784
458.30	0.691
458.51	0.826
458.72	0.839
458.93	0.852
459.15	0.740
459.36	0.813
459.57	0.841
459.78	0.887
459.99	0.789
460.20	0.746
460.42	0.831
460.63	0.785
460.84	0.765
461.05	0.788
461.26	0.845
461.47	0.757
461.69	0.812
461.90	0.848
462.11	0.809
462.32	0.869
462.53	0.800
462.74	0.903
462.96	0.782
463.17	0.772
463.38	0.815
463.59	0.938
463.80	0.773
464.01	0.794
464.23	0.893
464.44	0.846
464.65	0.852
464.86	0.876
465.07	0.880
465.28	0.839
465.49	0.862
465.71	0.814
465.92	0.862
466.13	0.914
466.34	0.847
466.55	0.896
466.76	0.857
466.97	0.883
467.19	0.874
467.40	0.917
467.61	0.923
467.82	0.832
468.03	0.809
468.24	0.878
468.45	0.917
468.66	0.899
468.88	0.918
469.09	0.915
469.30	0.968
469.51	0.880
469.72	0.930
469.93	0.896
470.14	0.873
470.35	0.980
470.57	0.926
470.78	0.856
470.99	1.000
471.20	0.928
471.41	0.882
471.62	0.941
471.83	0.914
472.04	0.946
472.25	0.991
472.47	0.896
472.68	0.902
472.89	0.910
473.10	0.958
473.31	0.898
473.52	0.965
473.73	0.993
473.94	0.903
474.15	0.932
474.36	0.932
474.57	0.960
474.79	0.929
475.00	0.931
475.21	0.912
475.42	1.013
475.63	0.909
475.84	0.939
476.05	0.947
476.26	0.912
476.47	0.947
476.68	0.998
476.89	0.921
477.10	0.979
477.32	0.965
477.53	1.027
477.74	0.936
477.95	0.980
478.16	0.927
478.37	0.970
478.58	0.977
478.79	0.993
479.00	0.991
479.21	0.945
479.42	0.987
479.63	0.992
479.84	0.949
480.05	0.951
480.26	0.985
480.47	1.003
480.69	1.006
480.90	0.967
481.11	0.964
481.32	1.031
481.53	0.966
481.74	1.028
481.95	0.990
482.16	1.008
482.37	1.015
482.58	0.974
482.79	0.992
483.00	1.025
483.21	0.964
483.42	0.932
483.63	1.016
483.84	1.044
484.05	1.032
484.26	0.998
484.47	0.997
484.68	0.954
484.89	0.963
485.10	1.016
485.31	0.990
485.52	0.997
485.73	1.001
485.94	1.042
486.15	0.987
486.37	1.002
486.58	0.965
486.79	0.981
487.00	1.040
487.21	1.026
487.42	1.018
487.63	1.024
487.84	1.043
488.05	1.035
488.26	0.991
488.47	0.994
488.68	1.027
488.89	0.998
489.10	0.992
489.31	0.999
489.52	1.035
489.73	1.004
489.94	1.043
490.15	0.997
490.36	1.042
490.57	0.992
490.78	0.977
490.99	1.017
491.20	1.102
491.41	1.054
491.62	0.992
491.83	1.024
492.04	1.020
492.25	1.030
492.45	1.031
492.66	1.054
492.87	1.043
493.08	1.031
493.29	1.012
493.50	1.002
493.71	1.011
493.92	1.006
494.13	1.022
494.34	1.043
494.55	1.050
494.76	1.085
494.97	1.079
495.18	1.039
495.39	1.055
495.60	1.002
495.81	1.004
496.02	1.027
496.23	1.023
496.44	1.059
496.65	1.050
496.86	1.054
497.07	1.078
497.28	1.072
497.49	1.018
497.70	1.019
497.91	1.041
498.12	1.021
498.32	1.065
498.53	1.046
498.74	1.034
498.95	1.060
499.16	1.013
499.37	1.020
499.58	1.031
499.79	1.062
500.00	1.056
500.21	1.085
500.42	1.026
500.63	1.026
500.84	1.048
501.05	1.025
501.26	1.054
501.46	1.099
501.67	1.057
501.88	1.060
502.09	1.034
502.30	1.043
502.51	1.098
502.72	1.050
502.93	1.071
503.14	1.097
503.35	1.063
503.56	1.058
503.77	1.092
503.97	1.067
504.18	1.063
504.39	1.103
504.60	1.068
504.81	1.098
505.02	1.082
505.23	1.083
505.44	1.059
505.65	1.068
505.86	1.048
506.07	1.119
506.27	1.072
506.48	1.081
506.69	1.064
506.90	1.089
507.11	1.087
507.32	1.064
507.53	1.073
507.74	1.066
507.95	1.082
508.15	1.087
508.36	1.094
508.57	1.105
508.78	1.086
508.99	1.084
509.20	1.053
509.41	1.081
509.62	1.065
509.82	1.061
510.03	1.071
510.24	1.071
510.45	1.099
510.66	1.089
510.87	1.085
511.08	1.040
511.29	1.086
511.49	1.063
511.70	1.114
511.91	1.039
512.12	1.038
512.33	1.074
512.54	1.092
512.75	1.070
512.95	1.097
513.16	1.087
513.37	1.061
513.58	1.100
513.79	1.060
514.00	1.064
514.20	1.088
514.41	1.075
514.62	1.039
514.83	1.083
515.04	1.073
515.25	1.051
515.46	1.066
515.66	1.069
515.87	1.085
516.08	1.049
516.29	1.077
516.50	1.052
516.71	1.048
516.91	1.060
517.12	1.078
517.33	1.063
517.54	1.051
517.75	1.052
517.95	1.066
518.16	1.080
518.37	1.046
518.58	1.052
518.79	1.025
519.00	1.057
519.20	1.066
519.41	1.038
519.62	1.060
519.83	1.070
520.04	1.031
520.24	1.028
520.45	1.037
520.66	1.063
520.87	1.022
521.08	1.020
521.28	1.024
521.49	1.042
521.70	1.009
521.91	1.024
522.12	1.004
522.32	1.028
522.53	1.008
522.74	0.997
522.95	1.006
523.16	1.009
523.36	1.020
523.57	1.001
523.78	0.996
523.99	1.002
524.20	0.995
524.40	1.007
524.61	1.015
524.82	0.988
525.03	0.993
525.23	0.995
525.44	0.978
525.65	0.977
525.86	1.001
526.06	0.968
526.27	0.969
526.48	0.979
526.69	0.958
526.90	0.963
527.10	1.002
527.31	0.953
527.52	0.945
527.73	0.936
527.93	0.947
528.14	0.952
528.35	0.942
528.56	0.942
528.76	0.935
528.97	0.925
529.18	0.915
529.39	0.915
529.59	0.917
529.80	0.951
530.01	0.923
530.22	0.922
530.42	0.889
530.63	0.907
530.84	0.884
531.05	0.901
531.25	0.905
531.46	0.896
531.67	0.873
531.88	0.893
532.08	0.886
532.29	0.882
532.50	0.872
532.70	0.865
532.91	0.853
533.12	0.856
533.33	0.882
533.53	0.849
533.74	0.849
533.95	0.855
534.15	0.844
534.36	0.844
534.57	0.826
534.78	0.828
534.98	0.838
535.19	0.809
535.40	0.810
535.60	0.829
535.81	0.808
536.02	0.811
536.23	0.803
536.43	0.804
536.64	0.791
536.85	0.800
537.05	0.809
537.26	0.786
537.47	0.788
537.67	0.777
537.88	0.770
538.09	0.778
538.30	0.767
538.50	0.759
538.71	0.770
538.92	0.755
539.12	0.751
539.33	0.746
539.54	0.746
539.74	0.752
539.95	0.742
540.16	0.740
540.36	0.732
540.57	0.731
540.78	0.723
540.98	0.722
541.19	0.722
541.40	0.709
541.60	0.720
541.81	0.714
542.02	0.714
542.22	0.703
542.43	0.697
542.64	0.692
542.84	0.691
543.05	0.682
543.26	0.682
543.46	0.685
543.67	0.682
543.88	0.678
544.08	0.667
544.29	0.661
544.50	0.661
544.70	0.662
544.91	0.652
545.12	0.653
545.32	0.648
545.53	0.652
545.74	0.639
545.94	0.636
546.15	0.633
546.35	0.628
546.56	0.625
546.77	0.622
546.97	0.620
547.18	0.612
547.39	0.612
547.59	0.610
547.80	0.605
548.01	0.610
548.21	0.606
548.42	0.597
548.62	0.598
548.83	0.595
549.04	0.591
549.24	0.583
549.45	0.581
549.65	0.578
549.86	0.574
550.07	0.574
550.27	0.571
550.48	0.579
550.69	0.564
550.89	0.564
551.10	0.560
551.30	0.558
551.51	0.559
551.72	0.549
551.92	0.550
552.13	0.549
552.33	0.549
552.54	0.543
552.75	0.537
552.95	0.538
553.16	0.533
553.36	0.530
553.57	0.528
553.78	0.525
553.98	0.526
554.19	0.517
554.39	0.514
554.60	0.516
554.80	0.516
555.01	0.508
555.22	0.509
555.42	0.506
555.63	0.500
555.83	0.503
556.04	0.496
556.25	0.499
556.45	0.489
556.66	0.488
556.86	0.491
557.07	0.488
557.27	0.488
557.48	0.483
557.68	0.480
557.89	0.480
558.10	0.476
558.30	0.474
558.51	0.471
558.71	0.468
558.92	0.463
559.12	0.464
559.33	0.467
559.54	0.462
559.74	0.457
559.95	0.454
560.15	0.454
560.36	0.452
560.56	0.446
560.77	0.447
560.97	0.447
561.18	0.442
561.38	0.441
561.59	0.444
561.79	0.440
562.00	0.438
562.21	0.435
562.41	0.433
562.62	0.433
562.82	0.430
563.03	0.426
563.23	0.425
563.44	0.425
563.64	0.422
563.85	0.423
564.05	0.416
564.26	0.415
564.46	0.414
564.67	0.415
564.87	0.410
565.08	0.408
565.28	0.407
565.49	0.408
565.69	0.404
565.90	0.401
566.10	0.402
566.31	0.396
566.51	0.397
566.72	0.398
566.92	0.392
567.13	0.391
567.33	0.390
567.54	0.388
567.74	0.388
567.95	0.383
568.15	0.384
568.36	0.384
568.56	0.383
568.77	0.378
568.97	0.376
569.18	0.376
569.38	0.374
569.59	0.375
569.79	0.372
570.00	0.369
570.20	0.368
570.41	0.367
570.61	0.365
570.82	0.365
571.02	0.361
571.23	0.364
571.43	0.359
571.64	0.357
571.84	0.357
572.05	0.355
572.25	0.354
572.45	0.352
572.66	0.349
572.86	0.348
573.07	0.347
573.27	0.347
573.48	0.346
573.68	0.342
573.89	0.342
574.09	0.342
574.30	0.340
574.50	0.338
574.70	0.339
574.91	0.336
575.11	0.337
575.32	0.336
575.52	0.332
575.73	0.331
575.93	0.331
576.14	0.329
576.34	0.328
576.54	0.327
576.75	0.325
576.95	0.325
577.16	0.323
577.36	0.321
577.57	0.320
577.77	0.319
577.97	0.316
578.18	0.318
578.38	0.315
578.59	0.313
578.79	0.311
579.00	0.312
579.20	0.310
579.40	0.309
579.61	0.308
579.81	0.307
580.02	0.305
580.22	0.304
580.42	0.303
580.63	0.303
580.83	0.302
581.04	0.299
581.24	0.298
581.45	0.297
581.65	0.296
581.85	0.295
582.06	0.293
582.26	0.294
582.47	0.293
582.67	0.293
582.87	0.292
583.08	0.289
583.28	0.289
583.48	0.287
583.69	0.284
583.89	0.284
584.10	0.285
584.30	0.282
584.50	0.280
584.71	0.279
584.91	0.279
585.12	0.277
585.32	0.278
585.52	0.276
585.73	0.275
585.93	0.275
586.13	0.275
586.34	0.274
586.54	0.273
586.75	0.272
586.95	0.270
587.15	0.270
587.36	0.269
587.56	0.268
587.76	0.267
587.97	0.266
588.17	0.264
588.37	0.263
588.58	0.263
588.78	0.260
588.98	0.261
589.19	0.260
589.39	0.258
589.60	0.259
589.80	0.256
590.00	0.256
590.21	0.255
590.41	0.254
590.61	0.253
590.82	0.253
591.02	0.253
591.22	0.251
591.43	0.252
591.63	0.249
591.83	0.249
592.04	0.248
592.24	0.248
592.44	0.246
592.65	0.245
592.85	0.245
593.05	0.245
593.26	0.243
593.46	0.243
593.66	0.242
593.86	0.241
594.07	0.240
594.27	0.240
594.47	0.239
594.68	0.238
594.88	0.239
595.08	0.238
595.29	0.238
595.49	0.235
595.69	0.235
595.90	0.234
596.10	0.235
596.30	0.234
596.50	0.232
596.71	0.232
596.91	0.230
597.11	0.230
597.32	0.229
597.52	0.228
597.72	0.228
597.93	0.227
598.13	0.225
598.33	0.225
598.53	0.224
598.74	0.223
598.94	0.223
599.14	0.222
599.35	0.222
599.55	0.222
599.75	0.221
599.95	0.220
600.16	0.221
600.36	0.219
600.56	0.220
600.76	0.219
600.97	0.217
601.17	0.216
601.37	0.217
601.58	0.215
601.78	0.215
601.98	0.214
602.18	0.212
602.39	0.212
602.59	0.212
602.79	0.211
602.99	0.211
603.20	0.210
603.40	0.209
603.60	0.209
603.80	0.209
604.01	0.209
604.21	0.208
604.41	0.208
604.61	0.207
604.82	0.206
605.02	0.206
605.22	0.205
605.42	0.205
605.62	0.205
605.83	0.204
606.03	0.203
606.23	0.204
606.43	0.203
606.64	0.203
606.84	0.202
607.04	0.202
607.24	0.202
607.45	0.202
607.65	0.201
607.85	0.202
608.05	0.200
608.25	0.200
608.46	0.199
608.66	0.199
608.86	0.198
609.06	0.197
609.26	0.196
609.47	0.197
609.67	0.196
609.87	0.196
610.07	0.195
610.28	0.194
610.48	0.194
610.68	0.194
610.88	0.192
611.08	0.193
611.29	0.192
611.49	0.191
611.69	0.191
611.89	0.189
612.09	0.189
612.29	0.188
612.50	0.188
612.70	0.188
612.90	0.187
613.10	0.186
613.30	0.185
613.51	0.186
613.71	0.185
613.91	0.189
614.11	0.185
614.31	0.185
614.51	0.184
614.72	0.183
614.92	0.183
615.12	0.183
615.32	0.184
615.52	0.183
615.72	0.184
615.93	0.184
616.13	0.183
616.33	0.183
616.53	0.182
616.73	0.182
616.93	0.181
617.14	0.181
617.34	0.181
617.54	0.181
617.74	0.181
617.94	0.180
618.14	0.180
618.34	0.179
618.55	0.179
618.75	0.179
618.95	0.179
619.15	0.179
619.35	0.178
619.55	0.177
619.75	0.178
619.96	0.176
620.16	0.176
620.36	0.176
620.56	0.176
620.76	0.176
620.96	0.175
621.16	0.175
621.36	0.175
621.57	0.175
621.77	0.175
621.97	0.174
622.17	0.174
622.37	0.175
622.57	0.175
622.77	0.174
622.97	0.172
623.18	0.173
623.38	0.173
623.58	0.172
623.78	0.172
623.98	0.171
624.18	0.171
624.38	0.170
624.58	0.169
624.78	0.170
624.98	0.170
625.19	0.170
625.39	0.170
625.59	0.169
625.79	0.169
625.99	0.169
626.19	0.168
626.39	0.168
626.59	0.168
626.79	0.168
626.99	0.168
627.19	0.168
627.40	0.168
627.60	0.167
627.80	0.167
628.00	0.167
628.20	0.166
628.40	0.166
628.60	0.166
628.80	0.165
629.00	0.165
629.20	0.164
629.40	0.165
629.60	0.163
629.80	0.163
630.00	0.164
630.20	0.163
630.41	0.162
630.61	0.162
630.81	0.162
631.01	0.163
631.21	0.162
631.41	0.162
631.61	0.162
631.81	0.161
632.01	0.161
632.21	0.161
632.41	0.160
632.61	0.160
632.81	0.160
633.01	0.160
633.21	0.160
633.41	0.160
633.61	0.159
633.81	0.158
634.01	0.158
634.21	0.158
634.41	0.158
634.61	0.158
634.81	0.157
635.01	0.156
635.22	0.156
635.42	0.156
635.62	0.156
635.82	0.156
636.02	0.156
636.22	0.156
636.42	0.155
636.62	0.155
636.82	0.155
637.02	0.155
637.22	0.155
637.42	0.155
637.62	0.153
637.82	0.154
638.02	0.153
638.22	0.153
638.42	0.153
638.62	0.152
638.82	0.152
639.02	0.152
639.22	0.152
639.42	0.151
639.62	0.151
639.82	0.151
640.02	0.151
640.22	0.151
640.42	0.151
640.62	0.151
640.82	0.151
641.02	0.150
641.22	0.151
641.42	0.150
641.61	0.150
641.81	0.150
642.01	0.150
642.21	0.150
642.41	0.149
642.61	0.149
642.81	0.148
643.01	0.148
643.21	0.148
643.41	0.148
643.61	0.147
643.81	0.147
644.01	0.146
644.21	0.146
644.41	0.146
644.61	0.146
644.81	0.146
645.01	0.146
645.21	0.146
645.41	0.146
645.61	0.145
645.81	0.145
646.01	0.144
646.21	0.145
646.40	0.144
646.60	0.144
646.80	0.144
647.00	0.144
647.20	0.143
647.40	0.143
647.60	0.143
647.80	0.142
648.00	0.142
648.20	0.142
648.40	0.142
648.60	0.142
648.80	0.142
649.00	0.142
649.20	0.142
649.39	0.141
649.59	0.140
649.79	0.140
649.99	0.140
650.19	0.139
650.39	0.140
650.59	0.140
650.79	0.139
650.99	0.139
651.19	0.138
651.39	0.139
651.58	0.139
651.78	0.138
651.98	0.139
652.18	0.138
652.38	0.138
652.58	0.138
652.78	0.138
652.98	0.138
653.18	0.138
653.38	0.138
653.57	0.138
653.77	0.138
653.97	0.137
654.17	0.137
654.37	0.136
654.57	0.136
654.77	0.136
654.97	0.136
655.16	0.136
655.36	0.135
655.56	0.135
655.76	0.134
655.96	0.135
656.16	0.133
656.36	0.134
656.56	0.133
656.75	0.133
656.95	0.133
657.15	0.133
657.35	0.133
657.55	0.132
657.75	0.133
657.95	0.133
658.14	0.133
658.34	0.133
658.54	0.133
658.74	0.132
658.94	0.132
659.14	0.132
659.34	0.131
659.53	0.131
659.73	0.131
659.93	0.130
660.13	0.130
660.33	0.129
660.53	0.129
660.72	0.129
660.92	0.129
661.12	0.128
661.32	0.128
661.52	0.128
661.72	0.128
661.91	0.128
662.11	0.128
662.31	0.127
662.51	0.127
662.71	0.127
662.90	0.126
663.10	0.126
663.30	0.126
663.50	0.126
663.70	0.126
663.90	0.126
664.09	0.126
664.29	0.125
664.49	0.125
664.69	0.125
664.89	0.125
665.08	0.124
665.28	0.124
665.48	0.124
665.68	0.123
665.88	0.123
666.07	0.123
666.27	0.123
666.47	0.123
666.67	0.123
666.87	0.123
667.06	0.122
667.26	0.122
667.46	0.122
667.66	0.122
667.85	0.122
668.05	0.122
668.25	0.122
668.45	0.122
668.65	0.121
668.84	0.121
669.04	0.121
669.24	0.121
669.44	0.120
669.63	0.120
669.83	0.120
670.03	0.119
670.23	0.119
670.42	0.119
670.62	0.118
670.82	0.118
671.02	0.117
671.22	0.117
671.41	0.117
671.61	0.117
671.81	0.117
672.01	0.118
672.20	0.117
672.40	0.117
672.60	0.117
672.80	0.117
672.99	0.117
673.19	0.116
673.39	0.117
673.58	0.116
673.78	0.116
673.98	0.116
674.18	0.116
674.37	0.115
674.57	0.115
674.77	0.115
674.97	0.115
675.16	0.114
675.36	0.114
675.56	0.113
675.75	0.113
675.95	0.113
676.15	0.113
676.35	0.113
676.54	0.113
676.74	0.112
676.94	0.112
677.13	0.111
677.33	0.111
677.53	0.111
677.73	0.111
677.92	0.111
678.12	0.111
678.32	0.111
678.51	0.111
678.71	0.110
678.91	0.110
679.11	0.110
679.30	0.110
679.50	0.110
679.70	0.109
679.89	0.109
680.09	0.109
680.29	0.108
680.48	0.108
680.68	0.108
680.88	0.108
681.07	0.108
681.27	0.108
681.47	0.108
681.66	0.108
681.86	0.107
682.06	0.108
682.25	0.107
682.45	0.107
682.65	0.107
682.84	0.106
683.04	0.106
683.24	0.106
683.43	0.106
683.63	0.106
683.83	0.106
684.02	0.106
684.22	0.105
684.42	0.105
684.61	0.105
684.81	0.105
685.01	0.105
685.20	0.104
685.40	0.105
685.60	0.104
685.79	0.104
685.99	0.104
686.19	0.104
686.38	0.104
686.58	0.104
686.77	0.104
686.97	0.104
687.17	0.104
687.36	0.103
687.56	0.103
687.76	0.102
687.95	0.102
688.15	0.103
688.34	0.103
688.54	0.102
688.74	0.101
688.93	0.101
689.13	0.101
689.33	0.101
689.52	0.101
689.72	0.101
689.91	0.101
690.11	0.101
690.31	0.100
690.50	0.100
690.70	0.101
690.89	0.100
691.09	0.100
691.29	0.100
691.48	0.099
691.68	0.100
691.87	0.099
692.07	0.100
692.27	0.099
692.46	0.099
692.66	0.099
692.85	0.098
693.05	0.098
693.25	0.098
693.44	0.098
693.64	0.098
693.83	0.097
694.03	0.097
694.22	0.097
694.42	0.096
694.62	0.097
694.81	0.097
695.01	0.097
695.20	0.097
695.40	0.096
695.59	0.096
695.79	0.096
695.99	0.096
696.18	0.096
696.38	0.096
696.57	0.096
696.77	0.096
696.96	0.096
697.16	0.096
697.36	0.095
697.55	0.095
697.75	0.095
697.94	0.095
698.14	0.095
698.33	0.094
698.53	0.095
698.72	0.094
698.92	0.094
699.11	0.094
699.31	0.094
699.51	0.095
699.70	0.094
699.90	0.094
700.09	0.094
700.29	0.094
700.48	0.094
700.68	0.094
700.87	0.094
701.07	0.093
701.26	0.093
701.46	0.092
701.65	0.092
701.85	0.093
702.04	0.093
702.24	0.092
702.43	0.093
702.63	0.092
702.82	0.092
703.02	0.092
703.21	0.092
703.41	0.092
703.60	0.092
703.80	0.091
703.99	0.091
704.19	0.091
704.38	0.091
704.58	0.090
704.77	0.090
704.97	0.090
705.16	0.090
705.36	0.090
705.55	0.090
705.75	0.089
705.94	0.089
706.14	0.090
706.33	0.090
706.53	0.090
706.72	0.090
706.92	0.089
707.11	0.089
707.31	0.089
707.50	0.089
707.70	0.089
707.89	0.089
708.09	0.089
708.28	0.088
708.48	0.088
708.67	0.088
708.86	0.088
709.06	0.088
709.25	0.088
709.45	0.088
709.64	0.087
709.84	0.088
710.03	0.087
710.23	0.087
710.42	0.087
710.62	0.087
710.81	0.087
711.00	0.087
711.20	0.087
711.39	0.087
711.59	0.087
711.78	0.087
711.98	0.087
712.17	0.087
712.37	0.087
712.56	0.087
712.75	0.087
712.95	0.087
713.14	0.088
713.34	0.087
713.53	0.087
713.73	0.087
713.92	0.088
714.11	0.087
714.31	0.088
714.50	0.087
714.70	0.087
714.89	0.087
715.08	0.088
715.28	0.087
715.47	0.087
715.67	0.087
715.86	0.087
716.06	0.087
716.25	0.087
716.44	0.086
716.64	0.086
716.83	0.086
717.03	0.085
717.22	0.085
717.41	0.085
717.61	0.085
717.80	0.085
717.99	0.085
718.19	0.085
718.38	0.085
718.58	0.085
718.77	0.085
718.96	0.085
719.16	0.084
719.35	0.084
719.55	0.084
719.74	0.084
719.93	0.084
720.13	0.084
720.32	0.084
720.51	0.084
720.71	0.084
720.90	0.084
721.10	0.084
721.29	0.084
721.48	0.084
721.68	0.084
721.87	0.084
722.06	0.084
722.26	0.085
722.45	0.084
722.64	0.084
722.84	0.084
723.03	0.084
723.22	0.085
723.42	0.085
723.61	0.084
723.80	0.084
724.00	0.084
724.19	0.084
724.38	0.084
724.58	0.084
724.77	0.084
724.96	0.084
725.16	0.084
725.35	0.084
725.54	0.084
725.74	0.084
725.93	0.084
726.12	0.084
726.32	0.084
726.51	0.085
726.70	0.084
726.90	0.084
727.09	0.084
727.28	0.084
727.48	0.084
727.67	0.084
727.86	0.083
728.06	0.084
728.25	0.083
728.44	0.084
728.64	0.083
728.83	0.084
729.02	0.084
729.21	0.084
729.41	0.084
729.60	0.084
729.79	0.084
729.99	0.083
730.18	0.083
730.37	0.084
730.56	0.083
730.76	0.083
730.95	0.083
731.14	0.083
731.34	0.084
731.53	0.084
731.72	0.084
731.91	0.084
732.11	0.084
732.30	0.084
732.49	0.083
732.69	0.084
732.88	0.084
733.07	0.084
733.26	0.084
733.46	0.084
733.65	0.084
733.84	0.084
734.03	0.084
734.23	0.084
734.42	0.084
734.61	0.084
734.80	0.084
735.00	0.085
735.19	0.084
735.38	0.084
735.57	0.084
735.77	0.084
735.96	0.084
736.15	0.084
736.34	0.084
736.54	0.085
736.73	0.085
736.92	0.085
737.11	0.085
737.31	0.085
737.50	0.085
737.69	0.085
737.88	0.085
738.07	0.085
738.27	0.084
738.46	0.085
738.65	0.084
738.84	0.085
739.04	0.085
739.23	0.085
739.42	0.085
739.61	0.085
739.80	0.085
740.00	0.085
740.19	0.085
740.38	0.084
740.57	0.084
740.76	0.084
740.96	0.084
741.15	0.083
741.34	0.083
741.53	0.083
741.72	0.083
741.92	0.083
742.11	0.083
742.30	0.083
742.49	0.083
742.68	0.083
742.88	0.083
743.07	0.083
743.26	0.083
743.45	0.083
743.64	0.082
743.84	0.082
744.03	0.082
744.22	0.082
744.41	0.082
744.60	0.082
744.79	0.082
744.99	0.082
745.18	0.082
745.37	0.082
745.56	0.082
745.75	0.083
745.94	0.082
746.14	0.082
746.33	0.083
746.52	0.083
746.71	0.083
746.90	0.082
747.09	0.082
747.28	0.082
747.48	0.082
747.67	0.081
747.86	0.081
748.05	0.081
748.24	0.081
748.43	0.081
748.62	0.081
748.82	0.081
749.01	0.081
749.20	0.081
749.39	0.081
749.58	0.081
749.77	0.081
749.96	0.081
750.16	0.081
750.35	0.081
750.54	0.081
750.73	0.081
750.92	0.081
751.11	0.081
751.30	0.081
751.49	0.081
751.68	0.081
751.88	0.081
752.07	0.080
752.26	0.081
752.45	0.080
752.64	0.080
752.83	0.080
753.02	0.080
753.21	0.080
753.40	0.079
753.60	0.080
753.79	0.079
753.98	0.079
754.17	0.079
754.36	0.079
754.55	0.079
754.74	0.079
754.93	0.079
755.12	0.080
755.31	0.080
755.50	0.079
755.70	0.079
755.89	0.079
756.08	0.079
756.27	0.079
756.46	0.079
756.65	0.079
756.84	0.079
757.03	0.078
757.22	0.078
757.41	0.078
757.60	0.078
757.79	0.078
757.98	0.078
758.17	0.078
758.36	0.078
758.56	0.078
758.75	0.078
758.94	0.078
759.13	0.078
759.32	0.078
759.51	0.078
759.70	0.078
759.89	0.078
760.08	0.078
760.27	0.077
760.46	0.078
760.65	0.077
760.84	0.077
761.03	0.077
761.22	0.078
761.41	0.078
761.60	0.078
761.79	0.077
761.98	0.077
762.17	0.077
762.36	0.077
762.55	0.077
762.74	0.077
762.93	0.077
763.12	0.076
763.31	0.076
763.50	0.076
763.69	0.076
763.88	0.076
764.07	0.076
764.26	0.076
764.45	0.076
764.64	0.076
764.83	0.076
765.02	0.077
765.21	0.077
765.40	0.077
765.59	0.077
765.78	0.077
765.97	0.077
766.16	0.077
766.35	0.077
766.54	0.077
766.73	0.077
766.92	0.077
767.11	0.077
767.30	0.077
767.49	0.077
767.68	0.077
767.87	0.077
768.06	0.077
768.25	0.077
768.44	0.077
768.63	0.076
768.82	0.076
769.01	0.075
769.20	0.075
769.39	0.076
769.58	0.076
769.77	0.076
769.96	0.076
770.15	0.076
770.34	0.076
770.53	0.075
770.72	0.075
770.91	0.075
771.10	0.075
771.29	0.075
771.47	0.075
771.66	0.075
771.85	0.075
772.04	0.074
772.23	0.074
772.42	0.074
772.61	0.074
772.80	0.074
772.99	0.074
773.18	0.074
773.37	0.074
773.56	0.074
773.75	0.074
773.94	0.075
774.13	0.074
774.31	0.075
774.50	0.075
774.69	0.075
774.88	0.075
775.07	0.075
775.26	0.075
775.45	0.074
775.64	0.074
775.83	0.074
776.02	0.074
776.21	0.074
776.40	0.074
776.58	0.074
776.77	0.074
776.96	0.074
777.15	0.074
777.34	0.074
777.53	0.074
777.72	0.074
777.91	0.074
778.10	0.074
778.28	0.073
778.47	0.073
778.66	0.073
778.85	0.073
779.04	0.073
779.23	0.073
779.42	0.073
779.61	0.073
779.79	0.073
779.98	0.072
780.17	0.073
780.36	0.072
780.55	0.072
780.74	0.072
780.93	0.072
781.12	0.072
781.30	0.072
781.49	0.072
781.68	0.072
781.87	0.072
782.06	0.072
782.25	0.072
782.44	0.072
782.62	0.072
782.81	0.073
783.00	0.073
783.19	0.073
783.38	0.073
783.57	0.072
783.75	0.072
783.94	0.072
784.13	0.072
784.32	0.072
784.51	0.072
784.70	0.072
784.88	0.071
785.07	0.071
785.26	0.071
785.45	0.072
785.64	0.071
785.83	0.071
786.01	0.071
786.20	0.071
786.39	0.071
786.58	0.071
786.77	0.070
786.95	0.071
787.14	0.071
787.33	0.071
787.52	0.071
787.71	0.071
787.90	0.071
788.08	0.071
788.27	0.071
788.46	0.071
788.65	0.071
788.84	0.072
789.02	0.072
789.21	0.072
789.40	0.071
789.59	0.071
789.77	0.072
789.96	0.071
790.15	0.071
790.34	0.072
790.53	0.072
790.71	0.071
790.90	0.071
791.09	0.070
791.28	0.071
791.46	0.071
791.65	0.071
791.84	0.071
792.03	0.071
792.22	0.071
792.40	0.071
792.59	0.071
792.78	0.071
792.97	0.071
793.15	0.071
793.34	0.071
793.53	0.071
793.72	0.071
793.90	0.070
794.09	0.070
794.28	0.070
794.47	0.070
794.65	0.070
794.84	0.070
795.03	0.070
795.22	0.070
795.40	0.070
795.59	0.069
795.78	0.070
795.97	0.070
796.15	0.070
796.34	0.070
796.53	0.070
796.71	0.070
796.90	0.070
797.09	0.071
797.28	0.070
797.46	0.070
797.65	0.070
797.84	0.070
798.02	0.070
798.21	0.070
798.40	0.069
798.59	0.069
798.77	0.069
798.96	0.069
799.15	0.069
799.33	0.069
799.52	0.068
799.71	0.068
799.90	0.069
800.08	0.069
800.27	0.069
800.46	0.069
800.64	0.069
800.83	0.069
801.02	0.069
801.20	0.069
801.39	0.069
801.58	0.069
801.76	0.069
801.95	0.069
802.14	0.069
802.32	0.069
802.51	0.069
802.70	0.069
802.88	0.069
803.07	0.069
803.26	0.068
803.44	0.068
803.63	0.068
803.82	0.068
804.00	0.068
804.19	0.068
804.38	0.068
804.56	0.068
804.75	0.068
804.94	0.068
805.12	0.068
805.31	0.068
805.50	0.069
805.68	0.068
805.87	0.068
806.06	0.068
806.24	0.068
806.43	0.068
806.62	0.069
806.80	0.069
806.99	0.069
807.17	0.068
807.36	0.069
807.55	0.069
807.73	0.069
807.92	0.069
808.11	0.070
808.29	0.069
808.48	0.069
808.66	0.069
808.85	0.068
809.04	0.068
809.22	0.068
809.41	0.068
809.59	0.068
809.78	0.068
809.97	0.068
810.15	0.068
810.34	0.068
810.53	0.068
810.71	0.068
810.90	0.068
811.08	0.068
811.27	0.067
811.45	0.067
811.64	0.067
811.83	0.068
812.01	0.068
812.20	0.068
812.38	0.068
812.57	0.068
812.76	0.068
812.94	0.068
813.13	0.068
813.31	0.068
813.50	0.068
813.68	0.068
813.87	0.068
814.06	0.068
814.24	0.068
814.43	0.068
814.61	0.068
814.80	0.068
814.98	0.068
815.17	0.067
815.36	0.067
815.54	0.068
815.73	0.068
815.91	0.068
816.10	0.068
816.28	0.068
816.47	0.067
816.65	0.068
816.84	0.068
817.03	0.068
817.21	0.068
817.40	0.068
817.58	0.068
817.77	0.068
817.95	0.068
818.14	0.068
818.32	0.068
818.51	0.068
818.69	0.068
818.88	0.068
819.06	0.068
819.25	0.068
819.43	0.068
819.62	0.068
819.80	0.068
819.99	0.068
820.18	0.068
820.36	0.067
820.55	0.068
820.73	0.068
820.92	0.067
821.10	0.068
821.29	0.068
821.47	0.068
821.66	0.068
821.84	0.068
822.03	0.068
822.21	0.068
822.40	0.068
822.58	0.068
822.77	0.068
822.95	0.068
823.14	0.068
823.32	0.069
823.50	0.069
823.69	0.069
823.87	0.069
824.06	0.069
824.24	0.069
824.43	0.069
824.61	0.069
824.80	0.069
824.98	0.069
825.17	0.069
825.35	0.070
825.54	0.070
825.72	0.069
825.91	0.069
826.09	0.069
826.28	0.069
826.46	0.070
826.64	0.070
826.83	0.071
827.01	0.070
827.20	0.070
827.38	0.070
827.57	0.070
827.75	0.070
827.94	0.071
828.12	0.071
828.31	0.070
828.49	0.070
828.67	0.071
828.86	0.070
829.04	0.071
829.23	0.071
829.41	0.071
829.60	0.071
829.78	0.071
829.96	0.072
830.15	0.072
830.33	0.072
830.52	0.072
830.70	0.072
830.88	0.072
831.07	0.072
831.25	0.072
831.44	0.072
831.62	0.072
831.81	0.072
831.99	0.072
832.17	0.072
832.36	0.073
832.54	0.073
832.73	0.073
832.91	0.073
833.09	0.073
833.28	0.073
833.46	0.073
833.65	0.073
833.83	0.073
834.01	0.073
834.20	0.073
834.38	0.073
834.56	0.073
834.75	0.074
834.93	0.074
835.12	0.074
835.30	0.074
835.48	0.074
835.67	0.074
835.85	0.074
836.03	0.074
836.22	0.074
836.40	0.074
836.59	0.074
836.77	0.074
836.95	0.074
837.14	0.074
837.32	0.074
837.50	0.074
837.69	0.074
837.87	0.074
838.05	0.074
838.24	0.074
838.42	0.074
838.60	0.074
838.79	0.075
838.97	0.075
839.15	0.075
839.34	0.075
839.52	0.075
839.70	0.075
839.89	0.075
840.07	0.076
840.25	0.075
840.44	0.075
840.62	0.075
840.80	0.075
840.99	0.075
841.17	0.075
841.35	0.075
841.54	0.075
841.72	0.075
841.90	0.075
842.09	0.075
842.27	0.075
842.45	0.075
842.64	0.076
842.82	0.075
843.00	0.075
843.19	0.076
843.37	0.075
843.55	0.075
843.73	0.075
843.92	0.075
844.10	0.075
844.28	0.075
844.47	0.076
844.65	0.076
844.83	0.076
845.01	0.076
845.20	0.076
845.38	0.076
845.56	0.077
845.75	0.076
845.93	0.076
846.11	0.076
846.29	0.076
846.48	0.076
846.66	0.077
846.84	0.076
847.02	0.076
847.21	0.076
847.39	0.076
847.57	0.076
847.76	0.076
847.94	0.076
848.12	0.076
848.30	0.076
848.49	0.076
848.67	0.076
848.85	0.076
849.03	0.077
849.22	0.076
849.40	0.077
849.58	0.077
849.76	0.077
849.95	0.077
850.13	0.077
850.31	0.077
850.49	0.077
850.67	0.077
850.86	0.077
851.04	0.076
851.22	0.076
851.40	0.076
851.59	0.076
851.77	0.076
851.95	0.076
852.13	0.076
852.31	0.076
852.50	0.076
852.68	0.076
852.86	0.076
853.04	0.076
853.23	0.076
853.41	0.076
853.59	0.076
853.77	0.076
853.95	0.077
854.14	0.077
854.32	0.077
854.50	0.076
854.68	0.076
854.86	0.076
855.04	0.077
855.23	0.077
855.41	0.077
855.59	0.077
855.77	0.077
855.95	0.077
856.14	0.077
856.32	0.077
856.50	0.077
856.68	0.077
856.86	0.077
857.04	0.077
857.23	0.076
857.41	0.076
857.59	0.076
857.77	0.076
857.95	0.076
858.13	0.076
858.32	0.076
858.50	0.077
858.68	0.076
858.86	0.076
859.04	0.076
859.22	0.077
859.41	0.077
859.59	0.077
859.77	0.077
859.95	0.077
860.13	0.077
860.31	0.076
860.49	0.076
860.68	0.077
860.86	0.077
861.04	0.077
861.22	0.077
861.40	0.077
861.58	0.077
861.76	0.077
861.94	0.077
862.13	0.077
862.31	0.077
862.49	0.077
862.67	0.078
862.85	0.078
863.03	0.078
863.21	0.078
863.39	0.078
863.57	0.078
863.76	0.078
863.94	0.078
864.12	0.078
864.30	0.078
864.48	0.078
864.66	0.078
864.84	0.078
865.02	0.078
865.20	0.078
865.38	0.078
865.57	0.078
865.75	0.079
865.93	0.079
866.11	0.078
866.29	0.079
866.47	0.079
866.65	0.079
866.83	0.078
867.01	0.078
867.19	0.078
867.37	0.078
867.55	0.078
867.73	0.078
867.92	0.078
868.10	0.078
868.28	0.078
868.46	0.077
868.64	0.078
868.82	0.078
869.00	0.078
869.18	0.078
869.36	0.078
869.54	0.079
869.72	0.079
869.90	0.078
870.08	0.078
870.26	0.078
870.44	0.079
870.62	0.079
870.80	0.079
870.98	0.079
871.16	0.079
871.34	0.079
871.53	0.079
871.71	0.079
871.89	0.079
872.07	0.079
872.25	0.079
872.43	0.079
872.61	0.079
872.79	0.079
872.97	0.079
873.15	0.079
873.33	0.080
873.51	0.079
873.69	0.080
873.87	0.080
874.05	0.080
874.23	0.080
874.41	0.080
874.59	0.080
874.77	0.080
874.95	0.080
875.13	0.080
875.31	0.080
875.49	0.081
875.67	0.080
875.85	0.080
876.03	0.080
876.21	0.081
876.39	0.081
876.57	0.080
876.75	0.081
876.93	0.081
877.11	0.081
877.29	0.080
877.47	0.080
877.65	0.081
877.82	0.081
878.00	0.081
878.18	0.081
878.36	0.082
878.54	0.082
878.72	0.081
878.90	0.081
879.08	0.082
879.26	0.082
879.44	0.082
879.62	0.081
879.80	0.081
879.98	0.081
880.16	0.081
880.34	0.080
880.52	0.081
880.70	0.080
880.88	0.081
881.06	0.081
881.24	0.080
881.42	0.080
881.59	0.080
881.77	0.080
881.95	0.080
882.13	0.081
882.31	0.081
882.49	0.081
882.67	0.081
882.85	0.081
883.03	0.081
883.21	0.082
883.39	0.082
883.57	0.082
883.75	0.082
883.92	0.082
884.10	0.082
884.28	0.082
884.46	0.082
884.64	0.082
884.82	0.082
885.00	0.082
885.18	0.082
885.36	0.082
885.54	0.082
885.71	0.082
885.89	0.083
886.07	0.083
886.25	0.083
886.43	0.082
886.61	0.082
886.79	0.083
886.97	0.083
887.15	0.082
887.32	0.082
887.50	0.082
887.68	0.082
887.86	0.082
888.04	0.083
888.22	0.083
888.40	0.082
888.57	0.083
888.75	0.083
888.93	0.083
889.11	0.083
889.29	0.084
889.47	0.084
889.65	0.084
889.82	0.084
890.00	0.084
890.18	0.084
890.36	0.084
890.54	0.084
890.72	0.084
890.90	0.084
891.07	0.084
891.25	0.084
891.43	0.083
891.61	0.084
891.79	0.084
891.97	0.084
892.14	0.083
892.32	0.084
892.50	0.084
892.68	0.084
892.86	0.084
893.03	0.084
893.21	0.084
893.39	0.085
893.57	0.085
893.75	0.085
893.93	0.084
894.10	0.084
894.28	0.084
894.46	0.084
894.64	0.084
894.82	0.085
894.99	0.085
895.17	0.085
895.35	0.085
895.53	0.084
895.71	0.084
895.88	0.085
896.06	0.085
896.24	0.085
896.42	0.085
896.59	0.085
896.77	0.085
896.95	0.085
897.13	0.085
897.31	0.085
897.48	0.085
897.66	0.086
897.84	0.085
898.02	0.085
898.19	0.085
898.37	0.085
898.55	0.085
898.73	0.086
898.91	0.085
899.08	0.085
899.26	0.085
899.44	0.085
899.62	0.085
899.79	0.086
899.97	0.086
900.15	0.085
900.33	0.085
900.50	0.085
900.68	0.085
900.86	0.085
901.04	0.086
901.21	0.086
901.39	0.086
901.57	0.086
901.74	0.086
901.92	0.086
902.10	0.087
902.28	0.087
902.45	0.087
902.63	0.087
902.81	0.087
902.99	0.087
903.16	0.087
903.34	0.087
903.52	0.087
903.69	0.087
903.87	0.087
904.05	0.087
904.22	0.088
904.40	0.087
904.58	0.087
904.76	0.087
904.93	0.087
905.11	0.088
905.29	0.088
905.46	0.088
905.64	0.088
905.82	0.088
905.99	0.088
906.17	0.088
906.35	0.088
906.53	0.088
906.70	0.088
906.88	0.088
907.06	0.088
907.23	0.088
907.41	0.088
907.59	0.088
907.76	0.088
907.94	0.088
908.12	0.088
908.29	0.088
908.47	0.089
908.65	0.089
908.82	0.088
909.00	0.088
909.18	0.089
909.35	0.089
909.53	0.089
909.71	0.089
909.88	0.090
910.06	0.089
910.23	0.090
910.41	0.090
910.59	0.090
910.76	0.090
910.94	0.090
911.12	0.089
911.29	0.090
911.47	0.090
911.65	0.090
911.82	0.090
912.00	0.090
912.17	0.090
912.35	0.091
912.53	0.091
912.70	0.091
912.88	0.091
913.06	0.092
913.23	0.091
913.41	0.092
913.58	0.092
913.76	0.092
913.94	0.092
914.11	0.092
914.29	0.092
914.46	0.092
914.64	0.092
914.82	0.092
914.99	0.093
915.17	0.092
915.34	0.092
915.52	0.093
915.70	0.093
915.87	0.093
916.05	0.093
916.22	0.093
916.40	0.093
916.57	0.093
916.75	0.094
916.93	0.094
917.10	0.093
917.28	0.093
917.45	0.093
917.63	0.093
917.80	0.093
917.98	0.093
918.16	0.093
918.33	0.094
918.51	0.094
918.68	0.093
918.86	0.094
919.03	0.094
919.21	0.095
919.39	0.095
919.56	0.096
919.74	0.096
919.91	0.096
920.09	0.096
920.26	0.096
920.44	0.096
920.61	0.096
920.79	0.096
920.96	0.096
921.14	0.096
921.31	0.097
921.49	0.097
921.67	0.097
921.84	0.097
922.02	0.098
922.19	0.098
922.37	0.098
922.54	0.099
922.72	0.099
922.89	0.100
923.07	0.100
923.24	0.100
923.42	0.100
923.59	0.100
923.77	0.100
923.94	0.101
924.12	0.101
924.29	0.102
924.47	0.102
924.64	0.102
924.82	0.102
924.99	0.103
925.17	0.103
925.34	0.104
925.52	0.104
925.69	0.104
925.87	0.105
926.04	0.105
926.22	0.105
926.39	0.105
926.57	0.106
926.74	0.105
926.91	0.106
927.09	0.106
927.26	0.106
927.44	0.106
927.61	0.106
927.79	0.107
927.96	0.108
928.14	0.108
928.31	0.108
928.49	0.108
928.66	0.109
928.84	0.110
929.01	0.110
929.18	0.110
929.36	0.111
929.53	0.112
929.71	0.111
929.88	0.112
930.06	0.112
930.23	0.112
930.41	0.113
930.58	0.114
930.75	0.114
930.93	0.114
931.10	0.114
931.28	0.115
931.45	0.116
931.63	0.116
931.80	0.116
931.97	0.117
932.15	0.117
932.32	0.117
932.50	0.117
932.67	0.118
932.84	0.118
933.02	0.119
933.19	0.119
933.37	0.120
933.54	0.120
933.71	0.121
933.89	0.122
934.06	0.122
934.24	0.123
934.41	0.123
934.58	0.124
934.76	0.124
934.93	0.125
935.11	0.125
935.28	0.125
935.45	0.126
935.63	0.126
935.80	0.127
935.98	0.128
936.15	0.128
936.32	0.129
936.50	0.129
936.67	0.130
936.84	0.130
937.02	0.131
937.19	0.132
937.36	0.132
937.54	0.132
937.71	0.133
937.89	0.133
938.06	0.134
938.23	0.134
938.41	0.134
938.58	0.135
938.75	0.135
938.93	0.136
939.10	0.136
939.27	0.136
939.45	0.137
939.62	0.138
939.79	0.139
939.97	0.139
940.14	0.140
940.31	0.141
940.49	0.141
940.66	0.141
940.83	0.142
941.01	0.143
941.18	0.144
941.35	0.144
941.53	0.145
941.70	0.145
941.87	0.146
942.05	0.146
942.22	0.147
942.39	0.148
942.57	0.148
942.74	0.149
942.91	0.149
943.08	0.150
943.26	0.150
943.43	0.151
943.60	0.152
943.78	0.152
943.95	0.153
944.12	0.153
944.29	0.154
944.47	0.155
944.64	0.156
944.81	0.158
944.99	0.158
945.16	0.159
945.33	0.159
945.50	0.160
945.68	0.161
945.85	0.161
946.02	0.163
946.20	0.164
946.37	0.165
946.54	0.165
946.71	0.166
946.89	0.166
947.06	0.167
947.23	0.168
947.40	0.169
947.58	0.170
947.75	0.171
947.92	0.171
948.09	0.172
948.27	0.173
948.44	0.174
948.61	0.175
948.78	0.176
948.96	0.178
949.13	0.178
949.30	0.179
949.47	0.180
949.65	0.181
949.82	0.183
949.99	0.183
950.16	0.185
950.33	0.186
950.51	0.188
950.68	0.189
950.85	0.190
951.02	0.192
951.20	0.193
951.37	0.194
951.54	0.195
951.71	0.196
951.88	0.197
952.06	0.198
952.23	0.199
952.40	0.200
952.57	0.201
952.74	0.202
952.92	0.203
953.09	0.205
953.26	0.206
953.43	0.208
953.60	0.209
953.77	0.210
953.95	0.211
954.12	0.213
954.29	0.214
954.46	0.216
954.63	0.217
954.81	0.218
954.98	0.219
955.15	0.221
955.32	0.222
955.49	0.222
955.66	0.224
955.84	0.225
956.01	0.225
956.18	0.227
956.35	0.229
956.52	0.229
956.69	0.231
956.87	0.231
957.04	0.232
957.21	0.234
957.38	0.233
957.55	0.234
957.72	0.235
957.89	0.236
958.07	0.236
958.24	0.239
958.41	0.240
958.58	0.240
958.75	0.241
958.92	0.242
959.09	0.243
959.26	0.244
959.44	0.244
959.61	0.246
959.78	0.246
959.95	0.248
960.12	0.247
960.29	0.249
960.46	0.249
960.63	0.249
960.81	0.249
960.98	0.250
961.15	0.250
961.32	0.251
961.49	0.251
961.66	0.252
961.83	0.252
962.00	0.252
962.17	0.253
962.34	0.253
962.52	0.254
962.69	0.255
962.86	0.255
963.03	0.256
963.20	0.256
963.37	0.255
963.54	0.256
963.71	0.256
963.88	0.256
964.05	0.256
964.22	0.258
964.39	0.257
964.56	0.257
964.74	0.258
964.91	0.258
965.08	0.259
965.25	0.259
965.42	0.260
965.59	0.260
965.76	0.260
965.93	0.262
966.10	0.259
966.27	0.260
966.44	0.260
966.61	0.261
966.78	0.260
966.95	0.260
967.12	0.261
967.29	0.263
967.46	0.262
967.63	0.261
967.80	0.262
967.97	0.262
968.14	0.262
968.32	0.263
968.49	0.263
968.66	0.262
968.83	0.263
969.00	0.263
969.17	0.262
969.34	0.263
969.51	0.264
969.68	0.263
969.85	0.264
970.02	0.264
970.19	0.264
970.36	0.265
970.53	0.264
970.70	0.263
970.87	0.264
971.04	0.263
971.21	0.263
971.38	0.264
971.55	0.264
971.72	0.264
971.89	0.265
972.06	0.264
972.23	0.264
972.40	0.264
972.57	0.263
972.74	0.263
972.91	0.264
973.07	0.264
973.24	0.263
973.41	0.264
973.58	0.262
973.75	0.274
973.92	0.262
974.09	0.262
974.26	0.262
974.43	0.261
974.60	0.262
974.77	0.263
974.94	0.262
975.11	0.263
975.28	0.264
975.45	0.262
975.62	0.263
975.79	0.265
975.96	0.263
976.13	0.262
976.30	0.264
976.47	0.262
976.64	0.262
976.80	0.263
976.97	0.263
977.14	0.263
977.31	0.263
977.48	0.264
977.65	0.263
977.82	0.262
977.99	0.264
978.16	0.263
978.33	0.263
978.50	0.262
978.67	0.262
978.83	0.261
979.00	0.261
979.17	0.261
979.34	0.260
979.51	0.260
979.68	0.261
979.85	0.260
980.02	0.260
980.19	0.258
980.36	0.260
980.52	0.261
980.69	0.259
980.86	0.260
981.03	0.259
981.20	0.258
981.37	0.259
981.54	0.259
981.71	0.259
981.88	0.260
982.04	0.259
982.21	0.258
982.38	0.260
982.55	0.258
982.72	0.257
982.89	0.258
983.06	0.256
983.22	0.256
983.39	0.256
983.56	0.256
983.73	0.255
983.90	0.254
984.07	0.257
984.24	0.255
984.40	0.255
984.57	0.254
984.74	0.256
984.91	0.256
985.08	0.254
985.25	0.252
985.41	0.253
985.58	0.252
985.75	0.253
985.92	0.252
986.09	0.250
986.26	0.251
986.42	0.250
986.59	0.248
986.76	0.250
986.93	0.251
987.10	0.251
987.27	0.249
987.43	0.248
987.60	0.249
987.77	0.249
987.94	0.247
988.11	0.249
988.27	0.248
988.44	0.248
988.61	0.247
988.78	0.245
988.95	0.245
989.11	0.247
989.28	0.245
989.45	0.245
989.62	0.245
989.79	0.245
989.95	0.243
990.12	0.244
990.29	0.245
990.46	0.243
990.62	0.242
990.79	0.242
990.96	0.242
991.13	0.242
991.30	0.240
991.46	0.239
991.63	0.238
991.80	0.237
991.97	0.237
992.13	0.237
992.30	0.238
992.47	0.236
992.64	0.236
992.80	0.236
992.97	0.237
993.14	0.235
993.31	0.233
993.47	0.235
993.64	0.233
993.81	0.233
993.98	0.233
994.14	0.232
994.31	0.231
994.48	0.232
994.64	0.232
994.81	0.231
994.98	0.231
995.15	0.228
995.31	0.229
995.48	0.228
995.65	0.230
995.82	0.227
995.98	0.227
996.15	0.228
996.32	0.229
996.48	0.228
996.65	0.228
996.82	0.226
996.99	0.226
997.15	0.226
997.32	0.228
997.49	0.225
997.65	0.226
997.82	0.225
997.99	0.223
998.15	0.224
998.32	0.226
998.49	0.225
998.65	0.225
998.82	0.225
998.99	0.222
999.15	0.223
999.32	0.222
999.49	0.222
999.65	0.223
999.82	0.220
999.99	0.221
1000.15	0.221
1000.32	0.221
1000.49	0.221
1000.65	0.219
1000.82	0.219
1000.99	0.220
1001.15	0.219
1001.32	0.219
1001.49	0.218
1001.65	0.218
1001.82	0.220
1001.99	0.216
1002.15	0.215
1002.32	0.215
1002.49	0.215
1002.65	0.213
1002.82	0.212
1002.99	0.211
1003.15	0.213
1003.32	0.212
1003.48	0.212
1003.65	0.212
1003.82	0.210
1003.98	0.207
1004.15	0.208
1004.32	0.209
1004.48	0.209
1004.65	0.209
1004.81	0.207
1004.98	0.206
1005.15	0.207
1005.31	0.206
1005.48	0.204
1005.64	0.204
1005.81	0.207
1005.98	0.203
1006.14	0.203
1006.31	0.203
1006.47	0.203
1006.64	0.202
1006.81	0.202
1006.97	0.202
1007.14	0.202
1007.30	0.203
1007.47	0.202
1007.63	0.200
1007.80	0.199
1007.97	0.199
1008.13	0.200
1008.30	0.199
1008.46	0.198
1008.63	0.197
1008.79	0.197
1008.96	0.197
1009.13	0.198
1009.29	0.196
1009.46	0.196
1009.62	0.196
1009.79	0.194
1009.95	0.193
1010.12	0.195
1010.28	0.195
1010.45	0.194
1010.62	0.193
1010.78	0.192
1010.95	0.191
1011.11	0.192
1011.28	0.191
1011.44	0.192
1011.61	0.190
1011.77	0.189
1011.94	0.188
1012.10	0.188
1012.27	0.188
1012.43	0.188
1012.60	0.187
1012.76	0.187
1012.93	0.187
1013.10	0.186
1013.26	0.184
1013.43	0.185
1013.59	0.192
1013.76	0.185
1013.92	0.183
1014.09	0.182
1014.25	0.183
1014.42	0.185
1014.58	0.184
1014.75	0.186
1014.91	0.184
1015.08	0.185
1015.24	0.182
1015.41	0.182
1015.57	0.183
1015.73	0.181
1015.90	0.180
1016.06	0.182
1016.23	0.179
1016.39	0.180
1016.56	0.181
1016.72	0.179
1016.89	0.179
1017.05	0.181
1017.22	0.178
1017.38	0.178
1017.55	0.176
1017.71	0.177
1017.88	0.176
1018.04	0.177
1018.21	0.174
1018.37	0.173
1018.53	0.174
1018.70	0.172
1018.86	0.171
1019.03	0.173
1019.19	0.172
1019.36	0.171
1019.52	0.173
1019.69	0.174
1019.85	0.173
1020.01	0.173
1020.18	0.172
1020.34	0.171
1020.51	0.171
1020.67	0.173
1020.84	0.171
1021.00	0.171
1021.16	0.169
1021.33	0.169
1021.49	0.167
1021.66	0.167
1021.82	0.165
1021.98	0.165
1022.15	0.166
1022.31	0.166
1022.48	0.164
1022.64	0.166
1022.80	0.164
1022.97	0.163
1023.13	0.162
1023.30	0.163
1023.46	0.164
1023.62	0.162
1023.79	0.163
1023.95	0.164
1024.12	0.162
1024.28	0.161
1024.44	0.160
1024.61	0.160
1024.77	0.159
1024.93	0.159
1025.10	0.159
1025.26	0.158
1025.43	0.159
1025.59	0.156
1025.75	0.159
1025.92	0.157
1026.08	0.157
1026.24	0.157
1026.41	0.158
1026.57	0.156
1026.73	0.155
1026.90	0.157
1027.06	0.154
1027.23	0.156
1027.39	0.155
1027.55	0.154
1027.72	0.154
1027.88	0.154
1028.04	0.155
1028.21	0.155
1028.37	0.149
1028.53	0.154
1028.70	0.152
1028.86	0.150
1029.02	0.150
1029.19	0.152
1029.35	0.151
1029.51	0.149
1029.67	0.149
1029.84	0.150
1030.00	0.145
1030.16	0.147
1030.33	0.148
1030.49	0.145
1030.65	0.143
1030.82	0.158
1030.98	0.145
1031.14	0.144
1031.31	0.145
1031.47	0.142
1031.63	0.145
1031.79	0.144
1031.96	0.145
1032.12	0.147
1032.28	0.145
1032.45	0.149
1032.61	0.148
1032.77	0.147
1032.93	0.146
1033.10	0.147
1033.26	0.149
1033.42	0.147
1033.58	0.147
1033.75	0.147
1033.91	0.145
1034.07	0.148
1034.24	0.146
1034.40	0.145
1034.56	0.145
1034.72	0.146
1034.89	0.146
1035.05	0.143
1035.21	0.144
1035.37	0.143
1035.54	0.147
1035.70	0.144
1035.86	0.143
1036.02	0.144
1036.19	0.141
1036.35	0.139
1036.51	0.143
1036.67	0.141
1036.83	0.141
1037.00	0.139
1037.16	0.139
1037.32	0.139
1037.48	0.139
1037.65	0.143
1037.81	0.139
1037.97	0.139
1038.13	0.139
1038.29	0.137
1038.46	0.135
1038.62	0.139
1038.78	0.137
1038.94	0.133
1039.10	0.137
1039.27	0.133
1039.43	0.135
1039.59	0.135
1039.75	0.135
1039.91	0.133
1040.08	0.132
1040.24	0.135
1040.40	0.136
1040.56	0.136
1040.72	0.131
1040.89	0.134
1041.05	0.136
1041.21	0.134
1041.37	0.131
1041.53	0.137
1041.69	0.134
1041.86	0.134
1042.02	0.130
1042.18	0.130
1042.34	0.129
1042.50	0.134
1042.66	0.130
1042.83	0.129
1042.99	0.131
1043.15	0.128
1043.31	0.129
1043.47	0.134
1043.63	0.130
1043.79	0.130
1043.96	0.131
1044.12	0.135
1044.28	0.131
1044.44	0.134
1044.60	0.129
1044.76	0.128
1044.92	0.130
1045.09	0.130
1045.25	0.127
1045.41	0.128
1045.57	0.123
1045.73	0.123
1045.89	0.124
1046.05	0.127
1046.21	0.132
1046.38	0.121
1046.54	0.139
1046.70	0.122
1046.86	0.126
>>>>>End Processed Spectral Data<<<<<
