SpectraSuite Data File
++++++++++++++++++++++++++++++++++++
Date: Mon May 20 12:13:29 CDT 2013
User: Students
Dark Spectrum Present: Yes
Reference Spectrum Present: Yes
Number of Sampled Component Spectra: 1
Spectrometers: USB4H00887
Integration Time (usec): 60000 (USB4H00887)
Spectra Averaged: 5 (USB4H00887)
Boxcar Smoothing: 5 (USB4H00887)
Correct for Electrical Dark: No (USB4H00887)
Strobe/Lamp Enabled: No (USB4H00887)
Correct for Detector Non-linearity: No (USB4H00887)
Correct for Stray Light: No (USB4H00887)
Number of Pixels in Processed Spectrum: 3648
>>>>>Begin Processed Spectral Data<<<<<
345.83	0.090
346.05	0.090
346.26	0.090
346.48	-0.000
346.70	0.095
346.92	0.041
347.14	0.047
347.35	0.032
347.57	0.210
347.79	-0.194
348.01	-0.141
348.23	-0.246
348.44	-0.000
348.66	0.179
348.88	-0.152
349.10	0.081
349.32	-0.008
349.53	0.043
349.75	0.042
349.97	0.056
350.19	0.091
350.41	0.062
350.62	0.022
350.84	-0.009
351.06	-0.015
351.28	-0.052
351.50	-0.242
351.71	-0.162
351.93	-0.156
352.15	-0.025
352.37	-0.116
352.58	-0.007
352.80	0.015
353.02	0.055
353.24	0.081
353.46	0.431
353.67	-0.178
353.89	0.070
354.11	0.068
354.33	0.091
354.54	0.130
354.76	0.211
354.98	0.238
355.20	0.217
355.41	0.096
355.63	0.172
355.85	0.092
356.07	-0.000
356.28	0.085
356.50	0.126
356.72	0.054
356.94	0.127
357.15	0.204
357.37	-0.000
357.59	0.120
357.81	0.075
358.02	0.111
358.24	0.082
358.46	0.195
358.68	0.191
358.89	0.114
359.11	-0.000
359.33	0.082
359.55	-0.508
359.76	0.108
359.98	0.125
360.20	0.122
360.42	0.105
360.63	0.133
360.85	0.070
361.07	0.285
361.29	0.050
361.50	0.106
361.72	0.053
361.94	0.268
362.15	0.099
362.37	0.054
362.59	0.050
362.81	0.093
363.02	0.118
363.24	0.203
363.46	0.142
363.68	0.195
363.89	0.137
364.11	0.181
364.33	0.187
364.54	0.151
364.76	0.173
364.98	0.195
365.20	0.189
365.41	0.121
365.63	0.129
365.85	0.073
366.06	0.206
366.28	0.185
366.50	0.150
366.71	0.080
366.93	0.079
367.15	0.074
367.37	0.072
367.58	0.108
367.80	0.134
368.02	0.405
368.23	0.140
368.45	0.135
368.67	0.114
368.88	0.104
369.10	-0.000
369.32	0.095
369.53	0.064
369.75	0.113
369.97	0.258
370.19	0.160
370.40	0.071
370.62	0.239
370.84	0.101
371.05	0.676
371.27	0.171
371.49	0.187
371.70	0.198
371.92	0.296
372.14	0.119
372.35	0.118
372.57	0.145
372.79	0.370
373.00	0.090
373.22	0.126
373.44	0.121
373.65	0.104
373.87	0.150
374.09	0.615
374.30	0.138
374.52	0.153
374.74	0.114
374.95	0.442
375.17	0.131
375.39	-0.000
375.60	0.181
375.82	0.334
376.04	0.137
376.25	0.173
376.47	0.106
376.68	0.272
376.90	0.148
377.12	0.356
377.33	0.163
377.55	0.365
377.77	0.162
377.98	0.196
378.20	0.116
378.42	0.119
378.63	0.140
378.85	-0.000
379.07	0.092
379.28	0.279
379.50	0.193
379.71	0.103
379.93	0.066
380.15	0.096
380.36	0.153
380.58	0.101
380.80	0.281
381.01	0.102
381.23	0.086
381.44	0.102
381.66	0.133
381.88	0.184
382.09	-0.086
382.31	0.137
382.53	0.138
382.74	0.821
382.96	0.216
383.17	0.185
383.39	0.243
383.61	0.309
383.82	0.201
384.04	0.230
384.25	0.260
384.47	0.246
384.69	0.255
384.90	0.245
385.12	0.512
385.33	0.304
385.55	0.234
385.77	0.373
385.98	0.193
386.20	0.293
386.41	0.244
386.63	0.264
386.85	0.219
387.06	0.260
387.28	0.418
387.49	0.255
387.71	0.189
387.93	0.167
388.14	0.468
388.36	0.199
388.57	0.166
388.79	0.194
389.01	1.311
389.22	0.257
389.44	0.218
389.65	0.178
389.87	0.183
390.08	0.213
390.30	0.168
390.52	0.328
390.73	0.328
390.95	0.226
391.16	0.209
391.38	-0.000
391.59	0.240
391.81	0.209
392.03	0.187
392.24	0.222
392.46	0.182
392.67	0.155
392.89	0.216
393.10	0.328
393.32	0.237
393.53	0.280
393.75	0.186
393.97	0.215
394.18	0.314
394.40	0.279
394.61	0.311
394.83	0.283
395.04	0.327
395.26	0.218
395.47	0.327
395.69	0.278
395.91	0.301
396.12	0.340
396.34	0.335
396.55	0.205
396.77	0.315
396.98	1.445
397.20	0.394
397.41	0.519
397.63	0.347
397.84	0.319
398.06	0.312
398.27	0.330
398.49	0.392
398.71	0.295
398.92	0.368
399.14	0.476
399.35	0.591
399.57	0.501
399.78	0.298
400.00	0.295
400.21	0.359
400.43	0.285
400.64	0.283
400.86	0.631
401.07	0.328
401.29	0.291
401.50	0.312
401.72	0.454
401.93	0.303
402.15	0.380
402.36	0.339
402.58	0.285
402.79	0.312
403.01	0.546
403.22	0.411
403.44	0.282
403.65	0.451
403.87	0.502
404.08	0.384
404.30	0.679
404.51	0.356
404.73	0.457
404.94	0.387
405.16	0.404
405.37	0.312
405.59	0.595
405.80	0.350
406.02	0.430
406.23	0.424
406.45	0.481
406.66	0.476
406.88	0.312
407.09	0.496
407.31	0.385
407.52	0.475
407.74	0.389
407.95	0.482
408.17	0.458
408.38	0.492
408.60	0.320
408.81	0.561
409.03	0.419
409.24	0.412
409.45	0.452
409.67	0.442
409.88	0.400
410.10	0.517
410.31	0.435
410.53	0.408
410.74	0.581
410.96	0.567
411.17	0.594
411.39	0.441
411.60	0.406
411.82	0.484
412.03	0.461
412.24	0.430
412.46	0.629
412.67	0.480
412.89	0.477
413.10	0.479
413.32	0.422
413.53	0.474
413.75	0.485
413.96	0.364
414.17	0.473
414.39	0.487
414.60	0.409
414.82	0.533
415.03	0.416
415.25	0.461
415.46	0.319
415.68	0.456
415.89	0.873
416.10	0.691
416.32	0.386
416.53	0.468
416.75	0.439
416.96	0.526
417.18	0.461
417.39	0.438
417.60	0.443
417.82	0.639
418.03	0.567
418.25	0.473
418.46	0.511
418.67	0.458
418.89	0.485
419.10	0.510
419.32	0.697
419.53	0.623
419.75	0.533
419.96	0.463
420.17	0.601
420.39	0.556
420.60	0.569
420.82	0.701
421.03	0.555
421.24	0.464
421.46	0.514
421.67	0.554
421.89	0.469
422.10	0.504
422.31	0.505
422.53	0.702
422.74	0.517
422.96	0.415
423.17	0.465
423.38	0.578
423.60	0.494
423.81	0.613
424.03	0.534
424.24	0.613
424.45	0.605
424.67	0.586
424.88	0.535
425.09	0.579
425.31	0.539
425.52	0.566
425.74	0.637
425.95	0.681
426.16	0.528
426.38	0.620
426.59	0.558
426.80	0.653
427.02	0.688
427.23	0.522
427.45	0.683
427.66	0.661
427.87	0.511
428.09	0.549
428.30	0.612
428.51	0.595
428.73	0.649
428.94	0.569
429.15	0.551
429.37	0.532
429.58	0.559
429.79	0.520
430.01	0.630
430.22	0.625
430.44	0.638
430.65	0.572
430.86	0.623
431.08	0.600
431.29	0.550
431.50	0.657
431.72	0.886
431.93	0.700
432.14	0.525
432.36	0.568
432.57	0.582
432.78	0.607
433.00	0.559
433.21	0.552
433.42	0.699
433.64	0.602
433.85	0.695
434.06	0.558
434.28	0.592
434.49	0.610
434.70	0.627
434.92	0.635
435.13	0.667
435.34	0.668
435.56	0.622
435.77	0.615
435.98	0.792
436.20	0.651
436.41	0.568
436.62	0.558
436.83	0.636
437.05	0.719
437.26	0.633
437.47	0.570
437.69	0.629
437.90	0.577
438.11	0.573
438.33	0.636
438.54	0.656
438.75	0.844
438.97	0.820
439.18	0.606
439.39	0.639
439.60	0.701
439.82	0.656
440.03	0.609
440.24	0.933
440.46	0.673
440.67	0.647
440.88	0.696
441.10	0.649
441.31	0.646
441.52	0.699
441.73	0.784
441.95	0.681
442.16	0.629
442.37	1.002
442.58	0.607
442.80	0.595
443.01	0.772
443.22	0.706
443.44	0.593
443.65	0.702
443.86	0.710
444.07	0.760
444.29	0.653
444.50	0.846
444.71	0.637
444.92	0.589
445.14	0.743
445.35	0.793
445.56	0.622
445.78	0.742
445.99	0.739
446.20	0.630
446.41	0.710
446.63	0.718
446.84	0.671
447.05	0.673
447.26	0.825
447.48	0.705
447.69	0.663
447.90	0.758
448.11	0.669
448.33	0.700
448.54	0.720
448.75	0.761
448.96	0.767
449.18	0.814
449.39	0.720
449.60	0.700
449.81	0.852
450.03	0.736
450.24	0.797
450.45	0.750
450.66	0.731
450.87	0.768
451.09	0.710
451.30	0.685
451.51	0.760
451.72	0.776
451.94	0.793
452.15	0.861
452.36	0.710
452.57	0.736
452.78	0.734
453.00	0.762
453.21	0.716
453.42	0.693
453.63	0.799
453.85	0.763
454.06	0.758
454.27	0.902
454.48	0.803
454.69	0.729
454.91	0.803
455.12	0.698
455.33	0.791
455.54	0.809
455.75	0.772
455.97	0.797
456.18	0.778
456.39	0.779
456.60	0.805
456.81	0.738
457.03	0.745
457.24	0.745
457.45	0.843
457.66	0.789
457.87	0.744
458.09	0.769
458.30	0.678
458.51	0.818
458.72	0.850
458.93	0.864
459.15	0.754
459.36	0.829
459.57	0.858
459.78	0.906
459.99	0.801
460.20	0.760
460.42	0.851
460.63	0.807
460.84	0.782
461.05	0.802
461.26	0.863
461.47	0.772
461.69	0.824
461.90	0.862
462.11	0.812
462.32	0.870
462.53	0.801
462.74	0.897
462.96	0.770
463.17	0.760
463.38	0.801
463.59	0.915
463.80	0.760
464.01	0.785
464.23	0.872
464.44	0.833
464.65	0.843
464.86	0.869
465.07	0.880
465.28	0.848
465.49	0.870
465.71	0.819
465.92	0.865
466.13	0.918
466.34	0.841
466.55	0.895
466.76	0.849
466.97	0.881
467.19	0.868
467.40	0.906
467.61	0.902
467.82	0.823
468.03	0.805
468.24	0.877
468.45	0.911
468.66	0.892
468.88	0.907
469.09	0.912
469.30	0.961
469.51	0.876
469.72	0.919
469.93	0.888
470.14	0.865
470.35	0.966
470.57	0.910
470.78	0.847
470.99	0.995
471.20	0.919
471.41	0.871
471.62	0.923
471.83	0.899
472.04	0.936
472.25	0.980
472.47	0.887
472.68	0.892
472.89	0.902
473.10	0.947
473.31	0.891
473.52	0.962
473.73	0.988
473.94	0.903
474.15	0.926
474.36	0.926
474.57	0.957
474.79	0.926
475.00	0.928
475.21	0.904
475.42	1.000
475.63	0.898
475.84	0.931
476.05	0.937
476.26	0.905
476.47	0.943
476.68	0.995
476.89	0.916
477.10	0.972
477.32	0.956
477.53	1.025
477.74	0.941
477.95	0.986
478.16	0.925
478.37	0.976
478.58	0.978
478.79	0.993
479.00	0.990
479.21	0.942
479.42	0.986
479.63	0.992
479.84	0.946
480.05	0.942
480.26	0.976
480.47	1.001
480.69	1.002
480.90	0.966
481.11	0.963
481.32	1.032
481.53	0.966
481.74	1.021
481.95	0.980
482.16	0.999
482.37	1.009
482.58	0.966
482.79	0.984
483.00	1.012
483.21	0.949
483.42	0.920
483.63	1.001
483.84	1.031
484.05	1.023
484.26	0.991
484.47	0.991
484.68	0.947
484.89	0.957
485.10	1.007
485.31	0.986
485.52	0.996
485.73	0.994
485.94	1.041
486.15	0.984
486.37	0.998
486.58	0.966
486.79	0.979
487.00	1.035
487.21	1.027
487.42	1.024
487.63	1.028
487.84	1.048
488.05	1.047
488.26	1.001
488.47	1.010
488.68	1.043
488.89	1.015
489.10	1.010
489.31	1.020
489.52	1.060
489.73	1.022
489.94	1.062
490.15	1.013
490.36	1.056
490.57	1.004
490.78	0.983
490.99	1.026
491.20	1.112
491.41	1.058
491.62	0.997
491.83	1.027
492.04	1.022
492.25	1.035
492.45	1.033
492.66	1.061
492.87	1.047
493.08	1.033
493.29	1.014
493.50	1.001
493.71	1.011
493.92	1.005
494.13	1.021
494.34	1.040
494.55	1.043
494.76	1.077
494.97	1.067
495.18	1.030
495.39	1.049
495.60	0.995
495.81	0.999
496.02	1.021
496.23	1.017
496.44	1.052
496.65	1.043
496.86	1.054
497.07	1.084
497.28	1.078
497.49	1.022
497.70	1.024
497.91	1.051
498.12	1.032
498.32	1.077
498.53	1.058
498.74	1.045
498.95	1.075
499.16	1.022
499.37	1.027
499.58	1.040
499.79	1.071
500.00	1.065
500.21	1.095
500.42	1.032
500.63	1.034
500.84	1.052
501.05	1.027
501.26	1.052
501.46	1.095
501.67	1.052
501.88	1.053
502.09	1.028
502.30	1.038
502.51	1.089
502.72	1.040
502.93	1.056
503.14	1.083
503.35	1.054
503.56	1.051
503.77	1.084
503.97	1.059
504.18	1.058
504.39	1.099
504.60	1.066
504.81	1.097
505.02	1.085
505.23	1.089
505.44	1.068
505.65	1.075
505.86	1.055
506.07	1.129
506.27	1.081
506.48	1.085
506.69	1.063
506.90	1.086
507.11	1.084
507.32	1.059
507.53	1.064
507.74	1.058
507.95	1.073
508.15	1.083
508.36	1.086
508.57	1.101
508.78	1.084
508.99	1.085
509.20	1.056
509.41	1.085
509.62	1.071
509.82	1.070
510.03	1.080
510.24	1.080
510.45	1.102
510.66	1.091
510.87	1.088
511.08	1.042
511.29	1.089
511.49	1.062
511.70	1.109
511.91	1.038
512.12	1.034
512.33	1.069
512.54	1.086
512.75	1.070
512.95	1.099
513.16	1.086
513.37	1.061
513.58	1.099
513.79	1.061
514.00	1.068
514.20	1.090
514.41	1.078
514.62	1.042
514.83	1.087
515.04	1.076
515.25	1.054
515.46	1.069
515.66	1.072
515.87	1.087
516.08	1.054
516.29	1.079
516.50	1.056
516.71	1.050
516.91	1.063
517.12	1.079
517.33	1.062
517.54	1.046
517.75	1.048
517.95	1.062
518.16	1.073
518.37	1.035
518.58	1.042
518.79	1.013
519.00	1.048
519.20	1.057
519.41	1.031
519.62	1.054
519.83	1.065
520.04	1.024
520.24	1.022
520.45	1.034
520.66	1.059
520.87	1.020
521.08	1.020
521.28	1.024
521.49	1.040
521.70	1.007
521.91	1.020
522.12	1.000
522.32	1.029
522.53	1.008
522.74	0.997
522.95	1.007
523.16	1.009
523.36	1.019
523.57	0.998
523.78	0.993
523.99	1.000
524.20	0.991
524.40	1.005
524.61	1.011
524.82	0.983
525.03	0.989
525.23	0.990
525.44	0.972
525.65	0.969
525.86	0.993
526.06	0.962
526.27	0.962
526.48	0.974
526.69	0.955
526.90	0.958
527.10	0.997
527.31	0.950
527.52	0.944
527.73	0.937
527.93	0.949
528.14	0.954
528.35	0.943
528.56	0.945
528.76	0.938
528.97	0.926
529.18	0.916
529.39	0.917
529.59	0.920
529.80	0.953
530.01	0.924
530.22	0.923
530.42	0.891
530.63	0.911
530.84	0.885
531.05	0.899
531.25	0.902
531.46	0.895
531.67	0.871
531.88	0.890
532.08	0.882
532.29	0.876
532.50	0.868
532.70	0.862
532.91	0.852
533.12	0.855
533.33	0.883
533.53	0.852
533.74	0.853
533.95	0.859
534.15	0.846
534.36	0.847
534.57	0.830
534.78	0.830
534.98	0.841
535.19	0.809
535.40	0.812
535.60	0.831
535.81	0.810
536.02	0.812
536.23	0.802
536.43	0.803
536.64	0.790
536.85	0.797
537.05	0.807
537.26	0.785
537.47	0.788
537.67	0.776
537.88	0.771
538.09	0.780
538.30	0.769
538.50	0.760
538.71	0.772
538.92	0.758
539.12	0.755
539.33	0.748
539.54	0.748
539.74	0.754
539.95	0.743
540.16	0.740
540.36	0.730
540.57	0.730
540.78	0.722
540.98	0.722
541.19	0.721
541.40	0.708
541.60	0.719
541.81	0.713
542.02	0.712
542.22	0.701
542.43	0.696
542.64	0.690
542.84	0.690
543.05	0.681
543.26	0.681
543.46	0.686
543.67	0.683
543.88	0.679
544.08	0.667
544.29	0.662
544.50	0.663
544.70	0.664
544.91	0.656
545.12	0.657
545.32	0.653
545.53	0.656
545.74	0.642
545.94	0.640
546.15	0.638
546.35	0.636
546.56	0.632
546.77	0.628
546.97	0.625
547.18	0.616
547.39	0.616
547.59	0.614
547.80	0.610
548.01	0.615
548.21	0.609
548.42	0.600
548.62	0.600
548.83	0.598
549.04	0.594
549.24	0.587
549.45	0.586
549.65	0.583
549.86	0.579
550.07	0.578
550.27	0.574
550.48	0.583
550.69	0.569
550.89	0.568
551.10	0.564
551.30	0.563
551.51	0.563
551.72	0.552
551.92	0.554
552.13	0.554
552.33	0.554
552.54	0.549
552.75	0.541
552.95	0.543
553.16	0.537
553.36	0.534
553.57	0.532
553.78	0.530
553.98	0.530
554.19	0.521
554.39	0.518
554.60	0.521
554.80	0.520
555.01	0.512
555.22	0.514
555.42	0.511
555.63	0.505
555.83	0.508
556.04	0.500
556.25	0.502
556.45	0.493
556.66	0.490
556.86	0.493
557.07	0.491
557.27	0.490
557.48	0.484
557.68	0.481
557.89	0.482
558.10	0.478
558.30	0.475
558.51	0.473
558.71	0.471
558.92	0.467
559.12	0.468
559.33	0.472
559.54	0.466
559.74	0.462
559.95	0.461
560.15	0.460
560.36	0.457
560.56	0.452
560.77	0.452
560.97	0.452
561.18	0.447
561.38	0.446
561.59	0.449
561.79	0.444
562.00	0.441
562.21	0.438
562.41	0.437
562.62	0.436
562.82	0.434
563.03	0.431
563.23	0.430
563.44	0.429
563.64	0.426
563.85	0.427
564.05	0.420
564.26	0.420
564.46	0.418
564.67	0.419
564.87	0.414
565.08	0.411
565.28	0.411
565.49	0.411
565.69	0.408
565.90	0.404
566.10	0.406
566.31	0.400
566.51	0.401
566.72	0.401
566.92	0.395
567.13	0.395
567.33	0.393
567.54	0.392
567.74	0.390
567.95	0.386
568.15	0.388
568.36	0.387
568.56	0.386
568.77	0.381
568.97	0.380
569.18	0.380
569.38	0.378
569.59	0.378
569.79	0.375
570.00	0.373
570.20	0.372
570.41	0.369
570.61	0.368
570.82	0.369
571.02	0.365
571.23	0.366
571.43	0.362
571.64	0.360
571.84	0.360
572.05	0.358
572.25	0.357
572.45	0.356
572.66	0.353
572.86	0.352
573.07	0.350
573.27	0.351
573.48	0.350
573.68	0.346
573.89	0.345
574.09	0.346
574.30	0.344
574.50	0.342
574.70	0.342
574.91	0.340
575.11	0.340
575.32	0.339
575.52	0.336
575.73	0.335
575.93	0.335
576.14	0.333
576.34	0.331
576.54	0.330
576.75	0.328
576.95	0.327
577.16	0.325
577.36	0.323
577.57	0.323
577.77	0.320
577.97	0.318
578.18	0.319
578.38	0.316
578.59	0.316
578.79	0.314
579.00	0.315
579.20	0.314
579.40	0.313
579.61	0.312
579.81	0.312
580.02	0.310
580.22	0.309
580.42	0.307
580.63	0.307
580.83	0.306
581.04	0.304
581.24	0.303
581.45	0.302
581.65	0.301
581.85	0.300
582.06	0.298
582.26	0.297
582.47	0.296
582.67	0.296
582.87	0.294
583.08	0.292
583.28	0.291
583.48	0.289
583.69	0.286
583.89	0.287
584.10	0.287
584.30	0.285
584.50	0.283
584.71	0.282
584.91	0.282
585.12	0.280
585.32	0.281
585.52	0.278
585.73	0.278
585.93	0.277
586.13	0.276
586.34	0.275
586.54	0.274
586.75	0.273
586.95	0.272
587.15	0.271
587.36	0.270
587.56	0.269
587.76	0.268
587.97	0.267
588.17	0.266
588.37	0.265
588.58	0.265
588.78	0.262
588.98	0.263
589.19	0.262
589.39	0.260
589.60	0.262
589.80	0.259
590.00	0.258
590.21	0.258
590.41	0.256
590.61	0.256
590.82	0.255
591.02	0.255
591.22	0.253
591.43	0.253
591.63	0.251
591.83	0.251
592.04	0.249
592.24	0.250
592.44	0.248
592.65	0.247
592.85	0.248
593.05	0.248
593.26	0.246
593.46	0.245
593.66	0.245
593.86	0.244
594.07	0.242
594.27	0.242
594.47	0.241
594.68	0.240
594.88	0.240
595.08	0.239
595.29	0.239
595.49	0.237
595.69	0.236
595.90	0.235
596.10	0.235
596.30	0.235
596.50	0.234
596.71	0.233
596.91	0.232
597.11	0.231
597.32	0.231
597.52	0.230
597.72	0.229
597.93	0.230
598.13	0.228
598.33	0.228
598.53	0.227
598.74	0.226
598.94	0.226
599.14	0.225
599.35	0.225
599.55	0.224
599.75	0.223
599.95	0.223
600.16	0.223
600.36	0.221
600.56	0.222
600.76	0.220
600.97	0.218
601.17	0.218
601.37	0.218
601.58	0.217
601.78	0.217
601.98	0.216
602.18	0.215
602.39	0.215
602.59	0.214
602.79	0.213
602.99	0.213
603.20	0.213
603.40	0.213
603.60	0.212
603.80	0.211
604.01	0.211
604.21	0.210
604.41	0.210
604.61	0.209
604.82	0.208
605.02	0.208
605.22	0.208
605.42	0.207
605.62	0.207
605.83	0.206
606.03	0.205
606.23	0.205
606.43	0.205
606.64	0.205
606.84	0.203
607.04	0.203
607.24	0.203
607.45	0.203
607.65	0.202
607.85	0.203
608.05	0.201
608.25	0.201
608.46	0.200
608.66	0.200
608.86	0.199
609.06	0.198
609.26	0.197
609.47	0.198
609.67	0.196
609.87	0.197
610.07	0.196
610.28	0.194
610.48	0.195
610.68	0.195
610.88	0.193
611.08	0.194
611.29	0.193
611.49	0.192
611.69	0.193
611.89	0.191
612.09	0.191
612.29	0.190
612.50	0.190
612.70	0.190
612.90	0.189
613.10	0.188
613.30	0.187
613.51	0.187
613.71	0.187
613.91	0.190
614.11	0.186
614.31	0.185
614.51	0.185
614.72	0.185
614.92	0.184
615.12	0.184
615.32	0.185
615.52	0.184
615.72	0.185
615.93	0.185
616.13	0.184
616.33	0.184
616.53	0.184
616.73	0.184
616.93	0.183
617.14	0.183
617.34	0.183
617.54	0.183
617.74	0.183
617.94	0.181
618.14	0.181
618.34	0.181
618.55	0.181
618.75	0.181
618.95	0.180
619.15	0.180
619.35	0.179
619.55	0.178
619.75	0.179
619.96	0.178
620.16	0.178
620.36	0.178
620.56	0.177
620.76	0.177
620.96	0.176
621.16	0.176
621.36	0.176
621.57	0.176
621.77	0.176
621.97	0.175
622.17	0.175
622.37	0.175
622.57	0.175
622.77	0.174
622.97	0.173
623.18	0.174
623.38	0.174
623.58	0.174
623.78	0.173
623.98	0.173
624.18	0.172
624.38	0.171
624.58	0.171
624.78	0.172
624.98	0.171
625.19	0.171
625.39	0.171
625.59	0.170
625.79	0.169
625.99	0.169
626.19	0.169
626.39	0.169
626.59	0.169
626.79	0.169
626.99	0.168
627.19	0.168
627.40	0.168
627.60	0.168
627.80	0.168
628.00	0.168
628.20	0.167
628.40	0.167
628.60	0.167
628.80	0.165
629.00	0.166
629.20	0.165
629.40	0.165
629.60	0.164
629.80	0.164
630.00	0.164
630.20	0.164
630.41	0.163
630.61	0.163
630.81	0.162
631.01	0.162
631.21	0.162
631.41	0.162
631.61	0.163
631.81	0.162
632.01	0.162
632.21	0.162
632.41	0.160
632.61	0.161
632.81	0.161
633.01	0.161
633.21	0.161
633.41	0.162
633.61	0.161
633.81	0.160
634.01	0.159
634.21	0.160
634.41	0.159
634.61	0.160
634.81	0.159
635.01	0.159
635.22	0.159
635.42	0.158
635.62	0.158
635.82	0.158
636.02	0.157
636.22	0.157
636.42	0.156
636.62	0.156
636.82	0.156
637.02	0.156
637.22	0.156
637.42	0.155
637.62	0.155
637.82	0.155
638.02	0.155
638.22	0.155
638.42	0.155
638.62	0.154
638.82	0.154
639.02	0.154
639.22	0.154
639.42	0.154
639.62	0.153
639.82	0.153
640.02	0.152
640.22	0.152
640.42	0.152
640.62	0.152
640.82	0.152
641.02	0.151
641.22	0.152
641.42	0.151
641.61	0.151
641.81	0.151
642.01	0.151
642.21	0.151
642.41	0.151
642.61	0.150
642.81	0.149
643.01	0.149
643.21	0.149
643.41	0.149
643.61	0.148
643.81	0.148
644.01	0.147
644.21	0.147
644.41	0.147
644.61	0.147
644.81	0.147
645.01	0.147
645.21	0.146
645.41	0.146
645.61	0.147
645.81	0.146
646.01	0.146
646.21	0.147
646.40	0.146
646.60	0.146
646.80	0.147
647.00	0.146
647.20	0.145
647.40	0.145
647.60	0.145
647.80	0.145
648.00	0.145
648.20	0.144
648.40	0.144
648.60	0.143
648.80	0.143
649.00	0.143
649.20	0.144
649.39	0.143
649.59	0.143
649.79	0.143
649.99	0.143
650.19	0.142
650.39	0.142
650.59	0.142
650.79	0.142
650.99	0.142
651.19	0.141
651.39	0.141
651.58	0.140
651.78	0.140
651.98	0.140
652.18	0.140
652.38	0.139
652.58	0.140
652.78	0.139
652.98	0.139
653.18	0.139
653.38	0.139
653.57	0.139
653.77	0.139
653.97	0.138
654.17	0.139
654.37	0.138
654.57	0.138
654.77	0.137
654.97	0.137
655.16	0.137
655.36	0.137
655.56	0.136
655.76	0.136
655.96	0.136
656.16	0.135
656.36	0.135
656.56	0.134
656.75	0.135
656.95	0.134
657.15	0.134
657.35	0.134
657.55	0.133
657.75	0.134
657.95	0.133
658.14	0.133
658.34	0.133
658.54	0.133
658.74	0.132
658.94	0.131
659.14	0.131
659.34	0.131
659.53	0.131
659.73	0.131
659.93	0.130
660.13	0.130
660.33	0.130
660.53	0.130
660.72	0.131
660.92	0.131
661.12	0.131
661.32	0.130
661.52	0.130
661.72	0.130
661.91	0.129
662.11	0.129
662.31	0.129
662.51	0.129
662.71	0.128
662.90	0.127
663.10	0.126
663.30	0.126
663.50	0.126
663.70	0.126
663.90	0.126
664.09	0.126
664.29	0.125
664.49	0.125
664.69	0.125
664.89	0.125
665.08	0.125
665.28	0.125
665.48	0.125
665.68	0.124
665.88	0.124
666.07	0.124
666.27	0.124
666.47	0.124
666.67	0.124
666.87	0.124
667.06	0.124
667.26	0.124
667.46	0.124
667.66	0.124
667.85	0.123
668.05	0.123
668.25	0.123
668.45	0.123
668.65	0.123
668.84	0.123
669.04	0.122
669.24	0.121
669.44	0.121
669.63	0.121
669.83	0.121
670.03	0.120
670.23	0.119
670.42	0.119
670.62	0.119
670.82	0.118
671.02	0.118
671.22	0.117
671.41	0.117
671.61	0.117
671.81	0.117
672.01	0.118
672.20	0.117
672.40	0.117
672.60	0.117
672.80	0.117
672.99	0.117
673.19	0.117
673.39	0.117
673.58	0.117
673.78	0.117
673.98	0.116
674.18	0.116
674.37	0.116
674.57	0.116
674.77	0.116
674.97	0.116
675.16	0.116
675.36	0.116
675.56	0.116
675.75	0.115
675.95	0.115
676.15	0.116
676.35	0.115
676.54	0.115
676.74	0.115
676.94	0.115
677.13	0.114
677.33	0.114
677.53	0.114
677.73	0.114
677.92	0.113
678.12	0.113
678.32	0.112
678.51	0.112
678.71	0.112
678.91	0.111
679.11	0.111
679.30	0.111
679.50	0.110
679.70	0.110
679.89	0.110
680.09	0.111
680.29	0.110
680.48	0.110
680.68	0.110
680.88	0.110
681.07	0.110
681.27	0.110
681.47	0.109
681.66	0.109
681.86	0.109
682.06	0.109
682.25	0.108
682.45	0.108
682.65	0.108
682.84	0.108
683.04	0.107
683.24	0.107
683.43	0.107
683.63	0.107
683.83	0.107
684.02	0.107
684.22	0.107
684.42	0.107
684.61	0.107
684.81	0.106
685.01	0.106
685.20	0.106
685.40	0.106
685.60	0.106
685.79	0.106
685.99	0.106
686.19	0.106
686.38	0.106
686.58	0.106
686.77	0.106
686.97	0.105
687.17	0.105
687.36	0.105
687.56	0.104
687.76	0.104
687.95	0.104
688.15	0.104
688.34	0.104
688.54	0.103
688.74	0.103
688.93	0.102
689.13	0.103
689.33	0.103
689.52	0.102
689.72	0.103
689.91	0.102
690.11	0.102
690.31	0.102
690.50	0.102
690.70	0.102
690.89	0.102
691.09	0.101
691.29	0.101
691.48	0.101
691.68	0.101
691.87	0.101
692.07	0.101
692.27	0.100
692.46	0.100
692.66	0.100
692.85	0.099
693.05	0.099
693.25	0.099
693.44	0.099
693.64	0.099
693.83	0.099
694.03	0.099
694.22	0.098
694.42	0.098
694.62	0.099
694.81	0.099
695.01	0.099
695.20	0.099
695.40	0.098
695.59	0.099
695.79	0.098
695.99	0.098
696.18	0.098
696.38	0.097
696.57	0.098
696.77	0.097
696.96	0.097
697.16	0.097
697.36	0.097
697.55	0.097
697.75	0.096
697.94	0.096
698.14	0.097
698.33	0.097
698.53	0.096
698.72	0.096
698.92	0.096
699.11	0.096
699.31	0.096
699.51	0.096
699.70	0.096
699.90	0.096
700.09	0.096
700.29	0.095
700.48	0.095
700.68	0.095
700.87	0.095
701.07	0.094
701.26	0.094
701.46	0.093
701.65	0.093
701.85	0.093
702.04	0.093
702.24	0.093
702.43	0.094
702.63	0.093
702.82	0.093
703.02	0.093
703.21	0.093
703.41	0.093
703.60	0.093
703.80	0.093
703.99	0.093
704.19	0.093
704.38	0.093
704.58	0.092
704.77	0.092
704.97	0.092
705.16	0.092
705.36	0.092
705.55	0.092
705.75	0.091
705.94	0.092
706.14	0.091
706.33	0.092
706.53	0.092
706.72	0.092
706.92	0.091
707.11	0.092
707.31	0.091
707.50	0.091
707.70	0.092
707.89	0.092
708.09	0.091
708.28	0.091
708.48	0.091
708.67	0.091
708.86	0.091
709.06	0.091
709.25	0.091
709.45	0.091
709.64	0.091
709.84	0.091
710.03	0.090
710.23	0.090
710.42	0.090
710.62	0.090
710.81	0.089
711.00	0.089
711.20	0.089
711.39	0.088
711.59	0.089
711.78	0.089
711.98	0.089
712.17	0.089
712.37	0.089
712.56	0.089
712.75	0.089
712.95	0.089
713.14	0.089
713.34	0.090
713.53	0.090
713.73	0.090
713.92	0.090
714.11	0.090
714.31	0.090
714.50	0.089
714.70	0.089
714.89	0.089
715.08	0.089
715.28	0.089
715.47	0.088
715.67	0.088
715.86	0.088
716.06	0.089
716.25	0.088
716.44	0.088
716.64	0.088
716.83	0.088
717.03	0.088
717.22	0.087
717.41	0.087
717.61	0.087
717.80	0.088
717.99	0.087
718.19	0.087
718.38	0.088
718.58	0.087
718.77	0.087
718.96	0.087
719.16	0.087
719.35	0.087
719.55	0.086
719.74	0.086
719.93	0.086
720.13	0.086
720.32	0.086
720.51	0.085
720.71	0.086
720.90	0.086
721.10	0.086
721.29	0.086
721.48	0.086
721.68	0.086
721.87	0.086
722.06	0.086
722.26	0.086
722.45	0.086
722.64	0.086
722.84	0.086
723.03	0.086
723.22	0.086
723.42	0.086
723.61	0.086
723.80	0.086
724.00	0.086
724.19	0.086
724.38	0.086
724.58	0.086
724.77	0.086
724.96	0.086
725.16	0.085
725.35	0.085
725.54	0.086
725.74	0.086
725.93	0.085
726.12	0.085
726.32	0.085
726.51	0.085
726.70	0.085
726.90	0.085
727.09	0.085
727.28	0.085
727.48	0.085
727.67	0.085
727.86	0.085
728.06	0.085
728.25	0.085
728.44	0.086
728.64	0.085
728.83	0.086
729.02	0.085
729.21	0.086
729.41	0.085
729.60	0.086
729.79	0.086
729.99	0.085
730.18	0.086
730.37	0.086
730.56	0.085
730.76	0.085
730.95	0.085
731.14	0.085
731.34	0.086
731.53	0.086
731.72	0.085
731.91	0.085
732.11	0.085
732.30	0.086
732.49	0.086
732.69	0.086
732.88	0.086
733.07	0.086
733.26	0.087
733.46	0.086
733.65	0.086
733.84	0.086
734.03	0.086
734.23	0.086
734.42	0.086
734.61	0.086
734.80	0.086
735.00	0.086
735.19	0.086
735.38	0.086
735.57	0.086
735.77	0.086
735.96	0.086
736.15	0.086
736.34	0.086
736.54	0.087
736.73	0.086
736.92	0.086
737.11	0.086
737.31	0.086
737.50	0.086
737.69	0.086
737.88	0.086
738.07	0.086
738.27	0.086
738.46	0.086
738.65	0.085
738.84	0.086
739.04	0.086
739.23	0.086
739.42	0.086
739.61	0.086
739.80	0.085
740.00	0.086
740.19	0.086
740.38	0.085
740.57	0.086
740.76	0.085
740.96	0.085
741.15	0.085
741.34	0.085
741.53	0.085
741.72	0.085
741.92	0.085
742.11	0.085
742.30	0.085
742.49	0.085
742.68	0.085
742.88	0.085
743.07	0.085
743.26	0.085
743.45	0.085
743.64	0.085
743.84	0.084
744.03	0.084
744.22	0.084
744.41	0.084
744.60	0.084
744.79	0.084
744.99	0.084
745.18	0.083
745.37	0.083
745.56	0.083
745.75	0.083
745.94	0.083
746.14	0.083
746.33	0.083
746.52	0.084
746.71	0.083
746.90	0.083
747.09	0.083
747.28	0.083
747.48	0.083
747.67	0.083
747.86	0.083
748.05	0.083
748.24	0.083
748.43	0.083
748.62	0.083
748.82	0.083
749.01	0.083
749.20	0.082
749.39	0.083
749.58	0.083
749.77	0.083
749.96	0.082
750.16	0.082
750.35	0.082
750.54	0.082
750.73	0.082
750.92	0.082
751.11	0.082
751.30	0.082
751.49	0.082
751.68	0.082
751.88	0.082
752.07	0.081
752.26	0.082
752.45	0.081
752.64	0.081
752.83	0.081
753.02	0.081
753.21	0.081
753.40	0.080
753.60	0.081
753.79	0.081
753.98	0.081
754.17	0.081
754.36	0.081
754.55	0.081
754.74	0.081
754.93	0.081
755.12	0.081
755.31	0.081
755.50	0.081
755.70	0.081
755.89	0.080
756.08	0.080
756.27	0.080
756.46	0.081
756.65	0.080
756.84	0.080
757.03	0.080
757.22	0.080
757.41	0.080
757.60	0.080
757.79	0.080
757.98	0.080
758.17	0.080
758.36	0.080
758.56	0.080
758.75	0.080
758.94	0.080
759.13	0.080
759.32	0.080
759.51	0.080
759.70	0.080
759.89	0.080
760.08	0.080
760.27	0.080
760.46	0.080
760.65	0.080
760.84	0.080
761.03	0.080
761.22	0.080
761.41	0.080
761.60	0.080
761.79	0.080
761.98	0.080
762.17	0.080
762.36	0.079
762.55	0.079
762.74	0.079
762.93	0.079
763.12	0.079
763.31	0.079
763.50	0.079
763.69	0.079
763.88	0.079
764.07	0.079
764.26	0.079
764.45	0.078
764.64	0.078
764.83	0.078
765.02	0.078
765.21	0.078
765.40	0.079
765.59	0.078
765.78	0.078
765.97	0.079
766.16	0.079
766.35	0.078
766.54	0.079
766.73	0.079
766.92	0.079
767.11	0.078
767.30	0.078
767.49	0.078
767.68	0.078
767.87	0.078
768.06	0.077
768.25	0.077
768.44	0.078
768.63	0.077
768.82	0.077
769.01	0.077
769.20	0.078
769.39	0.078
769.58	0.078
769.77	0.078
769.96	0.078
770.15	0.078
770.34	0.078
770.53	0.077
770.72	0.077
770.91	0.077
771.10	0.077
771.29	0.077
771.47	0.076
771.66	0.076
771.85	0.077
772.04	0.076
772.23	0.077
772.42	0.076
772.61	0.077
772.80	0.077
772.99	0.077
773.18	0.076
773.37	0.076
773.56	0.076
773.75	0.077
773.94	0.077
774.13	0.076
774.31	0.076
774.50	0.076
774.69	0.076
774.88	0.076
775.07	0.077
775.26	0.076
775.45	0.076
775.64	0.076
775.83	0.076
776.02	0.075
776.21	0.076
776.40	0.076
776.58	0.076
776.77	0.076
776.96	0.076
777.15	0.076
777.34	0.077
777.53	0.077
777.72	0.077
777.91	0.077
778.10	0.076
778.28	0.076
778.47	0.076
778.66	0.075
778.85	0.075
779.04	0.075
779.23	0.074
779.42	0.074
779.61	0.074
779.79	0.074
779.98	0.074
780.17	0.074
780.36	0.074
780.55	0.074
780.74	0.074
780.93	0.074
781.12	0.074
781.30	0.074
781.49	0.075
781.68	0.074
781.87	0.075
782.06	0.075
782.25	0.074
782.44	0.075
782.62	0.075
782.81	0.075
783.00	0.075
783.19	0.075
783.38	0.074
783.57	0.074
783.75	0.074
783.94	0.074
784.13	0.074
784.32	0.073
784.51	0.074
784.70	0.074
784.88	0.074
785.07	0.074
785.26	0.074
785.45	0.074
785.64	0.074
785.83	0.074
786.01	0.074
786.20	0.074
786.39	0.074
786.58	0.074
786.77	0.073
786.95	0.073
787.14	0.074
787.33	0.073
787.52	0.073
787.71	0.073
787.90	0.073
788.08	0.073
788.27	0.073
788.46	0.073
788.65	0.073
788.84	0.073
789.02	0.073
789.21	0.073
789.40	0.073
789.59	0.073
789.77	0.073
789.96	0.073
790.15	0.073
790.34	0.073
790.53	0.073
790.71	0.073
790.90	0.073
791.09	0.072
791.28	0.073
791.46	0.073
791.65	0.072
791.84	0.072
792.03	0.072
792.22	0.073
792.40	0.072
792.59	0.072
792.78	0.072
792.97	0.072
793.15	0.072
793.34	0.072
793.53	0.072
793.72	0.072
793.90	0.072
794.09	0.072
794.28	0.072
794.47	0.072
794.65	0.072
794.84	0.072
795.03	0.072
795.22	0.072
795.40	0.072
795.59	0.072
795.78	0.071
795.97	0.072
796.15	0.072
796.34	0.072
796.53	0.072
796.71	0.073
796.90	0.073
797.09	0.073
797.28	0.073
797.46	0.073
797.65	0.073
797.84	0.073
798.02	0.072
798.21	0.072
798.40	0.072
798.59	0.071
798.77	0.071
798.96	0.071
799.15	0.071
799.33	0.071
799.52	0.071
799.71	0.071
799.90	0.071
800.08	0.071
800.27	0.071
800.46	0.071
800.64	0.071
800.83	0.071
801.02	0.071
801.20	0.071
801.39	0.071
801.58	0.071
801.76	0.070
801.95	0.070
802.14	0.070
802.32	0.070
802.51	0.070
802.70	0.070
802.88	0.070
803.07	0.070
803.26	0.070
803.44	0.070
803.63	0.070
803.82	0.070
804.00	0.070
804.19	0.071
804.38	0.071
804.56	0.071
804.75	0.071
804.94	0.071
805.12	0.071
805.31	0.071
805.50	0.071
805.68	0.071
805.87	0.071
806.06	0.071
806.24	0.071
806.43	0.071
806.62	0.071
806.80	0.071
806.99	0.071
807.17	0.071
807.36	0.071
807.55	0.071
807.73	0.071
807.92	0.071
808.11	0.071
808.29	0.071
808.48	0.070
808.66	0.071
808.85	0.070
809.04	0.070
809.22	0.070
809.41	0.070
809.59	0.070
809.78	0.070
809.97	0.070
810.15	0.070
810.34	0.070
810.53	0.070
810.71	0.069
810.90	0.070
811.08	0.069
811.27	0.069
811.45	0.069
811.64	0.069
811.83	0.069
812.01	0.069
812.20	0.070
812.38	0.069
812.57	0.069
812.76	0.069
812.94	0.069
813.13	0.070
813.31	0.070
813.50	0.070
813.68	0.069
813.87	0.069
814.06	0.069
814.24	0.069
814.43	0.069
814.61	0.069
814.80	0.070
814.98	0.070
815.17	0.070
815.36	0.069
815.54	0.069
815.73	0.069
815.91	0.070
816.10	0.070
816.28	0.070
816.47	0.070
816.65	0.070
816.84	0.069
817.03	0.069
817.21	0.070
817.40	0.070
817.58	0.070
817.77	0.070
817.95	0.070
818.14	0.070
818.32	0.070
818.51	0.070
818.69	0.070
818.88	0.070
819.06	0.070
819.25	0.070
819.43	0.070
819.62	0.070
819.80	0.070
819.99	0.070
820.18	0.070
820.36	0.070
820.55	0.070
820.73	0.070
820.92	0.070
821.10	0.070
821.29	0.070
821.47	0.070
821.66	0.070
821.84	0.070
822.03	0.070
822.21	0.070
822.40	0.070
822.58	0.071
822.77	0.070
822.95	0.071
823.14	0.071
823.32	0.071
823.50	0.071
823.69	0.071
823.87	0.071
824.06	0.071
824.24	0.071
824.43	0.071
824.61	0.071
824.80	0.071
824.98	0.071
825.17	0.071
825.35	0.071
825.54	0.071
825.72	0.071
825.91	0.071
826.09	0.071
826.28	0.071
826.46	0.072
826.64	0.072
826.83	0.072
827.01	0.072
827.20	0.072
827.38	0.072
827.57	0.072
827.75	0.072
827.94	0.073
828.12	0.073
828.31	0.072
828.49	0.072
828.67	0.073
828.86	0.073
829.04	0.072
829.23	0.072
829.41	0.073
829.60	0.073
829.78	0.073
829.96	0.074
830.15	0.074
830.33	0.074
830.52	0.074
830.70	0.074
830.88	0.074
831.07	0.075
831.25	0.075
831.44	0.075
831.62	0.074
831.81	0.075
831.99	0.074
832.17	0.075
832.36	0.075
832.54	0.075
832.73	0.075
832.91	0.075
833.09	0.075
833.28	0.075
833.46	0.075
833.65	0.075
833.83	0.076
834.01	0.076
834.20	0.075
834.38	0.075
834.56	0.075
834.75	0.075
834.93	0.076
835.12	0.076
835.30	0.076
835.48	0.076
835.67	0.076
835.85	0.076
836.03	0.076
836.22	0.076
836.40	0.076
836.59	0.076
836.77	0.076
836.95	0.076
837.14	0.076
837.32	0.076
837.50	0.076
837.69	0.076
837.87	0.076
838.05	0.076
838.24	0.076
838.42	0.075
838.60	0.075
838.79	0.076
838.97	0.076
839.15	0.076
839.34	0.076
839.52	0.077
839.70	0.077
839.89	0.077
840.07	0.077
840.25	0.077
840.44	0.077
840.62	0.077
840.80	0.077
840.99	0.077
841.17	0.077
841.35	0.077
841.54	0.077
841.72	0.077
841.90	0.077
842.09	0.077
842.27	0.077
842.45	0.077
842.64	0.077
842.82	0.077
843.00	0.077
843.19	0.077
843.37	0.077
843.55	0.077
843.73	0.077
843.92	0.077
844.10	0.077
844.28	0.077
844.47	0.078
844.65	0.077
844.83	0.078
845.01	0.078
845.20	0.078
845.38	0.078
845.56	0.078
845.75	0.078
845.93	0.078
846.11	0.078
846.29	0.078
846.48	0.078
846.66	0.078
846.84	0.078
847.02	0.077
847.21	0.077
847.39	0.077
847.57	0.077
847.76	0.078
847.94	0.077
848.12	0.077
848.30	0.077
848.49	0.077
848.67	0.077
848.85	0.078
849.03	0.078
849.22	0.078
849.40	0.078
849.58	0.078
849.76	0.078
849.95	0.078
850.13	0.078
850.31	0.079
850.49	0.079
850.67	0.079
850.86	0.079
851.04	0.079
851.22	0.078
851.40	0.078
851.59	0.078
851.77	0.078
851.95	0.078
852.13	0.078
852.31	0.078
852.50	0.078
852.68	0.078
852.86	0.078
853.04	0.078
853.23	0.078
853.41	0.078
853.59	0.078
853.77	0.078
853.95	0.078
854.14	0.078
854.32	0.078
854.50	0.078
854.68	0.078
854.86	0.078
855.04	0.078
855.23	0.078
855.41	0.078
855.59	0.078
855.77	0.078
855.95	0.078
856.14	0.078
856.32	0.078
856.50	0.078
856.68	0.079
856.86	0.079
857.04	0.079
857.23	0.079
857.41	0.078
857.59	0.078
857.77	0.078
857.95	0.078
858.13	0.078
858.32	0.078
858.50	0.079
858.68	0.078
858.86	0.078
859.04	0.078
859.22	0.078
859.41	0.079
859.59	0.078
859.77	0.078
859.95	0.078
860.13	0.079
860.31	0.079
860.49	0.079
860.68	0.079
860.86	0.080
861.04	0.080
861.22	0.079
861.40	0.080
861.58	0.080
861.76	0.080
861.94	0.080
862.13	0.079
862.31	0.079
862.49	0.079
862.67	0.079
862.85	0.079
863.03	0.080
863.21	0.080
863.39	0.080
863.57	0.080
863.76	0.080
863.94	0.080
864.12	0.080
864.30	0.080
864.48	0.079
864.66	0.080
864.84	0.080
865.02	0.080
865.20	0.080
865.38	0.080
865.57	0.080
865.75	0.081
865.93	0.081
866.11	0.081
866.29	0.081
866.47	0.082
866.65	0.081
866.83	0.081
867.01	0.081
867.19	0.081
867.37	0.081
867.55	0.081
867.73	0.081
867.92	0.080
868.10	0.081
868.28	0.081
868.46	0.081
868.64	0.080
868.82	0.081
869.00	0.081
869.18	0.081
869.36	0.081
869.54	0.081
869.72	0.081
869.90	0.081
870.08	0.081
870.26	0.081
870.44	0.081
870.62	0.081
870.80	0.081
870.98	0.081
871.16	0.081
871.34	0.081
871.53	0.081
871.71	0.081
871.89	0.081
872.07	0.081
872.25	0.081
872.43	0.081
872.61	0.082
872.79	0.082
872.97	0.082
873.15	0.082
873.33	0.083
873.51	0.083
873.69	0.082
873.87	0.083
874.05	0.083
874.23	0.083
874.41	0.083
874.59	0.083
874.77	0.083
874.95	0.083
875.13	0.083
875.31	0.082
875.49	0.083
875.67	0.082
875.85	0.082
876.03	0.083
876.21	0.083
876.39	0.083
876.57	0.083
876.75	0.083
876.93	0.083
877.11	0.083
877.29	0.083
877.47	0.082
877.65	0.083
877.82	0.084
878.00	0.083
878.18	0.083
878.36	0.083
878.54	0.083
878.72	0.083
878.90	0.083
879.08	0.083
879.26	0.083
879.44	0.084
879.62	0.083
879.80	0.083
879.98	0.083
880.16	0.083
880.34	0.083
880.52	0.083
880.70	0.083
880.88	0.083
881.06	0.083
881.24	0.083
881.42	0.083
881.59	0.083
881.77	0.082
881.95	0.083
882.13	0.083
882.31	0.083
882.49	0.083
882.67	0.084
882.85	0.083
883.03	0.083
883.21	0.084
883.39	0.083
883.57	0.084
883.75	0.085
883.92	0.084
884.10	0.084
884.28	0.084
884.46	0.085
884.64	0.085
884.82	0.085
885.00	0.085
885.18	0.085
885.36	0.085
885.54	0.085
885.71	0.085
885.89	0.085
886.07	0.085
886.25	0.085
886.43	0.085
886.61	0.085
886.79	0.085
886.97	0.085
887.15	0.085
887.32	0.085
887.50	0.085
887.68	0.085
887.86	0.085
888.04	0.086
888.22	0.086
888.40	0.085
888.57	0.085
888.75	0.085
888.93	0.085
889.11	0.085
889.29	0.085
889.47	0.085
889.65	0.085
889.82	0.086
890.00	0.086
890.18	0.085
890.36	0.086
890.54	0.086
890.72	0.086
890.90	0.086
891.07	0.086
891.25	0.086
891.43	0.085
891.61	0.086
891.79	0.085
891.97	0.085
892.14	0.085
892.32	0.085
892.50	0.085
892.68	0.085
892.86	0.085
893.03	0.086
893.21	0.086
893.39	0.087
893.57	0.087
893.75	0.087
893.93	0.087
894.10	0.087
894.28	0.087
894.46	0.086
894.64	0.087
894.82	0.087
894.99	0.087
895.17	0.087
895.35	0.086
895.53	0.086
895.71	0.086
895.88	0.086
896.06	0.086
896.24	0.086
896.42	0.086
896.59	0.087
896.77	0.087
896.95	0.086
897.13	0.086
897.31	0.087
897.48	0.087
897.66	0.087
897.84	0.087
898.02	0.087
898.19	0.087
898.37	0.088
898.55	0.088
898.73	0.088
898.91	0.088
899.08	0.088
899.26	0.088
899.44	0.088
899.62	0.088
899.79	0.088
899.97	0.089
900.15	0.088
900.33	0.088
900.50	0.088
900.68	0.088
900.86	0.088
901.04	0.088
901.21	0.089
901.39	0.089
901.57	0.089
901.74	0.088
901.92	0.089
902.10	0.089
902.28	0.089
902.45	0.089
902.63	0.089
902.81	0.089
902.99	0.089
903.16	0.089
903.34	0.089
903.52	0.089
903.69	0.089
903.87	0.089
904.05	0.089
904.22	0.089
904.40	0.089
904.58	0.089
904.76	0.090
904.93	0.090
905.11	0.090
905.29	0.090
905.46	0.090
905.64	0.090
905.82	0.091
905.99	0.090
906.17	0.090
906.35	0.090
906.53	0.090
906.70	0.090
906.88	0.090
907.06	0.090
907.23	0.090
907.41	0.090
907.59	0.090
907.76	0.090
907.94	0.091
908.12	0.091
908.29	0.091
908.47	0.091
908.65	0.091
908.82	0.091
909.00	0.091
909.18	0.092
909.35	0.091
909.53	0.091
909.71	0.091
909.88	0.091
910.06	0.091
910.23	0.091
910.41	0.092
910.59	0.092
910.76	0.091
910.94	0.092
911.12	0.091
911.29	0.091
911.47	0.091
911.65	0.092
911.82	0.092
912.00	0.092
912.17	0.092
912.35	0.092
912.53	0.092
912.70	0.093
912.88	0.093
913.06	0.094
913.23	0.094
913.41	0.094
913.58	0.094
913.76	0.094
913.94	0.094
914.11	0.095
914.29	0.095
914.46	0.095
914.64	0.095
914.82	0.095
914.99	0.095
915.17	0.095
915.34	0.095
915.52	0.095
915.70	0.095
915.87	0.095
916.05	0.095
916.22	0.095
916.40	0.095
916.57	0.095
916.75	0.096
916.93	0.096
917.10	0.095
917.28	0.095
917.45	0.095
917.63	0.095
917.80	0.095
917.98	0.095
918.16	0.095
918.33	0.095
918.51	0.095
918.68	0.095
918.86	0.096
919.03	0.096
919.21	0.097
919.39	0.097
919.56	0.098
919.74	0.098
919.91	0.098
920.09	0.098
920.26	0.098
920.44	0.098
920.61	0.099
920.79	0.099
920.96	0.099
921.14	0.099
921.31	0.099
921.49	0.099
921.67	0.100
921.84	0.100
922.02	0.100
922.19	0.100
922.37	0.101
922.54	0.101
922.72	0.101
922.89	0.101
923.07	0.101
923.24	0.102
923.42	0.102
923.59	0.102
923.77	0.102
923.94	0.102
924.12	0.103
924.29	0.103
924.47	0.104
924.64	0.104
924.82	0.104
924.99	0.104
925.17	0.105
925.34	0.105
925.52	0.105
925.69	0.106
925.87	0.106
926.04	0.107
926.22	0.107
926.39	0.107
926.57	0.108
926.74	0.108
926.91	0.109
927.09	0.109
927.26	0.109
927.44	0.109
927.61	0.110
927.79	0.110
927.96	0.110
928.14	0.111
928.31	0.111
928.49	0.111
928.66	0.111
928.84	0.112
929.01	0.112
929.18	0.113
929.36	0.113
929.53	0.113
929.71	0.113
929.88	0.114
930.06	0.114
930.23	0.115
930.41	0.115
930.58	0.116
930.75	0.116
930.93	0.117
931.10	0.116
931.28	0.117
931.45	0.117
931.63	0.118
931.80	0.118
931.97	0.119
932.15	0.119
932.32	0.120
932.50	0.120
932.67	0.121
932.84	0.121
933.02	0.122
933.19	0.122
933.37	0.123
933.54	0.123
933.71	0.124
933.89	0.125
934.06	0.125
934.24	0.126
934.41	0.126
934.58	0.126
934.76	0.127
934.93	0.127
935.11	0.128
935.28	0.128
935.45	0.128
935.63	0.128
935.80	0.129
935.98	0.129
936.15	0.129
936.32	0.130
936.50	0.131
936.67	0.131
936.84	0.131
937.02	0.133
937.19	0.133
937.36	0.134
937.54	0.134
937.71	0.135
937.89	0.136
938.06	0.136
938.23	0.136
938.41	0.137
938.58	0.137
938.75	0.138
938.93	0.138
939.10	0.139
939.27	0.139
939.45	0.140
939.62	0.140
939.79	0.141
939.97	0.141
940.14	0.142
940.31	0.143
940.49	0.143
940.66	0.143
940.83	0.144
941.01	0.145
941.18	0.146
941.35	0.146
941.53	0.147
941.70	0.148
941.87	0.148
942.05	0.149
942.22	0.150
942.39	0.151
942.57	0.152
942.74	0.153
942.91	0.153
943.08	0.153
943.26	0.154
943.43	0.154
943.60	0.155
943.78	0.156
943.95	0.156
944.12	0.156
944.29	0.157
944.47	0.158
944.64	0.158
944.81	0.159
944.99	0.160
945.16	0.160
945.33	0.161
945.50	0.161
945.68	0.162
945.85	0.163
946.02	0.164
946.20	0.166
946.37	0.167
946.54	0.167
946.71	0.168
946.89	0.168
947.06	0.169
947.23	0.170
947.40	0.171
947.58	0.172
947.75	0.173
947.92	0.173
948.09	0.173
948.27	0.174
948.44	0.176
948.61	0.177
948.78	0.178
948.96	0.179
949.13	0.180
949.30	0.181
949.47	0.182
949.65	0.183
949.82	0.185
949.99	0.186
950.16	0.188
950.33	0.188
950.51	0.190
950.68	0.191
950.85	0.192
951.02	0.193
951.20	0.194
951.37	0.196
951.54	0.196
951.71	0.197
951.88	0.199
952.06	0.200
952.23	0.201
952.40	0.202
952.57	0.204
952.74	0.205
952.92	0.206
953.09	0.208
953.26	0.209
953.43	0.210
953.60	0.211
953.77	0.212
953.95	0.213
954.12	0.215
954.29	0.216
954.46	0.218
954.63	0.219
954.81	0.219
954.98	0.220
955.15	0.222
955.32	0.224
955.49	0.224
955.66	0.226
955.84	0.227
956.01	0.227
956.18	0.229
956.35	0.230
956.52	0.231
956.69	0.233
956.87	0.233
957.04	0.234
957.21	0.236
957.38	0.235
957.55	0.237
957.72	0.238
957.89	0.239
958.07	0.239
958.24	0.242
958.41	0.243
958.58	0.242
958.75	0.243
958.92	0.244
959.09	0.244
959.26	0.245
959.44	0.246
959.61	0.247
959.78	0.248
959.95	0.249
960.12	0.249
960.29	0.251
960.46	0.251
960.63	0.252
960.81	0.252
960.98	0.253
961.15	0.254
961.32	0.255
961.49	0.254
961.66	0.256
961.83	0.256
962.00	0.256
962.17	0.257
962.34	0.256
962.52	0.257
962.69	0.258
962.86	0.258
963.03	0.258
963.20	0.259
963.37	0.258
963.54	0.259
963.71	0.259
963.88	0.259
964.05	0.259
964.22	0.260
964.39	0.259
964.56	0.259
964.74	0.260
964.91	0.260
965.08	0.261
965.25	0.261
965.42	0.261
965.59	0.262
965.76	0.262
965.93	0.264
966.10	0.262
966.27	0.262
966.44	0.262
966.61	0.263
966.78	0.262
966.95	0.262
967.12	0.263
967.29	0.264
967.46	0.263
967.63	0.263
967.80	0.263
967.97	0.263
968.14	0.263
968.32	0.263
968.49	0.264
968.66	0.263
968.83	0.263
969.00	0.263
969.17	0.263
969.34	0.265
969.51	0.266
969.68	0.264
969.85	0.265
970.02	0.265
970.19	0.265
970.36	0.265
970.53	0.266
970.70	0.265
970.87	0.265
971.04	0.265
971.21	0.266
971.38	0.266
971.55	0.266
971.72	0.266
971.89	0.267
972.06	0.267
972.23	0.267
972.40	0.266
972.57	0.265
972.74	0.266
972.91	0.267
973.07	0.266
973.24	0.265
973.41	0.265
973.58	0.264
973.75	0.277
973.92	0.264
974.09	0.264
974.26	0.264
974.43	0.263
974.60	0.263
974.77	0.264
974.94	0.264
975.11	0.265
975.28	0.266
975.45	0.264
975.62	0.265
975.79	0.267
975.96	0.265
976.13	0.264
976.30	0.266
976.47	0.265
976.64	0.265
976.80	0.265
976.97	0.264
977.14	0.264
977.31	0.265
977.48	0.265
977.65	0.264
977.82	0.263
977.99	0.264
978.16	0.264
978.33	0.264
978.50	0.263
978.67	0.263
978.83	0.263
979.00	0.263
979.17	0.263
979.34	0.262
979.51	0.261
979.68	0.261
979.85	0.261
980.02	0.262
980.19	0.260
980.36	0.262
980.52	0.263
980.69	0.261
980.86	0.261
981.03	0.261
981.20	0.260
981.37	0.261
981.54	0.262
981.71	0.261
981.88	0.262
982.04	0.261
982.21	0.260
982.38	0.261
982.55	0.260
982.72	0.259
982.89	0.260
983.06	0.258
983.22	0.258
983.39	0.259
983.56	0.258
983.73	0.257
983.90	0.257
984.07	0.258
984.24	0.257
984.40	0.257
984.57	0.256
984.74	0.258
984.91	0.258
985.08	0.256
985.25	0.253
985.41	0.254
985.58	0.254
985.75	0.255
985.92	0.254
986.09	0.252
986.26	0.253
986.42	0.252
986.59	0.251
986.76	0.253
986.93	0.253
987.10	0.253
987.27	0.250
987.43	0.249
987.60	0.251
987.77	0.250
987.94	0.250
988.11	0.250
988.27	0.251
988.44	0.250
988.61	0.248
988.78	0.247
988.95	0.248
989.11	0.250
989.28	0.248
989.45	0.248
989.62	0.247
989.79	0.247
989.95	0.246
990.12	0.247
990.29	0.247
990.46	0.246
990.62	0.244
990.79	0.244
990.96	0.244
991.13	0.244
991.30	0.243
991.46	0.243
991.63	0.241
991.80	0.240
991.97	0.240
992.13	0.240
992.30	0.241
992.47	0.240
992.64	0.240
992.80	0.240
992.97	0.241
993.14	0.238
993.31	0.236
993.47	0.239
993.64	0.237
993.81	0.236
993.98	0.237
994.14	0.235
994.31	0.234
994.48	0.235
994.64	0.236
994.81	0.233
994.98	0.234
995.15	0.232
995.31	0.231
995.48	0.231
995.65	0.234
995.82	0.231
995.98	0.230
996.15	0.231
996.32	0.231
996.48	0.230
996.65	0.229
996.82	0.227
996.99	0.228
997.15	0.227
997.32	0.229
997.49	0.227
997.65	0.228
997.82	0.228
997.99	0.226
998.15	0.227
998.32	0.228
998.49	0.227
998.65	0.227
998.82	0.227
998.99	0.224
999.15	0.225
999.32	0.223
999.49	0.223
999.65	0.223
999.82	0.221
999.99	0.221
1000.15	0.221
1000.32	0.222
1000.49	0.222
1000.65	0.220
1000.82	0.219
1000.99	0.220
1001.15	0.220
1001.32	0.218
1001.49	0.219
1001.65	0.219
1001.82	0.221
1001.99	0.218
1002.15	0.217
1002.32	0.217
1002.49	0.217
1002.65	0.216
1002.82	0.215
1002.99	0.214
1003.15	0.215
1003.32	0.214
1003.48	0.214
1003.65	0.213
1003.82	0.212
1003.98	0.209
1004.15	0.209
1004.32	0.210
1004.48	0.211
1004.65	0.212
1004.81	0.209
1004.98	0.208
1005.15	0.210
1005.31	0.209
1005.48	0.207
1005.64	0.207
1005.81	0.210
1005.98	0.206
1006.14	0.205
1006.31	0.205
1006.47	0.203
1006.64	0.202
1006.81	0.201
1006.97	0.201
1007.14	0.201
1007.30	0.202
1007.47	0.202
1007.63	0.200
1007.80	0.199
1007.97	0.199
1008.13	0.200
1008.30	0.200
1008.46	0.200
1008.63	0.199
1008.79	0.200
1008.96	0.200
1009.13	0.201
1009.29	0.198
1009.46	0.198
1009.62	0.198
1009.79	0.196
1009.95	0.196
1010.12	0.197
1010.28	0.197
1010.45	0.197
1010.62	0.196
1010.78	0.195
1010.95	0.193
1011.11	0.194
1011.28	0.193
1011.44	0.195
1011.61	0.193
1011.77	0.192
1011.94	0.192
1012.10	0.191
1012.27	0.191
1012.43	0.190
1012.60	0.189
1012.76	0.190
1012.93	0.190
1013.10	0.189
1013.26	0.186
1013.43	0.187
1013.59	0.194
1013.76	0.187
1013.92	0.185
1014.09	0.184
1014.25	0.185
1014.42	0.185
1014.58	0.184
1014.75	0.186
1014.91	0.185
1015.08	0.186
1015.24	0.183
1015.41	0.184
1015.57	0.184
1015.73	0.183
1015.90	0.181
1016.06	0.183
1016.23	0.181
1016.39	0.182
1016.56	0.182
1016.72	0.181
1016.89	0.181
1017.05	0.183
1017.22	0.179
1017.38	0.180
1017.55	0.178
1017.71	0.180
1017.88	0.179
1018.04	0.180
1018.21	0.178
1018.37	0.177
1018.53	0.177
1018.70	0.176
1018.86	0.175
1019.03	0.177
1019.19	0.176
1019.36	0.176
1019.52	0.177
1019.69	0.177
1019.85	0.176
1020.01	0.176
1020.18	0.174
1020.34	0.175
1020.51	0.174
1020.67	0.174
1020.84	0.173
1021.00	0.173
1021.16	0.170
1021.33	0.171
1021.49	0.169
1021.66	0.171
1021.82	0.169
1021.98	0.169
1022.15	0.168
1022.31	0.168
1022.48	0.167
1022.64	0.168
1022.80	0.166
1022.97	0.164
1023.13	0.164
1023.30	0.165
1023.46	0.164
1023.62	0.162
1023.79	0.164
1023.95	0.165
1024.12	0.165
1024.28	0.165
1024.44	0.166
1024.61	0.164
1024.77	0.164
1024.93	0.163
1025.10	0.165
1025.26	0.162
1025.43	0.163
1025.59	0.159
1025.75	0.161
1025.92	0.160
1026.08	0.158
1026.24	0.157
1026.41	0.158
1026.57	0.156
1026.73	0.154
1026.90	0.156
1027.06	0.155
1027.23	0.156
1027.39	0.155
1027.55	0.156
1027.72	0.155
1027.88	0.155
1028.04	0.156
1028.21	0.157
1028.37	0.151
1028.53	0.156
1028.70	0.154
1028.86	0.152
1029.02	0.153
1029.19	0.154
1029.35	0.151
1029.51	0.152
1029.67	0.151
1029.84	0.153
1030.00	0.148
1030.16	0.148
1030.33	0.150
1030.49	0.147
1030.65	0.145
1030.82	0.160
1030.98	0.147
1031.14	0.147
1031.31	0.147
1031.47	0.145
1031.63	0.148
1031.79	0.147
1031.96	0.149
1032.12	0.150
1032.28	0.148
1032.45	0.152
1032.61	0.150
1032.77	0.150
1032.93	0.147
1033.10	0.148
1033.26	0.150
1033.42	0.147
1033.58	0.147
1033.75	0.148
1033.91	0.147
1034.07	0.150
1034.24	0.148
1034.40	0.146
1034.56	0.145
1034.72	0.146
1034.89	0.146
1035.05	0.144
1035.21	0.144
1035.37	0.143
1035.54	0.144
1035.70	0.141
1035.86	0.140
1036.02	0.142
1036.19	0.141
1036.35	0.139
1036.51	0.143
1036.67	0.141
1036.83	0.141
1037.00	0.140
1037.16	0.141
1037.32	0.141
1037.48	0.141
1037.65	0.145
1037.81	0.142
1037.97	0.142
1038.13	0.141
1038.29	0.138
1038.46	0.134
1038.62	0.138
1038.78	0.136
1038.94	0.133
1039.10	0.138
1039.27	0.134
1039.43	0.136
1039.59	0.135
1039.75	0.134
1039.91	0.134
1040.08	0.135
1040.24	0.139
1040.40	0.139
1040.56	0.138
1040.72	0.131
1040.89	0.134
1041.05	0.136
1041.21	0.135
1041.37	0.133
1041.53	0.139
1041.69	0.136
1041.86	0.135
1042.02	0.131
1042.18	0.131
1042.34	0.133
1042.50	0.138
1042.66	0.133
1042.83	0.132
1042.99	0.133
1043.15	0.128
1043.31	0.128
1043.47	0.133
1043.63	0.129
1043.79	0.130
1043.96	0.131
1044.12	0.134
1044.28	0.132
1044.44	0.134
1044.60	0.130
1044.76	0.129
1044.92	0.131
1045.09	0.133
1045.25	0.129
1045.41	0.130
1045.57	0.125
1045.73	0.126
1045.89	0.127
1046.05	0.127
1046.21	0.135
1046.38	0.128
1046.54	0.132
1046.70	0.131
1046.86	0.120
>>>>>End Processed Spectral Data<<<<<
