SpectraSuite Data File
++++++++++++++++++++++++++++++++++++
Date: Mon May 20 12:11:25 CDT 2013
User: Students
Dark Spectrum Present: Yes
Reference Spectrum Present: Yes
Number of Sampled Component Spectra: 1
Spectrometers: USB4H00887
Integration Time (usec): 60000 (USB4H00887)
Spectra Averaged: 5 (USB4H00887)
Boxcar Smoothing: 5 (USB4H00887)
Correct for Electrical Dark: No (USB4H00887)
Strobe/Lamp Enabled: No (USB4H00887)
Correct for Detector Non-linearity: No (USB4H00887)
Correct for Stray Light: No (USB4H00887)
Number of Pixels in Processed Spectrum: 3648
>>>>>Begin Processed Spectral Data<<<<<
345.83	0.444
346.05	0.444
346.26	0.444
346.48	-0.000
346.70	-0.000
346.92	0.092
347.14	0.105
347.35	0.118
347.57	-0.000
347.79	-0.399
348.01	-0.310
348.23	-0.443
348.44	-0.000
348.66	0.397
348.88	-0.456
349.10	-0.199
349.32	0.086
349.53	0.004
349.75	-0.006
349.97	0.007
350.19	0.044
350.41	0.086
350.62	-0.114
350.84	0.004
351.06	-0.010
351.28	-0.031
351.50	-0.245
351.71	-0.177
351.93	-0.128
352.15	-0.028
352.37	-0.128
352.58	-0.024
352.80	-0.004
353.02	0.009
353.24	0.014
353.46	0.090
353.67	-0.015
353.89	0.023
354.11	0.027
354.33	0.035
354.54	0.059
354.76	0.116
354.98	0.180
355.20	0.121
355.41	0.075
355.63	0.154
355.85	0.073
356.07	0.857
356.28	0.077
356.50	0.112
356.72	0.036
356.94	0.137
357.15	0.237
357.37	-0.000
357.59	0.116
357.81	0.063
358.02	0.101
358.24	0.075
358.46	0.182
358.68	0.197
358.89	0.116
359.11	-0.000
359.33	0.099
359.55	-0.522
359.76	0.108
359.98	0.111
360.20	0.100
360.42	0.100
360.63	0.109
360.85	0.072
361.07	0.199
361.29	0.034
361.50	0.078
361.72	0.039
361.94	0.118
362.15	0.055
362.37	0.045
362.59	0.048
362.81	0.057
363.02	0.128
363.24	0.210
363.46	0.131
363.68	0.185
363.89	0.115
364.11	0.177
364.33	0.245
364.54	0.168
364.76	0.194
364.98	0.232
365.20	0.266
365.41	0.149
365.63	0.172
365.85	0.129
366.06	0.422
366.28	0.513
366.50	0.311
366.71	0.152
366.93	0.209
367.15	0.171
367.37	0.172
367.58	0.224
367.80	0.265
368.02	1.348
368.23	0.231
368.45	0.243
368.67	0.217
368.88	0.196
369.10	-0.000
369.32	0.189
369.53	0.119
369.75	0.191
369.97	0.541
370.19	0.301
370.40	0.110
370.62	0.347
370.84	0.116
371.05	0.580
371.27	0.147
371.49	0.151
371.70	0.169
371.92	0.217
372.14	0.092
372.35	0.102
372.57	0.119
372.79	0.271
373.00	0.065
373.22	0.075
373.44	0.097
373.65	0.079
373.87	0.106
374.09	0.406
374.30	0.119
374.52	0.134
374.74	0.109
374.95	0.353
375.17	0.120
375.39	-0.000
375.60	0.167
375.82	0.327
376.04	0.139
376.25	0.174
376.47	0.112
376.68	0.273
376.90	0.180
377.12	0.360
377.33	0.188
377.55	0.484
377.77	0.246
377.98	0.376
378.20	0.190
378.42	0.226
378.63	0.310
378.85	-0.000
379.07	0.196
379.28	0.851
379.50	0.456
379.71	0.233
379.93	0.158
380.15	0.204
380.36	0.327
380.58	0.211
380.80	0.629
381.01	0.157
381.23	0.130
381.44	0.125
381.66	0.145
381.88	0.187
382.09	-0.084
382.31	0.128
382.53	0.135
382.74	0.607
382.96	0.175
383.17	0.146
383.39	0.186
383.61	0.249
383.82	0.191
384.04	0.232
384.25	0.282
384.47	0.248
384.69	0.249
384.90	0.226
385.12	0.514
385.33	0.340
385.55	0.264
385.77	0.425
385.98	0.214
386.20	0.312
386.41	0.264
386.63	0.286
386.85	0.241
387.06	0.291
387.28	0.475
387.49	0.302
387.71	0.203
387.93	0.177
388.14	0.550
388.36	0.234
388.57	0.213
388.79	0.222
389.01	-0.000
389.22	0.315
389.44	0.275
389.65	0.231
389.87	0.225
390.08	0.278
390.30	0.224
390.52	0.455
390.73	0.438
390.95	0.282
391.16	0.288
391.38	-0.000
391.59	0.316
391.81	0.258
392.03	0.241
392.24	0.272
392.46	0.219
392.67	0.188
392.89	0.281
393.10	0.417
393.32	0.292
393.53	0.335
393.75	0.204
393.97	0.222
394.18	0.312
394.40	0.263
394.61	0.286
394.83	0.247
395.04	0.302
395.26	0.194
395.47	0.300
395.69	0.234
395.91	0.257
396.12	0.332
396.34	0.323
396.55	0.204
396.77	0.304
396.98	1.229
397.20	0.387
397.41	0.435
397.63	0.300
397.84	0.271
398.06	0.265
398.27	0.265
398.49	0.299
398.71	0.228
398.92	0.267
399.14	0.363
399.35	0.452
399.57	0.417
399.78	0.288
400.00	0.274
400.21	0.340
400.43	0.271
400.64	0.286
400.86	0.665
401.07	0.377
401.29	0.343
401.50	0.357
401.72	0.531
401.93	0.325
402.15	0.397
402.36	0.368
402.58	0.295
402.79	0.342
403.01	0.588
403.22	0.439
403.44	0.286
403.65	0.464
403.87	0.518
404.08	0.398
404.30	0.699
404.51	0.349
404.73	0.427
404.94	0.368
405.16	0.369
405.37	0.292
405.59	0.539
405.80	0.323
406.02	0.380
406.23	0.378
406.45	0.419
406.66	0.441
406.88	0.287
407.09	0.443
407.31	0.364
407.52	0.441
407.74	0.355
407.95	0.418
408.17	0.389
408.38	0.407
408.60	0.267
408.81	0.448
409.03	0.330
409.24	0.329
409.45	0.373
409.67	0.347
409.88	0.316
410.10	0.404
410.31	0.351
410.53	0.342
410.74	0.492
410.96	0.478
411.17	0.499
411.39	0.387
411.60	0.364
411.82	0.421
412.03	0.412
412.24	0.386
412.46	0.553
412.67	0.438
412.89	0.430
413.10	0.427
413.32	0.393
413.53	0.441
413.75	0.454
413.96	0.348
414.17	0.465
414.39	0.460
414.60	0.388
414.82	0.505
415.03	0.396
415.25	0.437
415.46	0.303
415.68	0.421
415.89	0.753
416.10	0.620
416.32	0.344
416.53	0.401
416.75	0.383
416.96	0.467
417.18	0.407
417.39	0.393
417.60	0.387
417.82	0.561
418.03	0.506
418.25	0.435
418.46	0.450
418.67	0.422
418.89	0.451
419.10	0.473
419.32	0.630
419.53	0.571
419.75	0.485
419.96	0.434
420.17	0.533
420.39	0.483
420.60	0.496
420.82	0.618
421.03	0.498
421.24	0.411
421.46	0.449
421.67	0.488
421.89	0.422
422.10	0.456
422.31	0.452
422.53	0.629
422.74	0.472
422.96	0.374
423.17	0.415
423.38	0.494
423.60	0.436
423.81	0.531
424.03	0.452
424.24	0.492
424.45	0.487
424.67	0.482
424.88	0.440
425.09	0.480
425.31	0.447
425.52	0.467
425.74	0.533
425.95	0.566
426.16	0.449
426.38	0.527
426.59	0.493
426.80	0.570
427.02	0.599
427.23	0.463
427.45	0.606
427.66	0.592
427.87	0.465
428.09	0.483
428.30	0.535
428.51	0.531
428.73	0.576
428.94	0.504
429.15	0.483
429.37	0.460
429.58	0.490
429.79	0.454
430.01	0.533
430.22	0.526
430.44	0.542
430.65	0.492
430.86	0.529
431.08	0.521
431.29	0.489
431.50	0.585
431.72	0.779
431.93	0.639
432.14	0.484
432.36	0.533
432.57	0.547
432.78	0.577
433.00	0.524
433.21	0.513
433.42	0.638
433.64	0.558
433.85	0.623
434.06	0.505
434.28	0.526
434.49	0.534
434.70	0.551
434.92	0.567
435.13	0.605
435.34	0.629
435.56	0.599
435.77	0.590
435.98	0.745
436.20	0.628
436.41	0.548
436.62	0.543
436.83	0.617
437.05	0.691
437.26	0.607
437.47	0.536
437.69	0.583
437.90	0.534
438.11	0.531
438.33	0.578
438.54	0.598
438.75	0.757
438.97	0.747
439.18	0.573
439.39	0.599
439.60	0.645
439.82	0.610
440.03	0.561
440.24	0.818
440.46	0.609
440.67	0.596
440.88	0.640
441.10	0.594
441.31	0.585
441.52	0.629
441.73	0.697
441.95	0.613
442.16	0.567
442.37	0.874
442.58	0.563
442.80	0.553
443.01	0.694
443.22	0.628
443.44	0.540
443.65	0.635
443.86	0.632
444.07	0.682
444.29	0.606
444.50	0.761
444.71	0.580
444.92	0.543
445.14	0.680
445.35	0.720
445.56	0.579
445.78	0.673
445.99	0.668
446.20	0.582
446.41	0.643
446.63	0.637
446.84	0.603
447.05	0.605
447.26	0.710
447.48	0.615
447.69	0.587
447.90	0.663
448.11	0.593
448.33	0.615
448.54	0.628
448.75	0.659
448.96	0.670
449.18	0.705
449.39	0.635
449.60	0.623
449.81	0.731
450.03	0.646
450.24	0.699
450.45	0.667
450.66	0.655
450.87	0.688
451.09	0.645
451.30	0.625
451.51	0.698
451.72	0.711
451.94	0.726
452.15	0.791
452.36	0.668
452.57	0.683
452.78	0.682
453.00	0.709
453.21	0.665
453.42	0.641
453.63	0.723
453.85	0.683
454.06	0.680
454.27	0.794
454.48	0.725
454.69	0.654
454.91	0.718
455.12	0.633
455.33	0.709
455.54	0.727
455.75	0.702
455.97	0.725
456.18	0.719
456.39	0.723
456.60	0.743
456.81	0.684
457.03	0.698
457.24	0.697
457.45	0.775
457.66	0.725
457.87	0.685
458.09	0.705
458.30	0.633
458.51	0.740
458.72	0.758
458.93	0.766
459.15	0.676
459.36	0.731
459.57	0.751
459.78	0.790
459.99	0.717
460.20	0.685
460.42	0.753
460.63	0.713
460.84	0.697
461.05	0.719
461.26	0.771
461.47	0.697
461.69	0.738
461.90	0.766
462.11	0.727
462.32	0.776
462.53	0.723
462.74	0.803
462.96	0.709
463.17	0.704
463.38	0.739
463.59	0.836
463.80	0.707
464.01	0.728
464.23	0.804
464.44	0.773
464.65	0.776
464.86	0.793
465.07	0.798
465.28	0.765
465.49	0.785
465.71	0.745
465.92	0.777
466.13	0.814
466.34	0.760
466.55	0.807
466.76	0.775
466.97	0.793
467.19	0.787
467.40	0.823
467.61	0.824
467.82	0.753
468.03	0.736
468.24	0.799
468.45	0.830
468.66	0.812
468.88	0.818
469.09	0.816
469.30	0.863
469.51	0.794
469.72	0.823
469.93	0.799
470.14	0.780
470.35	0.861
470.57	0.812
470.78	0.765
470.99	0.880
471.20	0.831
471.41	0.795
471.62	0.835
471.83	0.818
472.04	0.843
472.25	0.878
472.47	0.807
472.68	0.810
472.89	0.820
473.10	0.855
473.31	0.812
473.52	0.864
473.73	0.887
473.94	0.819
474.15	0.835
474.36	0.839
474.57	0.865
474.79	0.844
475.00	0.844
475.21	0.830
475.42	0.910
475.63	0.822
475.84	0.853
476.05	0.855
476.26	0.827
476.47	0.855
476.68	0.898
476.89	0.837
477.10	0.879
477.32	0.867
477.53	0.915
477.74	0.846
477.95	0.884
478.16	0.837
478.37	0.875
478.58	0.881
478.79	0.900
479.00	0.896
479.21	0.860
479.42	0.895
479.63	0.902
479.84	0.870
480.05	0.869
480.26	0.893
480.47	0.905
480.69	0.907
480.90	0.878
481.11	0.873
481.32	0.923
481.53	0.870
481.74	0.915
481.95	0.886
482.16	0.902
482.37	0.907
482.58	0.879
482.79	0.896
483.00	0.920
483.21	0.873
483.42	0.850
483.63	0.919
483.84	0.943
484.05	0.933
484.26	0.906
484.47	0.900
484.68	0.865
484.89	0.873
485.10	0.916
485.31	0.899
485.52	0.902
485.73	0.903
485.94	0.940
486.15	0.895
486.37	0.909
486.58	0.880
486.79	0.894
487.00	0.941
487.21	0.930
487.42	0.926
487.63	0.930
487.84	0.950
488.05	0.944
488.26	0.906
488.47	0.910
488.68	0.934
488.89	0.911
489.10	0.906
489.31	0.915
489.52	0.945
489.73	0.914
489.94	0.944
490.15	0.907
490.36	0.941
490.57	0.901
490.78	0.888
490.99	0.921
491.20	0.991
491.41	0.951
491.62	0.901
491.83	0.925
492.04	0.922
492.25	0.929
492.45	0.930
492.66	0.950
492.87	0.940
493.08	0.931
493.29	0.916
493.50	0.906
493.71	0.914
493.92	0.913
494.13	0.926
494.34	0.945
494.55	0.951
494.76	0.976
494.97	0.970
495.18	0.940
495.39	0.952
495.60	0.910
495.81	0.912
496.02	0.929
496.23	0.925
496.44	0.952
496.65	0.942
496.86	0.947
497.07	0.969
497.28	0.965
497.49	0.925
497.70	0.926
497.91	0.946
498.12	0.931
498.32	0.966
498.53	0.951
498.74	0.943
498.95	0.966
499.16	0.929
499.37	0.931
499.58	0.938
499.79	0.963
500.00	0.962
500.21	0.985
500.42	0.938
500.63	0.938
500.84	0.957
501.05	0.938
501.26	0.961
501.46	0.994
501.67	0.961
501.88	0.963
502.09	0.942
502.30	0.948
502.51	0.989
502.72	0.953
502.93	0.967
503.14	0.985
503.35	0.961
503.56	0.957
503.77	0.984
503.97	0.966
504.18	0.965
504.39	0.995
504.60	0.968
504.81	0.991
505.02	0.982
505.23	0.983
505.44	0.968
505.65	0.974
505.86	0.958
506.07	1.013
506.27	0.976
506.48	0.983
506.69	0.970
506.90	0.990
507.11	0.988
507.32	0.965
507.53	0.971
507.74	0.962
507.95	0.972
508.15	0.975
508.36	0.979
508.57	0.990
508.78	0.976
508.99	0.974
509.20	0.950
509.41	0.970
509.62	0.961
509.82	0.959
510.03	0.971
510.24	0.971
510.45	0.989
510.66	0.983
510.87	0.976
511.08	0.941
511.29	0.978
511.49	0.960
511.70	1.001
511.91	0.945
512.12	0.941
512.33	0.969
512.54	0.981
512.75	0.968
512.95	0.988
513.16	0.983
513.37	0.965
513.58	0.997
513.79	0.964
514.00	0.967
514.20	0.981
514.41	0.973
514.62	0.944
514.83	0.978
515.04	0.971
515.25	0.953
515.46	0.964
515.66	0.966
515.87	0.976
516.08	0.950
516.29	0.968
516.50	0.953
516.71	0.948
516.91	0.957
517.12	0.971
517.33	0.958
517.54	0.945
517.75	0.947
517.95	0.957
518.16	0.964
518.37	0.937
518.58	0.944
518.79	0.923
519.00	0.948
519.20	0.955
519.41	0.934
519.62	0.950
519.83	0.959
520.04	0.929
520.24	0.926
520.45	0.934
520.66	0.952
520.87	0.921
521.08	0.918
521.28	0.921
521.49	0.934
521.70	0.909
521.91	0.920
522.12	0.904
522.32	0.924
522.53	0.907
522.74	0.899
522.95	0.908
523.16	0.909
523.36	0.917
523.57	0.903
523.78	0.900
523.99	0.904
524.20	0.897
524.40	0.909
524.61	0.915
524.82	0.894
525.03	0.897
525.23	0.898
525.44	0.886
525.65	0.886
525.86	0.904
526.06	0.878
526.27	0.878
526.48	0.887
526.69	0.871
526.90	0.872
527.10	0.903
527.31	0.865
527.52	0.859
527.73	0.851
527.93	0.859
528.14	0.864
528.35	0.856
528.56	0.857
528.76	0.851
528.97	0.842
529.18	0.834
529.39	0.834
529.59	0.835
529.80	0.861
530.01	0.837
530.22	0.835
530.42	0.810
530.63	0.824
530.84	0.805
531.05	0.814
531.25	0.816
531.46	0.810
531.67	0.792
531.88	0.809
532.08	0.804
532.29	0.800
532.50	0.795
532.70	0.788
532.91	0.780
533.12	0.781
533.33	0.803
533.53	0.778
533.74	0.776
533.95	0.781
534.15	0.771
534.36	0.770
534.57	0.756
534.78	0.756
534.98	0.763
535.19	0.737
535.40	0.738
535.60	0.754
535.81	0.736
536.02	0.739
536.23	0.731
536.43	0.731
536.64	0.721
536.85	0.727
537.05	0.734
537.26	0.715
537.47	0.718
537.67	0.709
537.88	0.704
538.09	0.711
538.30	0.701
538.50	0.694
538.71	0.704
538.92	0.692
539.12	0.688
539.33	0.684
539.54	0.685
539.74	0.688
539.95	0.680
540.16	0.677
540.36	0.669
540.57	0.669
540.78	0.662
540.98	0.661
541.19	0.659
541.40	0.648
541.60	0.657
541.81	0.652
542.02	0.651
542.22	0.642
542.43	0.637
542.64	0.633
542.84	0.633
543.05	0.626
543.26	0.626
543.46	0.629
543.67	0.628
543.88	0.625
544.08	0.615
544.29	0.610
544.50	0.610
544.70	0.611
544.91	0.603
545.12	0.605
545.32	0.600
545.53	0.603
545.74	0.592
545.94	0.588
546.15	0.586
546.35	0.584
546.56	0.581
546.77	0.579
546.97	0.576
547.18	0.569
547.39	0.569
547.59	0.567
547.80	0.564
548.01	0.568
548.21	0.564
548.42	0.556
548.62	0.556
548.83	0.553
549.04	0.549
549.24	0.542
549.45	0.542
549.65	0.538
549.86	0.534
550.07	0.533
550.27	0.530
550.48	0.537
550.69	0.524
550.89	0.524
551.10	0.520
551.30	0.518
551.51	0.518
551.72	0.509
551.92	0.511
552.13	0.511
552.33	0.512
552.54	0.507
552.75	0.501
552.95	0.503
553.16	0.498
553.36	0.498
553.57	0.496
553.78	0.494
553.98	0.494
554.19	0.486
554.39	0.483
554.60	0.485
554.80	0.485
555.01	0.478
555.22	0.479
555.42	0.476
555.63	0.470
555.83	0.473
556.04	0.467
556.25	0.469
556.45	0.461
556.66	0.458
556.86	0.461
557.07	0.458
557.27	0.457
557.48	0.452
557.68	0.451
557.89	0.452
558.10	0.448
558.30	0.446
558.51	0.444
558.71	0.442
558.92	0.438
559.12	0.439
559.33	0.443
559.54	0.438
559.74	0.434
559.95	0.431
560.15	0.431
560.36	0.429
560.56	0.424
560.77	0.425
560.97	0.425
561.18	0.419
561.38	0.419
561.59	0.421
561.79	0.418
562.00	0.416
562.21	0.413
562.41	0.412
562.62	0.411
562.82	0.409
563.03	0.406
563.23	0.405
563.44	0.405
563.64	0.402
563.85	0.403
564.05	0.396
564.26	0.395
564.46	0.394
564.67	0.394
564.87	0.390
565.08	0.388
565.28	0.388
565.49	0.388
565.69	0.386
565.90	0.383
566.10	0.386
566.31	0.379
566.51	0.381
566.72	0.382
566.92	0.377
567.13	0.377
567.33	0.376
567.54	0.375
567.74	0.374
567.95	0.370
568.15	0.371
568.36	0.371
568.56	0.370
568.77	0.365
568.97	0.364
569.18	0.364
569.38	0.362
569.59	0.363
569.79	0.360
570.00	0.357
570.20	0.356
570.41	0.355
570.61	0.353
570.82	0.354
571.02	0.351
571.23	0.353
571.43	0.349
571.64	0.348
571.84	0.347
572.05	0.345
572.25	0.345
572.45	0.343
572.66	0.340
572.86	0.340
573.07	0.338
573.27	0.337
573.48	0.336
573.68	0.332
573.89	0.332
574.09	0.333
574.30	0.331
574.50	0.329
574.70	0.329
574.91	0.327
575.11	0.327
575.32	0.327
575.52	0.323
575.73	0.323
575.93	0.323
576.14	0.321
576.34	0.320
576.54	0.319
576.75	0.317
576.95	0.316
577.16	0.314
577.36	0.313
577.57	0.313
577.77	0.312
577.97	0.309
578.18	0.311
578.38	0.308
578.59	0.306
578.79	0.305
579.00	0.305
579.20	0.303
579.40	0.302
579.61	0.302
579.81	0.300
580.02	0.299
580.22	0.298
580.42	0.298
580.63	0.297
580.83	0.297
581.04	0.294
581.24	0.293
581.45	0.293
581.65	0.293
581.85	0.292
582.06	0.290
582.26	0.290
582.47	0.288
582.67	0.288
582.87	0.287
583.08	0.284
583.28	0.285
583.48	0.284
583.69	0.281
583.89	0.281
584.10	0.282
584.30	0.280
584.50	0.278
584.71	0.277
584.91	0.277
585.12	0.275
585.32	0.277
585.52	0.275
585.73	0.273
585.93	0.272
586.13	0.272
586.34	0.271
586.54	0.270
586.75	0.269
586.95	0.268
587.15	0.268
587.36	0.267
587.56	0.265
587.76	0.264
587.97	0.263
588.17	0.262
588.37	0.262
588.58	0.262
588.78	0.259
588.98	0.259
589.19	0.258
589.39	0.255
589.60	0.257
589.80	0.255
590.00	0.255
590.21	0.255
590.41	0.254
590.61	0.253
590.82	0.253
591.02	0.253
591.22	0.251
591.43	0.252
591.63	0.250
591.83	0.249
592.04	0.248
592.24	0.249
592.44	0.246
592.65	0.244
592.85	0.245
593.05	0.245
593.26	0.243
593.46	0.243
593.66	0.243
593.86	0.242
594.07	0.241
594.27	0.240
594.47	0.239
594.68	0.238
594.88	0.239
595.08	0.238
595.29	0.239
595.49	0.236
595.69	0.236
595.90	0.235
596.10	0.235
596.30	0.234
596.50	0.233
596.71	0.233
596.91	0.232
597.11	0.231
597.32	0.231
597.52	0.230
597.72	0.230
597.93	0.229
598.13	0.228
598.33	0.228
598.53	0.227
598.74	0.227
598.94	0.226
599.14	0.225
599.35	0.226
599.55	0.226
599.75	0.225
599.95	0.224
600.16	0.224
600.36	0.222
600.56	0.222
600.76	0.221
600.97	0.220
601.17	0.220
601.37	0.220
601.58	0.219
601.78	0.219
601.98	0.217
602.18	0.216
602.39	0.216
602.59	0.216
602.79	0.216
602.99	0.216
603.20	0.215
603.40	0.215
603.60	0.214
603.80	0.214
604.01	0.214
604.21	0.213
604.41	0.213
604.61	0.212
604.82	0.212
605.02	0.212
605.22	0.211
605.42	0.210
605.62	0.210
605.83	0.208
606.03	0.207
606.23	0.207
606.43	0.206
606.64	0.206
606.84	0.205
607.04	0.205
607.24	0.206
607.45	0.205
607.65	0.204
607.85	0.205
608.05	0.204
608.25	0.204
608.46	0.204
608.66	0.204
608.86	0.203
609.06	0.202
609.26	0.201
609.47	0.201
609.67	0.200
609.87	0.200
610.07	0.200
610.28	0.198
610.48	0.198
610.68	0.198
610.88	0.196
611.08	0.197
611.29	0.195
611.49	0.195
611.69	0.195
611.89	0.194
612.09	0.194
612.29	0.193
612.50	0.193
612.70	0.193
612.90	0.192
613.10	0.192
613.30	0.192
613.51	0.192
613.71	0.192
613.91	0.196
614.11	0.191
614.31	0.191
614.51	0.191
614.72	0.191
614.92	0.190
615.12	0.190
615.32	0.190
615.52	0.190
615.72	0.190
615.93	0.190
616.13	0.189
616.33	0.189
616.53	0.189
616.73	0.189
616.93	0.187
617.14	0.188
617.34	0.187
617.54	0.187
617.74	0.187
617.94	0.186
618.14	0.185
618.34	0.185
618.55	0.185
618.75	0.185
618.95	0.185
619.15	0.185
619.35	0.184
619.55	0.183
619.75	0.184
619.96	0.183
620.16	0.183
620.36	0.183
620.56	0.182
620.76	0.182
620.96	0.182
621.16	0.181
621.36	0.181
621.57	0.181
621.77	0.181
621.97	0.180
622.17	0.180
622.37	0.180
622.57	0.180
622.77	0.179
622.97	0.178
623.18	0.178
623.38	0.179
623.58	0.178
623.78	0.177
623.98	0.177
624.18	0.176
624.38	0.176
624.58	0.177
624.78	0.177
624.98	0.177
625.19	0.176
625.39	0.176
625.59	0.176
625.79	0.176
625.99	0.175
626.19	0.175
626.39	0.175
626.59	0.175
626.79	0.174
626.99	0.175
627.19	0.174
627.40	0.174
627.60	0.173
627.80	0.173
628.00	0.173
628.20	0.172
628.40	0.172
628.60	0.171
628.80	0.170
629.00	0.171
629.20	0.170
629.40	0.170
629.60	0.169
629.80	0.169
630.00	0.170
630.20	0.169
630.41	0.168
630.61	0.168
630.81	0.168
631.01	0.168
631.21	0.167
631.41	0.167
631.61	0.168
631.81	0.167
632.01	0.167
632.21	0.167
632.41	0.165
632.61	0.166
632.81	0.166
633.01	0.166
633.21	0.166
633.41	0.167
633.61	0.166
633.81	0.165
634.01	0.164
634.21	0.165
634.41	0.164
634.61	0.165
634.81	0.164
635.01	0.163
635.22	0.163
635.42	0.163
635.62	0.163
635.82	0.163
636.02	0.162
636.22	0.162
636.42	0.161
636.62	0.161
636.82	0.161
637.02	0.160
637.22	0.161
637.42	0.160
637.62	0.160
637.82	0.160
638.02	0.159
638.22	0.159
638.42	0.159
638.62	0.158
638.82	0.158
639.02	0.158
639.22	0.158
639.42	0.157
639.62	0.157
639.82	0.156
640.02	0.156
640.22	0.157
640.42	0.157
640.62	0.157
640.82	0.157
641.02	0.156
641.22	0.157
641.42	0.156
641.61	0.156
641.81	0.156
642.01	0.156
642.21	0.156
642.41	0.156
642.61	0.155
642.81	0.154
643.01	0.154
643.21	0.154
643.41	0.154
643.61	0.154
643.81	0.153
644.01	0.152
644.21	0.152
644.41	0.152
644.61	0.152
644.81	0.152
645.01	0.152
645.21	0.152
645.41	0.151
645.61	0.151
645.81	0.150
646.01	0.150
646.21	0.151
646.40	0.150
646.60	0.150
646.80	0.150
647.00	0.150
647.20	0.149
647.40	0.149
647.60	0.149
647.80	0.148
648.00	0.148
648.20	0.148
648.40	0.148
648.60	0.147
648.80	0.147
649.00	0.147
649.20	0.147
649.39	0.147
649.59	0.146
649.79	0.146
649.99	0.146
650.19	0.145
650.39	0.145
650.59	0.145
650.79	0.145
650.99	0.145
651.19	0.144
651.39	0.144
651.58	0.144
651.78	0.143
651.98	0.143
652.18	0.143
652.38	0.143
652.58	0.143
652.78	0.142
652.98	0.142
653.18	0.142
653.38	0.142
653.57	0.142
653.77	0.142
653.97	0.142
654.17	0.141
654.37	0.141
654.57	0.141
654.77	0.141
654.97	0.140
655.16	0.140
655.36	0.140
655.56	0.140
655.76	0.139
655.96	0.139
656.16	0.138
656.36	0.139
656.56	0.138
656.75	0.138
656.95	0.138
657.15	0.138
657.35	0.137
657.55	0.137
657.75	0.137
657.95	0.137
658.14	0.137
658.34	0.137
658.54	0.137
658.74	0.137
658.94	0.136
659.14	0.136
659.34	0.136
659.53	0.135
659.73	0.135
659.93	0.135
660.13	0.134
660.33	0.134
660.53	0.134
660.72	0.134
660.92	0.134
661.12	0.133
661.32	0.134
661.52	0.133
661.72	0.133
661.91	0.132
662.11	0.133
662.31	0.132
662.51	0.132
662.71	0.132
662.90	0.131
663.10	0.131
663.30	0.131
663.50	0.131
663.70	0.131
663.90	0.131
664.09	0.130
664.29	0.130
664.49	0.130
664.69	0.130
664.89	0.129
665.08	0.129
665.28	0.129
665.48	0.128
665.68	0.128
665.88	0.127
666.07	0.127
666.27	0.127
666.47	0.127
666.67	0.127
666.87	0.127
667.06	0.126
667.26	0.126
667.46	0.126
667.66	0.126
667.85	0.126
668.05	0.127
668.25	0.127
668.45	0.126
668.65	0.126
668.84	0.126
669.04	0.126
669.24	0.125
669.44	0.124
669.63	0.124
669.83	0.124
670.03	0.123
670.23	0.122
670.42	0.122
670.62	0.122
670.82	0.122
671.02	0.121
671.22	0.121
671.41	0.121
671.61	0.121
671.81	0.122
672.01	0.121
672.20	0.121
672.40	0.121
672.60	0.121
672.80	0.121
672.99	0.121
673.19	0.120
673.39	0.121
673.58	0.120
673.78	0.120
673.98	0.120
674.18	0.119
674.37	0.119
674.57	0.119
674.77	0.119
674.97	0.119
675.16	0.119
675.36	0.118
675.56	0.118
675.75	0.118
675.95	0.117
676.15	0.118
676.35	0.117
676.54	0.117
676.74	0.117
676.94	0.117
677.13	0.116
677.33	0.116
677.53	0.116
677.73	0.116
677.92	0.115
678.12	0.116
678.32	0.115
678.51	0.115
678.71	0.115
678.91	0.114
679.11	0.113
679.30	0.114
679.50	0.113
679.70	0.113
679.89	0.113
680.09	0.113
680.29	0.112
680.48	0.113
680.68	0.112
680.88	0.112
681.07	0.112
681.27	0.112
681.47	0.112
681.66	0.112
681.86	0.112
682.06	0.111
682.25	0.111
682.45	0.111
682.65	0.111
682.84	0.110
683.04	0.110
683.24	0.109
683.43	0.110
683.63	0.109
683.83	0.109
684.02	0.109
684.22	0.108
684.42	0.108
684.61	0.108
684.81	0.108
685.01	0.108
685.20	0.108
685.40	0.108
685.60	0.107
685.79	0.107
685.99	0.107
686.19	0.107
686.38	0.107
686.58	0.108
686.77	0.108
686.97	0.107
687.17	0.107
687.36	0.106
687.56	0.106
687.76	0.106
687.95	0.106
688.15	0.106
688.34	0.106
688.54	0.105
688.74	0.105
688.93	0.105
689.13	0.105
689.33	0.105
689.52	0.104
689.72	0.105
689.91	0.104
690.11	0.104
690.31	0.103
690.50	0.103
690.70	0.103
690.89	0.103
691.09	0.103
691.29	0.103
691.48	0.102
691.68	0.102
691.87	0.102
692.07	0.102
692.27	0.102
692.46	0.102
692.66	0.102
692.85	0.101
693.05	0.102
693.25	0.102
693.44	0.101
693.64	0.101
693.83	0.101
694.03	0.100
694.22	0.100
694.42	0.100
694.62	0.100
694.81	0.100
695.01	0.100
695.20	0.100
695.40	0.099
695.59	0.099
695.79	0.099
695.99	0.099
696.18	0.099
696.38	0.099
696.57	0.099
696.77	0.099
696.96	0.099
697.16	0.098
697.36	0.098
697.55	0.098
697.75	0.098
697.94	0.098
698.14	0.098
698.33	0.097
698.53	0.097
698.72	0.097
698.92	0.097
699.11	0.097
699.31	0.097
699.51	0.097
699.70	0.096
699.90	0.096
700.09	0.096
700.29	0.095
700.48	0.096
700.68	0.095
700.87	0.096
701.07	0.095
701.26	0.095
701.46	0.094
701.65	0.094
701.85	0.094
702.04	0.095
702.24	0.094
702.43	0.094
702.63	0.094
702.82	0.094
703.02	0.094
703.21	0.094
703.41	0.094
703.60	0.094
703.80	0.093
703.99	0.093
704.19	0.093
704.38	0.093
704.58	0.092
704.77	0.092
704.97	0.092
705.16	0.092
705.36	0.092
705.55	0.092
705.75	0.092
705.94	0.092
706.14	0.092
706.33	0.092
706.53	0.092
706.72	0.092
706.92	0.091
707.11	0.092
707.31	0.091
707.50	0.091
707.70	0.091
707.89	0.091
708.09	0.091
708.28	0.091
708.48	0.091
708.67	0.091
708.86	0.091
709.06	0.091
709.25	0.091
709.45	0.091
709.64	0.090
709.84	0.091
710.03	0.090
710.23	0.090
710.42	0.089
710.62	0.089
710.81	0.089
711.00	0.089
711.20	0.089
711.39	0.088
711.59	0.088
711.78	0.089
711.98	0.088
712.17	0.089
712.37	0.088
712.56	0.088
712.75	0.088
712.95	0.088
713.14	0.088
713.34	0.088
713.53	0.088
713.73	0.089
713.92	0.089
714.11	0.089
714.31	0.088
714.50	0.088
714.70	0.088
714.89	0.088
715.08	0.088
715.28	0.088
715.47	0.088
715.67	0.088
715.86	0.087
716.06	0.088
716.25	0.087
716.44	0.087
716.64	0.088
716.83	0.087
717.03	0.087
717.22	0.087
717.41	0.087
717.61	0.087
717.80	0.087
717.99	0.087
718.19	0.087
718.38	0.087
718.58	0.086
718.77	0.086
718.96	0.085
719.16	0.085
719.35	0.085
719.55	0.085
719.74	0.085
719.93	0.085
720.13	0.085
720.32	0.085
720.51	0.085
720.71	0.085
720.90	0.085
721.10	0.085
721.29	0.085
721.48	0.085
721.68	0.084
721.87	0.085
722.06	0.085
722.26	0.085
722.45	0.085
722.64	0.085
722.84	0.085
723.03	0.085
723.22	0.085
723.42	0.085
723.61	0.085
723.80	0.085
724.00	0.085
724.19	0.085
724.38	0.085
724.58	0.084
724.77	0.084
724.96	0.084
725.16	0.085
725.35	0.084
725.54	0.085
725.74	0.084
725.93	0.084
726.12	0.084
726.32	0.084
726.51	0.084
726.70	0.084
726.90	0.085
727.09	0.084
727.28	0.084
727.48	0.085
727.67	0.085
727.86	0.085
728.06	0.085
728.25	0.085
728.44	0.085
728.64	0.085
728.83	0.085
729.02	0.084
729.21	0.085
729.41	0.084
729.60	0.084
729.79	0.084
729.99	0.084
730.18	0.084
730.37	0.084
730.56	0.084
730.76	0.084
730.95	0.084
731.14	0.084
731.34	0.084
731.53	0.085
731.72	0.085
731.91	0.085
732.11	0.085
732.30	0.085
732.49	0.085
732.69	0.085
732.88	0.085
733.07	0.085
733.26	0.085
733.46	0.085
733.65	0.085
733.84	0.085
734.03	0.085
734.23	0.085
734.42	0.085
734.61	0.085
734.80	0.084
735.00	0.085
735.19	0.084
735.38	0.084
735.57	0.084
735.77	0.084
735.96	0.084
736.15	0.084
736.34	0.084
736.54	0.084
736.73	0.084
736.92	0.084
737.11	0.084
737.31	0.084
737.50	0.084
737.69	0.085
737.88	0.085
738.07	0.084
738.27	0.084
738.46	0.085
738.65	0.084
738.84	0.084
739.04	0.084
739.23	0.084
739.42	0.084
739.61	0.084
739.80	0.084
740.00	0.084
740.19	0.084
740.38	0.084
740.57	0.084
740.76	0.083
740.96	0.083
741.15	0.083
741.34	0.083
741.53	0.083
741.72	0.083
741.92	0.083
742.11	0.083
742.30	0.082
742.49	0.083
742.68	0.083
742.88	0.083
743.07	0.083
743.26	0.083
743.45	0.084
743.64	0.083
743.84	0.083
744.03	0.083
744.22	0.083
744.41	0.083
744.60	0.082
744.79	0.082
744.99	0.082
745.18	0.082
745.37	0.081
745.56	0.081
745.75	0.081
745.94	0.081
746.14	0.080
746.33	0.080
746.52	0.081
746.71	0.081
746.90	0.081
747.09	0.081
747.28	0.081
747.48	0.081
747.67	0.081
747.86	0.081
748.05	0.081
748.24	0.081
748.43	0.081
748.62	0.081
748.82	0.081
749.01	0.081
749.20	0.080
749.39	0.080
749.58	0.081
749.77	0.080
749.96	0.080
750.16	0.080
750.35	0.080
750.54	0.080
750.73	0.080
750.92	0.080
751.11	0.080
751.30	0.081
751.49	0.080
751.68	0.080
751.88	0.080
752.07	0.079
752.26	0.080
752.45	0.079
752.64	0.079
752.83	0.079
753.02	0.079
753.21	0.079
753.40	0.078
753.60	0.079
753.79	0.079
753.98	0.078
754.17	0.078
754.36	0.078
754.55	0.078
754.74	0.078
754.93	0.078
755.12	0.078
755.31	0.078
755.50	0.078
755.70	0.078
755.89	0.078
756.08	0.078
756.27	0.078
756.46	0.078
756.65	0.078
756.84	0.078
757.03	0.078
757.22	0.078
757.41	0.078
757.60	0.078
757.79	0.078
757.98	0.078
758.17	0.078
758.36	0.078
758.56	0.078
758.75	0.078
758.94	0.077
759.13	0.078
759.32	0.077
759.51	0.077
759.70	0.077
759.89	0.077
760.08	0.077
760.27	0.077
760.46	0.077
760.65	0.077
760.84	0.077
761.03	0.077
761.22	0.077
761.41	0.077
761.60	0.077
761.79	0.076
761.98	0.076
762.17	0.076
762.36	0.076
762.55	0.075
762.74	0.075
762.93	0.075
763.12	0.075
763.31	0.075
763.50	0.075
763.69	0.075
763.88	0.075
764.07	0.075
764.26	0.075
764.45	0.075
764.64	0.076
764.83	0.075
765.02	0.076
765.21	0.076
765.40	0.076
765.59	0.076
765.78	0.076
765.97	0.076
766.16	0.076
766.35	0.076
766.54	0.076
766.73	0.076
766.92	0.076
767.11	0.075
767.30	0.075
767.49	0.075
767.68	0.076
767.87	0.075
768.06	0.075
768.25	0.075
768.44	0.075
768.63	0.075
768.82	0.075
769.01	0.075
769.20	0.075
769.39	0.075
769.58	0.075
769.77	0.075
769.96	0.075
770.15	0.075
770.34	0.075
770.53	0.074
770.72	0.074
770.91	0.074
771.10	0.074
771.29	0.074
771.47	0.074
771.66	0.073
771.85	0.074
772.04	0.074
772.23	0.074
772.42	0.074
772.61	0.074
772.80	0.074
772.99	0.074
773.18	0.074
773.37	0.074
773.56	0.074
773.75	0.074
773.94	0.074
774.13	0.073
774.31	0.073
774.50	0.073
774.69	0.073
774.88	0.073
775.07	0.073
775.26	0.073
775.45	0.072
775.64	0.073
775.83	0.072
776.02	0.072
776.21	0.072
776.40	0.072
776.58	0.071
776.77	0.072
776.96	0.072
777.15	0.072
777.34	0.072
777.53	0.073
777.72	0.072
777.91	0.072
778.10	0.072
778.28	0.072
778.47	0.072
778.66	0.072
778.85	0.072
779.04	0.072
779.23	0.072
779.42	0.072
779.61	0.071
779.79	0.071
779.98	0.071
780.17	0.072
780.36	0.071
780.55	0.071
780.74	0.071
780.93	0.071
781.12	0.071
781.30	0.071
781.49	0.071
781.68	0.071
781.87	0.071
782.06	0.071
782.25	0.071
782.44	0.071
782.62	0.071
782.81	0.072
783.00	0.071
783.19	0.071
783.38	0.071
783.57	0.071
783.75	0.070
783.94	0.070
784.13	0.070
784.32	0.070
784.51	0.070
784.70	0.070
784.88	0.070
785.07	0.070
785.26	0.069
785.45	0.070
785.64	0.069
785.83	0.070
786.01	0.070
786.20	0.070
786.39	0.070
786.58	0.070
786.77	0.070
786.95	0.069
787.14	0.070
787.33	0.070
787.52	0.070
787.71	0.070
787.90	0.070
788.08	0.070
788.27	0.069
788.46	0.069
788.65	0.070
788.84	0.070
789.02	0.070
789.21	0.070
789.40	0.070
789.59	0.070
789.77	0.070
789.96	0.069
790.15	0.069
790.34	0.070
790.53	0.070
790.71	0.069
790.90	0.069
791.09	0.069
791.28	0.069
791.46	0.069
791.65	0.069
791.84	0.069
792.03	0.069
792.22	0.069
792.40	0.069
792.59	0.069
792.78	0.069
792.97	0.069
793.15	0.069
793.34	0.069
793.53	0.069
793.72	0.069
793.90	0.068
794.09	0.069
794.28	0.069
794.47	0.069
794.65	0.068
794.84	0.068
795.03	0.068
795.22	0.068
795.40	0.068
795.59	0.068
795.78	0.068
795.97	0.069
796.15	0.069
796.34	0.069
796.53	0.069
796.71	0.070
796.90	0.070
797.09	0.070
797.28	0.069
797.46	0.069
797.65	0.069
797.84	0.069
798.02	0.069
798.21	0.068
798.40	0.068
798.59	0.068
798.77	0.068
798.96	0.067
799.15	0.067
799.33	0.067
799.52	0.067
799.71	0.067
799.90	0.067
800.08	0.067
800.27	0.067
800.46	0.067
800.64	0.067
800.83	0.067
801.02	0.067
801.20	0.067
801.39	0.067
801.58	0.067
801.76	0.067
801.95	0.067
802.14	0.067
802.32	0.067
802.51	0.067
802.70	0.067
802.88	0.067
803.07	0.067
803.26	0.067
803.44	0.067
803.63	0.067
803.82	0.067
804.00	0.067
804.19	0.067
804.38	0.067
804.56	0.067
804.75	0.067
804.94	0.067
805.12	0.067
805.31	0.067
805.50	0.067
805.68	0.067
805.87	0.067
806.06	0.067
806.24	0.067
806.43	0.067
806.62	0.067
806.80	0.067
806.99	0.067
807.17	0.067
807.36	0.067
807.55	0.067
807.73	0.067
807.92	0.067
808.11	0.067
808.29	0.067
808.48	0.067
808.66	0.067
808.85	0.066
809.04	0.066
809.22	0.066
809.41	0.067
809.59	0.067
809.78	0.067
809.97	0.066
810.15	0.066
810.34	0.066
810.53	0.066
810.71	0.066
810.90	0.066
811.08	0.066
811.27	0.066
811.45	0.066
811.64	0.065
811.83	0.066
812.01	0.066
812.20	0.066
812.38	0.066
812.57	0.066
812.76	0.066
812.94	0.066
813.13	0.066
813.31	0.066
813.50	0.066
813.68	0.066
813.87	0.066
814.06	0.066
814.24	0.066
814.43	0.066
814.61	0.065
814.80	0.065
814.98	0.066
815.17	0.066
815.36	0.066
815.54	0.066
815.73	0.065
815.91	0.065
816.10	0.065
816.28	0.065
816.47	0.065
816.65	0.065
816.84	0.065
817.03	0.066
817.21	0.066
817.40	0.066
817.58	0.066
817.77	0.066
817.95	0.066
818.14	0.066
818.32	0.066
818.51	0.066
818.69	0.066
818.88	0.066
819.06	0.066
819.25	0.066
819.43	0.066
819.62	0.066
819.80	0.066
819.99	0.066
820.18	0.066
820.36	0.066
820.55	0.066
820.73	0.066
820.92	0.066
821.10	0.066
821.29	0.066
821.47	0.066
821.66	0.066
821.84	0.066
822.03	0.066
822.21	0.066
822.40	0.066
822.58	0.066
822.77	0.066
822.95	0.066
823.14	0.066
823.32	0.066
823.50	0.066
823.69	0.066
823.87	0.066
824.06	0.067
824.24	0.067
824.43	0.067
824.61	0.067
824.80	0.068
824.98	0.068
825.17	0.068
825.35	0.068
825.54	0.068
825.72	0.068
825.91	0.068
826.09	0.067
826.28	0.067
826.46	0.068
826.64	0.068
826.83	0.068
827.01	0.068
827.20	0.068
827.38	0.068
827.57	0.068
827.75	0.068
827.94	0.069
828.12	0.069
828.31	0.069
828.49	0.069
828.67	0.069
828.86	0.069
829.04	0.069
829.23	0.069
829.41	0.070
829.60	0.069
829.78	0.070
829.96	0.070
830.15	0.070
830.33	0.070
830.52	0.070
830.70	0.071
830.88	0.070
831.07	0.071
831.25	0.071
831.44	0.071
831.62	0.071
831.81	0.071
831.99	0.071
832.17	0.071
832.36	0.071
832.54	0.071
832.73	0.071
832.91	0.071
833.09	0.071
833.28	0.071
833.46	0.071
833.65	0.071
833.83	0.072
834.01	0.072
834.20	0.072
834.38	0.072
834.56	0.072
834.75	0.072
834.93	0.072
835.12	0.072
835.30	0.072
835.48	0.072
835.67	0.072
835.85	0.072
836.03	0.072
836.22	0.072
836.40	0.072
836.59	0.072
836.77	0.072
836.95	0.072
837.14	0.072
837.32	0.072
837.50	0.072
837.69	0.072
837.87	0.072
838.05	0.072
838.24	0.072
838.42	0.072
838.60	0.072
838.79	0.073
838.97	0.072
839.15	0.073
839.34	0.073
839.52	0.073
839.70	0.073
839.89	0.073
840.07	0.073
840.25	0.073
840.44	0.073
840.62	0.073
840.80	0.073
840.99	0.073
841.17	0.073
841.35	0.073
841.54	0.073
841.72	0.073
841.90	0.074
842.09	0.073
842.27	0.074
842.45	0.074
842.64	0.074
842.82	0.074
843.00	0.074
843.19	0.074
843.37	0.073
843.55	0.073
843.73	0.073
843.92	0.073
844.10	0.073
844.28	0.073
844.47	0.073
844.65	0.073
844.83	0.073
845.01	0.073
845.20	0.073
845.38	0.074
845.56	0.073
845.75	0.073
845.93	0.073
846.11	0.073
846.29	0.074
846.48	0.074
846.66	0.074
846.84	0.074
847.02	0.073
847.21	0.073
847.39	0.074
847.57	0.074
847.76	0.074
847.94	0.074
848.12	0.074
848.30	0.074
848.49	0.074
848.67	0.074
848.85	0.074
849.03	0.074
849.22	0.074
849.40	0.074
849.58	0.075
849.76	0.075
849.95	0.075
850.13	0.075
850.31	0.075
850.49	0.075
850.67	0.075
850.86	0.075
851.04	0.075
851.22	0.074
851.40	0.074
851.59	0.074
851.77	0.074
851.95	0.074
852.13	0.074
852.31	0.074
852.50	0.074
852.68	0.075
852.86	0.075
853.04	0.075
853.23	0.075
853.41	0.075
853.59	0.075
853.77	0.075
853.95	0.075
854.14	0.075
854.32	0.075
854.50	0.075
854.68	0.074
854.86	0.075
855.04	0.075
855.23	0.075
855.41	0.075
855.59	0.075
855.77	0.074
855.95	0.075
856.14	0.075
856.32	0.075
856.50	0.075
856.68	0.075
856.86	0.075
857.04	0.075
857.23	0.075
857.41	0.074
857.59	0.075
857.77	0.075
857.95	0.075
858.13	0.074
858.32	0.075
858.50	0.075
858.68	0.074
858.86	0.075
859.04	0.075
859.22	0.075
859.41	0.075
859.59	0.075
859.77	0.074
859.95	0.074
860.13	0.075
860.31	0.075
860.49	0.074
860.68	0.075
860.86	0.075
861.04	0.075
861.22	0.075
861.40	0.075
861.58	0.074
861.76	0.074
861.94	0.075
862.13	0.075
862.31	0.075
862.49	0.075
862.67	0.075
862.85	0.075
863.03	0.075
863.21	0.075
863.39	0.075
863.57	0.075
863.76	0.076
863.94	0.076
864.12	0.076
864.30	0.076
864.48	0.076
864.66	0.076
864.84	0.076
865.02	0.076
865.20	0.076
865.38	0.076
865.57	0.076
865.75	0.076
865.93	0.076
866.11	0.075
866.29	0.075
866.47	0.076
866.65	0.076
866.83	0.076
867.01	0.076
867.19	0.076
867.37	0.076
867.55	0.077
867.73	0.077
867.92	0.077
868.10	0.077
868.28	0.077
868.46	0.076
868.64	0.076
868.82	0.077
869.00	0.077
869.18	0.077
869.36	0.076
869.54	0.076
869.72	0.077
869.90	0.077
870.08	0.077
870.26	0.077
870.44	0.077
870.62	0.077
870.80	0.077
870.98	0.077
871.16	0.077
871.34	0.077
871.53	0.077
871.71	0.077
871.89	0.077
872.07	0.077
872.25	0.077
872.43	0.077
872.61	0.077
872.79	0.077
872.97	0.077
873.15	0.077
873.33	0.078
873.51	0.078
873.69	0.078
873.87	0.078
874.05	0.078
874.23	0.078
874.41	0.078
874.59	0.079
874.77	0.079
874.95	0.078
875.13	0.079
875.31	0.078
875.49	0.078
875.67	0.078
875.85	0.078
876.03	0.078
876.21	0.079
876.39	0.078
876.57	0.078
876.75	0.079
876.93	0.079
877.11	0.079
877.29	0.078
877.47	0.078
877.65	0.079
877.82	0.079
878.00	0.079
878.18	0.079
878.36	0.079
878.54	0.079
878.72	0.078
878.90	0.078
879.08	0.079
879.26	0.078
879.44	0.079
879.62	0.079
879.80	0.078
879.98	0.079
880.16	0.078
880.34	0.078
880.52	0.078
880.70	0.078
880.88	0.078
881.06	0.078
881.24	0.078
881.42	0.078
881.59	0.078
881.77	0.078
881.95	0.078
882.13	0.078
882.31	0.078
882.49	0.078
882.67	0.079
882.85	0.079
883.03	0.079
883.21	0.079
883.39	0.079
883.57	0.079
883.75	0.079
883.92	0.079
884.10	0.080
884.28	0.080
884.46	0.080
884.64	0.080
884.82	0.080
885.00	0.079
885.18	0.079
885.36	0.080
885.54	0.079
885.71	0.080
885.89	0.080
886.07	0.080
886.25	0.080
886.43	0.080
886.61	0.080
886.79	0.080
886.97	0.080
887.15	0.080
887.32	0.080
887.50	0.080
887.68	0.080
887.86	0.080
888.04	0.080
888.22	0.080
888.40	0.080
888.57	0.080
888.75	0.080
888.93	0.081
889.11	0.081
889.29	0.081
889.47	0.081
889.65	0.081
889.82	0.081
890.00	0.082
890.18	0.081
890.36	0.081
890.54	0.082
890.72	0.082
890.90	0.082
891.07	0.082
891.25	0.082
891.43	0.081
891.61	0.081
891.79	0.081
891.97	0.081
892.14	0.081
892.32	0.081
892.50	0.082
892.68	0.082
892.86	0.082
893.03	0.082
893.21	0.082
893.39	0.083
893.57	0.083
893.75	0.083
893.93	0.083
894.10	0.083
894.28	0.083
894.46	0.082
894.64	0.082
894.82	0.082
894.99	0.082
895.17	0.082
895.35	0.082
895.53	0.082
895.71	0.082
895.88	0.082
896.06	0.082
896.24	0.082
896.42	0.082
896.59	0.082
896.77	0.082
896.95	0.082
897.13	0.082
897.31	0.082
897.48	0.082
897.66	0.083
897.84	0.082
898.02	0.082
898.19	0.082
898.37	0.083
898.55	0.083
898.73	0.083
898.91	0.083
899.08	0.083
899.26	0.084
899.44	0.084
899.62	0.084
899.79	0.084
899.97	0.084
900.15	0.084
900.33	0.084
900.50	0.084
900.68	0.083
900.86	0.084
901.04	0.084
901.21	0.084
901.39	0.084
901.57	0.084
901.74	0.084
901.92	0.084
902.10	0.084
902.28	0.084
902.45	0.084
902.63	0.084
902.81	0.084
902.99	0.085
903.16	0.085
903.34	0.085
903.52	0.085
903.69	0.085
903.87	0.085
904.05	0.085
904.22	0.085
904.40	0.086
904.58	0.086
904.76	0.086
904.93	0.086
905.11	0.086
905.29	0.086
905.46	0.086
905.64	0.086
905.82	0.086
905.99	0.086
906.17	0.086
906.35	0.086
906.53	0.086
906.70	0.086
906.88	0.086
907.06	0.086
907.23	0.086
907.41	0.086
907.59	0.086
907.76	0.086
907.94	0.087
908.12	0.086
908.29	0.087
908.47	0.087
908.65	0.087
908.82	0.087
909.00	0.087
909.18	0.087
909.35	0.087
909.53	0.087
909.71	0.087
909.88	0.087
910.06	0.087
910.23	0.087
910.41	0.087
910.59	0.087
910.76	0.086
910.94	0.086
911.12	0.087
911.29	0.087
911.47	0.087
911.65	0.087
911.82	0.087
912.00	0.088
912.17	0.087
912.35	0.088
912.53	0.088
912.70	0.088
912.88	0.089
913.06	0.089
913.23	0.089
913.41	0.089
913.58	0.089
913.76	0.089
913.94	0.089
914.11	0.090
914.29	0.090
914.46	0.090
914.64	0.090
914.82	0.090
914.99	0.090
915.17	0.090
915.34	0.090
915.52	0.090
915.70	0.090
915.87	0.090
916.05	0.090
916.22	0.090
916.40	0.090
916.57	0.090
916.75	0.090
916.93	0.091
917.10	0.090
917.28	0.091
917.45	0.090
917.63	0.091
917.80	0.091
917.98	0.091
918.16	0.091
918.33	0.092
918.51	0.092
918.68	0.092
918.86	0.092
919.03	0.092
919.21	0.093
919.39	0.093
919.56	0.093
919.74	0.094
919.91	0.093
920.09	0.094
920.26	0.094
920.44	0.094
920.61	0.094
920.79	0.094
920.96	0.094
921.14	0.095
921.31	0.095
921.49	0.095
921.67	0.095
921.84	0.096
922.02	0.096
922.19	0.096
922.37	0.096
922.54	0.097
922.72	0.097
922.89	0.097
923.07	0.097
923.24	0.098
923.42	0.098
923.59	0.098
923.77	0.098
923.94	0.098
924.12	0.099
924.29	0.100
924.47	0.100
924.64	0.100
924.82	0.100
924.99	0.100
925.17	0.101
925.34	0.101
925.52	0.101
925.69	0.101
925.87	0.102
926.04	0.102
926.22	0.102
926.39	0.102
926.57	0.103
926.74	0.103
926.91	0.103
927.09	0.104
927.26	0.104
927.44	0.104
927.61	0.105
927.79	0.105
927.96	0.106
928.14	0.106
928.31	0.106
928.49	0.106
928.66	0.107
928.84	0.108
929.01	0.108
929.18	0.109
929.36	0.109
929.53	0.109
929.71	0.110
929.88	0.110
930.06	0.110
930.23	0.111
930.41	0.111
930.58	0.112
930.75	0.111
930.93	0.112
931.10	0.112
931.28	0.112
931.45	0.113
931.63	0.114
931.80	0.114
931.97	0.114
932.15	0.115
932.32	0.115
932.50	0.116
932.67	0.117
932.84	0.117
933.02	0.118
933.19	0.118
933.37	0.119
933.54	0.119
933.71	0.120
933.89	0.121
934.06	0.121
934.24	0.122
934.41	0.122
934.58	0.122
934.76	0.123
934.93	0.123
935.11	0.124
935.28	0.124
935.45	0.124
935.63	0.125
935.80	0.125
935.98	0.125
936.15	0.125
936.32	0.126
936.50	0.127
936.67	0.127
936.84	0.127
937.02	0.128
937.19	0.129
937.36	0.129
937.54	0.130
937.71	0.131
937.89	0.131
938.06	0.132
938.23	0.132
938.41	0.133
938.58	0.134
938.75	0.134
938.93	0.135
939.10	0.135
939.27	0.135
939.45	0.136
939.62	0.136
939.79	0.137
939.97	0.137
940.14	0.138
940.31	0.138
940.49	0.139
940.66	0.139
940.83	0.140
941.01	0.141
941.18	0.141
941.35	0.142
941.53	0.142
941.70	0.143
941.87	0.143
942.05	0.144
942.22	0.144
942.39	0.146
942.57	0.146
942.74	0.147
942.91	0.147
943.08	0.147
943.26	0.148
943.43	0.149
943.60	0.149
943.78	0.151
943.95	0.151
944.12	0.152
944.29	0.153
944.47	0.153
944.64	0.154
944.81	0.155
944.99	0.156
945.16	0.157
945.33	0.157
945.50	0.158
945.68	0.159
945.85	0.159
946.02	0.161
946.20	0.162
946.37	0.163
946.54	0.164
946.71	0.165
946.89	0.165
947.06	0.165
947.23	0.166
947.40	0.168
947.58	0.167
947.75	0.169
947.92	0.169
948.09	0.170
948.27	0.171
948.44	0.172
948.61	0.173
948.78	0.174
948.96	0.176
949.13	0.177
949.30	0.178
949.47	0.179
949.65	0.180
949.82	0.182
949.99	0.182
950.16	0.184
950.33	0.185
950.51	0.186
950.68	0.187
950.85	0.188
951.02	0.189
951.20	0.190
951.37	0.191
951.54	0.192
951.71	0.193
951.88	0.194
952.06	0.195
952.23	0.196
952.40	0.197
952.57	0.199
952.74	0.200
952.92	0.201
953.09	0.203
953.26	0.204
953.43	0.205
953.60	0.206
953.77	0.207
953.95	0.208
954.12	0.211
954.29	0.211
954.46	0.214
954.63	0.214
954.81	0.215
954.98	0.216
955.15	0.218
955.32	0.220
955.49	0.220
955.66	0.221
955.84	0.222
956.01	0.223
956.18	0.225
956.35	0.226
956.52	0.227
956.69	0.229
956.87	0.229
957.04	0.230
957.21	0.232
957.38	0.232
957.55	0.233
957.72	0.235
957.89	0.236
958.07	0.236
958.24	0.238
958.41	0.239
958.58	0.238
958.75	0.239
958.92	0.241
959.09	0.241
959.26	0.242
959.44	0.242
959.61	0.243
959.78	0.244
959.95	0.246
960.12	0.245
960.29	0.248
960.46	0.247
960.63	0.247
960.81	0.248
960.98	0.249
961.15	0.249
961.32	0.250
961.49	0.249
961.66	0.250
961.83	0.251
962.00	0.251
962.17	0.251
962.34	0.251
962.52	0.252
962.69	0.252
962.86	0.252
963.03	0.252
963.20	0.253
963.37	0.252
963.54	0.253
963.71	0.253
963.88	0.253
964.05	0.254
964.22	0.255
964.39	0.254
964.56	0.255
964.74	0.256
964.91	0.255
965.08	0.256
965.25	0.257
965.42	0.257
965.59	0.259
965.76	0.258
965.93	0.259
966.10	0.257
966.27	0.258
966.44	0.258
966.61	0.259
966.78	0.259
966.95	0.258
967.12	0.259
967.29	0.261
967.46	0.260
967.63	0.260
967.80	0.260
967.97	0.260
968.14	0.260
968.32	0.261
968.49	0.261
968.66	0.260
968.83	0.261
969.00	0.261
969.17	0.261
969.34	0.262
969.51	0.262
969.68	0.261
969.85	0.261
970.02	0.261
970.19	0.261
970.36	0.261
970.53	0.261
970.70	0.259
970.87	0.260
971.04	0.259
971.21	0.260
971.38	0.260
971.55	0.260
971.72	0.260
971.89	0.261
972.06	0.261
972.23	0.261
972.40	0.261
972.57	0.261
972.74	0.261
972.91	0.262
973.07	0.262
973.24	0.261
973.41	0.261
973.58	0.260
973.75	0.272
973.92	0.260
974.09	0.260
974.26	0.260
974.43	0.259
974.60	0.260
974.77	0.260
974.94	0.260
975.11	0.261
975.28	0.262
975.45	0.260
975.62	0.261
975.79	0.263
975.96	0.261
976.13	0.260
976.30	0.261
976.47	0.259
976.64	0.260
976.80	0.260
976.97	0.260
977.14	0.260
977.31	0.260
977.48	0.260
977.65	0.259
977.82	0.259
977.99	0.261
978.16	0.260
978.33	0.260
978.50	0.259
978.67	0.260
978.83	0.260
979.00	0.260
979.17	0.259
979.34	0.259
979.51	0.258
979.68	0.258
979.85	0.257
980.02	0.257
980.19	0.255
980.36	0.257
980.52	0.258
980.69	0.256
980.86	0.256
981.03	0.256
981.20	0.254
981.37	0.256
981.54	0.256
981.71	0.256
981.88	0.256
982.04	0.256
982.21	0.255
982.38	0.256
982.55	0.255
982.72	0.254
982.89	0.255
983.06	0.254
983.22	0.254
983.39	0.254
983.56	0.254
983.73	0.253
983.90	0.253
984.07	0.255
984.24	0.253
984.40	0.253
984.57	0.251
984.74	0.254
984.91	0.255
985.08	0.252
985.25	0.250
985.41	0.250
985.58	0.250
985.75	0.252
985.92	0.251
986.09	0.250
986.26	0.250
986.42	0.250
986.59	0.248
986.76	0.250
986.93	0.250
987.10	0.250
987.27	0.248
987.43	0.246
987.60	0.248
987.77	0.248
987.94	0.246
988.11	0.246
988.27	0.246
988.44	0.245
988.61	0.244
988.78	0.242
988.95	0.243
989.11	0.244
989.28	0.243
989.45	0.242
989.62	0.241
989.79	0.242
989.95	0.241
990.12	0.242
990.29	0.243
990.46	0.242
990.62	0.241
990.79	0.241
990.96	0.241
991.13	0.242
991.30	0.241
991.46	0.240
991.63	0.238
991.80	0.238
991.97	0.238
992.13	0.238
992.30	0.239
992.47	0.237
992.64	0.237
992.80	0.236
992.97	0.237
993.14	0.234
993.31	0.232
993.47	0.235
993.64	0.233
993.81	0.233
993.98	0.233
994.14	0.232
994.31	0.231
994.48	0.232
994.64	0.232
994.81	0.231
994.98	0.231
995.15	0.229
995.31	0.229
995.48	0.229
995.65	0.231
995.82	0.228
995.98	0.228
996.15	0.228
996.32	0.230
996.48	0.229
996.65	0.229
996.82	0.226
996.99	0.227
997.15	0.226
997.32	0.227
997.49	0.225
997.65	0.226
997.82	0.225
997.99	0.223
998.15	0.224
998.32	0.225
998.49	0.223
998.65	0.224
998.82	0.223
998.99	0.221
999.15	0.222
999.32	0.221
999.49	0.220
999.65	0.221
999.82	0.218
999.99	0.218
1000.15	0.218
1000.32	0.218
1000.49	0.218
1000.65	0.217
1000.82	0.216
1000.99	0.216
1001.15	0.216
1001.32	0.215
1001.49	0.214
1001.65	0.214
1001.82	0.217
1001.99	0.213
1002.15	0.212
1002.32	0.212
1002.49	0.212
1002.65	0.211
1002.82	0.210
1002.99	0.210
1003.15	0.212
1003.32	0.212
1003.48	0.212
1003.65	0.211
1003.82	0.210
1003.98	0.209
1004.15	0.208
1004.32	0.208
1004.48	0.208
1004.65	0.209
1004.81	0.206
1004.98	0.204
1005.15	0.204
1005.31	0.204
1005.48	0.202
1005.64	0.202
1005.81	0.204
1005.98	0.201
1006.14	0.201
1006.31	0.201
1006.47	0.200
1006.64	0.199
1006.81	0.199
1006.97	0.199
1007.14	0.198
1007.30	0.199
1007.47	0.199
1007.63	0.197
1007.80	0.196
1007.97	0.196
1008.13	0.196
1008.30	0.196
1008.46	0.196
1008.63	0.195
1008.79	0.195
1008.96	0.195
1009.13	0.196
1009.29	0.194
1009.46	0.194
1009.62	0.194
1009.79	0.192
1009.95	0.192
1010.12	0.192
1010.28	0.193
1010.45	0.192
1010.62	0.192
1010.78	0.190
1010.95	0.189
1011.11	0.189
1011.28	0.189
1011.44	0.190
1011.61	0.189
1011.77	0.188
1011.94	0.188
1012.10	0.187
1012.27	0.186
1012.43	0.186
1012.60	0.184
1012.76	0.186
1012.93	0.185
1013.10	0.185
1013.26	0.182
1013.43	0.183
1013.59	0.190
1013.76	0.183
1013.92	0.181
1014.09	0.180
1014.25	0.182
1014.42	0.182
1014.58	0.181
1014.75	0.183
1014.91	0.181
1015.08	0.183
1015.24	0.180
1015.41	0.181
1015.57	0.181
1015.73	0.180
1015.90	0.179
1016.06	0.180
1016.23	0.178
1016.39	0.179
1016.56	0.179
1016.72	0.178
1016.89	0.178
1017.05	0.180
1017.22	0.177
1017.38	0.177
1017.55	0.176
1017.71	0.177
1017.88	0.177
1018.04	0.178
1018.21	0.175
1018.37	0.175
1018.53	0.175
1018.70	0.173
1018.86	0.173
1019.03	0.175
1019.19	0.172
1019.36	0.171
1019.52	0.173
1019.69	0.174
1019.85	0.172
1020.01	0.173
1020.18	0.170
1020.34	0.170
1020.51	0.170
1020.67	0.170
1020.84	0.168
1021.00	0.170
1021.16	0.167
1021.33	0.168
1021.49	0.166
1021.66	0.168
1021.82	0.166
1021.98	0.167
1022.15	0.167
1022.31	0.166
1022.48	0.165
1022.64	0.166
1022.80	0.165
1022.97	0.164
1023.13	0.163
1023.30	0.163
1023.46	0.163
1023.62	0.160
1023.79	0.162
1023.95	0.162
1024.12	0.162
1024.28	0.161
1024.44	0.162
1024.61	0.161
1024.77	0.161
1024.93	0.160
1025.10	0.161
1025.26	0.160
1025.43	0.160
1025.59	0.155
1025.75	0.158
1025.92	0.157
1026.08	0.157
1026.24	0.156
1026.41	0.157
1026.57	0.155
1026.73	0.153
1026.90	0.154
1027.06	0.152
1027.23	0.153
1027.39	0.153
1027.55	0.152
1027.72	0.151
1027.88	0.150
1028.04	0.151
1028.21	0.150
1028.37	0.145
1028.53	0.150
1028.70	0.148
1028.86	0.146
1029.02	0.146
1029.19	0.148
1029.35	0.146
1029.51	0.145
1029.67	0.144
1029.84	0.145
1030.00	0.141
1030.16	0.143
1030.33	0.146
1030.49	0.143
1030.65	0.141
1030.82	0.155
1030.98	0.143
1031.14	0.144
1031.31	0.144
1031.47	0.142
1031.63	0.145
1031.79	0.144
1031.96	0.144
1032.12	0.144
1032.28	0.141
1032.45	0.146
1032.61	0.145
1032.77	0.142
1032.93	0.140
1033.10	0.142
1033.26	0.144
1033.42	0.140
1033.58	0.141
1033.75	0.142
1033.91	0.141
1034.07	0.144
1034.24	0.142
1034.40	0.140
1034.56	0.140
1034.72	0.141
1034.89	0.141
1035.05	0.138
1035.21	0.140
1035.37	0.138
1035.54	0.141
1035.70	0.138
1035.86	0.138
1036.02	0.140
1036.19	0.137
1036.35	0.137
1036.51	0.140
1036.67	0.138
1036.83	0.137
1037.00	0.134
1037.16	0.134
1037.32	0.136
1037.48	0.136
1037.65	0.140
1037.81	0.135
1037.97	0.135
1038.13	0.134
1038.29	0.133
1038.46	0.129
1038.62	0.135
1038.78	0.133
1038.94	0.130
1039.10	0.134
1039.27	0.130
1039.43	0.131
1039.59	0.130
1039.75	0.129
1039.91	0.128
1040.08	0.129
1040.24	0.132
1040.40	0.134
1040.56	0.132
1040.72	0.127
1040.89	0.129
1041.05	0.131
1041.21	0.130
1041.37	0.129
1041.53	0.136
1041.69	0.133
1041.86	0.130
1042.02	0.126
1042.18	0.125
1042.34	0.128
1042.50	0.131
1042.66	0.128
1042.83	0.127
1042.99	0.130
1043.15	0.125
1043.31	0.125
1043.47	0.129
1043.63	0.127
1043.79	0.128
1043.96	0.131
1044.12	0.133
1044.28	0.131
1044.44	0.133
1044.60	0.127
1044.76	0.126
1044.92	0.128
1045.09	0.130
1045.25	0.127
1045.41	0.128
1045.57	0.125
1045.73	0.123
1045.89	0.124
1046.05	0.125
1046.21	0.126
1046.38	0.139
1046.54	0.119
1046.70	0.127
1046.86	0.113
>>>>>End Processed Spectral Data<<<<<
