SpectraSuite Data File
++++++++++++++++++++++++++++++++++++
Date: Mon May 20 12:13:02 CDT 2013
User: Students
Dark Spectrum Present: Yes
Reference Spectrum Present: Yes
Number of Sampled Component Spectra: 1
Spectrometers: USB4H00887
Integration Time (usec): 60000 (USB4H00887)
Spectra Averaged: 5 (USB4H00887)
Boxcar Smoothing: 5 (USB4H00887)
Correct for Electrical Dark: No (USB4H00887)
Strobe/Lamp Enabled: No (USB4H00887)
Correct for Detector Non-linearity: No (USB4H00887)
Correct for Stray Light: No (USB4H00887)
Number of Pixels in Processed Spectrum: 3648
>>>>>Begin Processed Spectral Data<<<<<
345.83	0.357
346.05	0.357
346.26	0.357
346.48	-0.000
346.70	0.288
346.92	-0.005
347.14	0.030
347.35	0.049
347.57	0.367
347.79	-0.218
348.01	-0.180
348.23	-0.283
348.44	-0.000
348.66	0.258
348.88	-0.365
349.10	-0.153
349.32	0.075
349.53	-0.028
349.75	-0.032
349.97	-0.039
350.19	-0.024
350.41	-0.065
350.62	1.437
350.84	-0.041
351.06	-0.039
351.28	-0.080
351.50	-0.313
351.71	-0.210
351.93	-0.118
352.15	-0.020
352.37	-0.044
352.58	-0.025
352.80	0.021
353.02	0.039
353.24	0.066
353.46	0.251
353.67	-0.077
353.89	0.042
354.11	0.046
354.33	0.051
354.54	0.062
354.76	0.113
354.98	0.141
355.20	0.100
355.41	0.057
355.63	0.088
355.85	0.052
356.07	1.051
356.28	0.086
356.50	0.141
356.72	0.048
356.94	0.162
357.15	0.229
357.37	-0.000
357.59	0.168
357.81	0.116
358.02	0.215
358.24	0.142
358.46	0.233
358.68	0.196
358.89	0.126
359.11	-0.000
359.33	0.095
359.55	-0.578
359.76	0.145
359.98	0.159
360.20	0.163
360.42	0.096
360.63	0.099
360.85	0.068
361.07	0.340
361.29	0.057
361.50	0.264
361.72	0.106
361.94	0.411
362.15	0.154
362.37	0.080
362.59	0.063
362.81	0.109
363.02	0.152
363.24	0.250
363.46	0.151
363.68	0.194
363.89	0.107
364.11	0.158
364.33	0.164
364.54	0.106
364.76	0.127
364.98	0.144
365.20	0.157
365.41	0.103
365.63	0.134
365.85	0.092
366.06	0.248
366.28	0.322
366.50	0.194
366.71	0.090
366.93	0.117
367.15	0.124
367.37	0.109
367.58	0.155
367.80	0.193
368.02	0.622
368.23	0.174
368.45	0.173
368.67	0.118
368.88	0.109
369.10	-0.000
369.32	0.118
369.53	0.066
369.75	0.127
369.97	0.332
370.19	0.196
370.40	0.079
370.62	0.237
370.84	0.085
371.05	0.439
371.27	0.109
371.49	0.148
371.70	0.196
371.92	0.292
372.14	0.114
372.35	0.118
372.57	0.114
372.79	0.249
373.00	0.063
373.22	0.117
373.44	0.135
373.65	0.111
373.87	0.151
374.09	0.358
374.30	0.100
374.52	0.115
374.74	0.082
374.95	0.397
375.17	0.105
375.39	-0.000
375.60	0.114
375.82	0.163
376.04	0.075
376.25	0.077
376.47	0.060
376.68	0.127
376.90	0.095
377.12	0.169
377.33	0.112
377.55	0.351
377.77	0.187
377.98	0.255
378.20	0.150
378.42	0.181
378.63	0.235
378.85	-0.000
379.07	0.170
379.28	0.585
379.50	0.394
379.71	0.183
379.93	0.118
380.15	0.161
380.36	0.243
380.58	0.183
380.80	0.676
381.01	0.178
381.23	0.137
381.44	0.161
381.66	0.200
381.88	0.229
382.09	-0.099
382.31	0.161
382.53	0.160
382.74	1.396
382.96	0.232
383.17	0.174
383.39	0.224
383.61	0.280
383.82	0.178
384.04	0.217
384.25	0.278
384.47	0.255
384.69	0.240
384.90	0.225
385.12	0.459
385.33	0.274
385.55	0.204
385.77	0.333
385.98	0.165
386.20	0.219
386.41	0.191
386.63	0.218
386.85	0.174
387.06	0.215
387.28	0.360
387.49	0.248
387.71	0.184
387.93	0.173
388.14	0.530
388.36	0.230
388.57	0.226
388.79	0.245
389.01	-0.000
389.22	0.318
389.44	0.255
389.65	0.187
389.87	0.182
390.08	0.207
390.30	0.160
390.52	0.312
390.73	0.311
390.95	0.218
391.16	0.192
391.38	-0.000
391.59	0.199
391.81	0.180
392.03	0.185
392.24	0.233
392.46	0.218
392.67	0.194
392.89	0.264
393.10	0.384
393.32	0.262
393.53	0.343
393.75	0.235
393.97	0.262
394.18	0.373
394.40	0.321
394.61	0.330
394.83	0.268
395.04	0.307
395.26	0.208
395.47	0.326
395.69	0.269
395.91	0.284
396.12	0.334
396.34	0.347
396.55	0.214
396.77	0.305
396.98	1.105
397.20	0.357
397.41	0.416
397.63	0.287
397.84	0.264
398.06	0.239
398.27	0.235
398.49	0.275
398.71	0.204
398.92	0.252
399.14	0.326
399.35	0.432
399.57	0.410
399.78	0.282
400.00	0.281
400.21	0.350
400.43	0.287
400.64	0.312
400.86	0.737
401.07	0.378
401.29	0.328
401.50	0.368
401.72	0.523
401.93	0.325
402.15	0.392
402.36	0.351
402.58	0.288
402.79	0.320
403.01	0.535
403.22	0.401
403.44	0.275
403.65	0.444
403.87	0.480
404.08	0.386
404.30	0.670
404.51	0.360
404.73	0.446
404.94	0.381
405.16	0.389
405.37	0.305
405.59	0.578
405.80	0.352
406.02	0.421
406.23	0.431
406.45	0.486
406.66	0.506
406.88	0.310
407.09	0.474
407.31	0.382
407.52	0.473
407.74	0.382
407.95	0.457
408.17	0.416
408.38	0.451
408.60	0.293
408.81	0.481
409.03	0.369
409.24	0.387
409.45	0.440
409.67	0.409
409.88	0.375
410.10	0.479
410.31	0.389
410.53	0.377
410.74	0.533
410.96	0.529
411.17	0.559
411.39	0.403
411.60	0.362
411.82	0.430
412.03	0.425
412.24	0.405
412.46	0.603
412.67	0.494
412.89	0.492
413.10	0.493
413.32	0.437
413.53	0.508
413.75	0.549
413.96	0.415
414.17	0.555
414.39	0.559
414.60	0.456
414.82	0.609
415.03	0.471
415.25	0.511
415.46	0.350
415.68	0.492
415.89	0.986
416.10	0.740
416.32	0.395
416.53	0.477
416.75	0.449
416.96	0.550
417.18	0.480
417.39	0.452
417.60	0.461
417.82	0.685
418.03	0.598
418.25	0.494
418.46	0.522
418.67	0.477
418.89	0.512
419.10	0.533
419.32	0.727
419.53	0.625
419.75	0.534
419.96	0.477
420.17	0.587
420.39	0.543
420.60	0.552
420.82	0.668
421.03	0.527
421.24	0.441
421.46	0.488
421.67	0.539
421.89	0.474
422.10	0.506
422.31	0.485
422.53	0.701
422.74	0.516
422.96	0.415
423.17	0.469
423.38	0.587
423.60	0.490
423.81	0.610
424.03	0.519
424.24	0.571
424.45	0.571
424.67	0.564
424.88	0.506
425.09	0.546
425.31	0.503
425.52	0.542
425.74	0.610
425.95	0.672
426.16	0.520
426.38	0.607
426.59	0.563
426.80	0.657
427.02	0.698
427.23	0.535
427.45	0.730
427.66	0.713
427.87	0.527
428.09	0.557
428.30	0.620
428.51	0.605
428.73	0.671
428.94	0.591
429.15	0.563
429.37	0.547
429.58	0.568
429.79	0.518
430.01	0.633
430.22	0.622
430.44	0.637
430.65	0.564
430.86	0.608
431.08	0.590
431.29	0.526
431.50	0.633
431.72	0.846
431.93	0.684
432.14	0.517
432.36	0.565
432.57	0.584
432.78	0.608
433.00	0.563
433.21	0.560
433.42	0.706
433.64	0.623
433.85	0.692
434.06	0.562
434.28	0.599
434.49	0.609
434.70	0.621
434.92	0.642
435.13	0.682
435.34	0.691
435.56	0.640
435.77	0.633
435.98	0.817
436.20	0.688
436.41	0.586
436.62	0.573
436.83	0.656
437.05	0.747
437.26	0.647
437.47	0.578
437.69	0.636
437.90	0.586
438.11	0.578
438.33	0.632
438.54	0.656
438.75	0.857
438.97	0.840
439.18	0.620
439.39	0.648
439.60	0.700
439.82	0.662
440.03	0.605
440.24	0.909
440.46	0.666
440.67	0.646
440.88	0.696
441.10	0.637
441.31	0.627
441.52	0.682
441.73	0.763
441.95	0.677
442.16	0.618
442.37	0.978
442.58	0.603
442.80	0.590
443.01	0.770
443.22	0.694
443.44	0.591
443.65	0.704
443.86	0.699
444.07	0.769
444.29	0.657
444.50	0.844
444.71	0.637
444.92	0.595
445.14	0.763
445.35	0.804
445.56	0.632
445.78	0.749
445.99	0.754
446.20	0.649
446.41	0.723
446.63	0.724
446.84	0.680
447.05	0.689
447.26	0.834
447.48	0.705
447.69	0.670
447.90	0.777
448.11	0.684
448.33	0.709
448.54	0.731
448.75	0.766
448.96	0.780
449.18	0.840
449.39	0.741
449.60	0.717
449.81	0.880
450.03	0.741
450.24	0.804
450.45	0.754
450.66	0.737
450.87	0.769
451.09	0.717
451.30	0.685
451.51	0.759
451.72	0.765
451.94	0.785
452.15	0.854
452.36	0.713
452.57	0.737
452.78	0.734
453.00	0.764
453.21	0.716
453.42	0.691
453.63	0.799
453.85	0.755
454.06	0.752
454.27	0.891
454.48	0.783
454.69	0.711
454.91	0.780
455.12	0.688
455.33	0.785
455.54	0.807
455.75	0.770
455.97	0.795
456.18	0.793
456.39	0.803
456.60	0.828
456.81	0.759
457.03	0.771
457.24	0.769
457.45	0.864
457.66	0.794
457.87	0.744
458.09	0.766
458.30	0.678
458.51	0.809
458.72	0.824
458.93	0.840
459.15	0.740
459.36	0.807
459.57	0.827
459.78	0.873
459.99	0.780
460.20	0.743
460.42	0.828
460.63	0.781
460.84	0.758
461.05	0.784
461.26	0.847
461.47	0.754
461.69	0.807
461.90	0.843
462.11	0.805
462.32	0.873
462.53	0.802
462.74	0.911
462.96	0.782
463.17	0.773
463.38	0.817
463.59	0.943
463.80	0.785
464.01	0.807
464.23	0.908
464.44	0.857
464.65	0.862
464.86	0.887
465.07	0.892
465.28	0.851
465.49	0.874
465.71	0.819
465.92	0.859
466.13	0.906
466.34	0.837
466.55	0.892
466.76	0.849
466.97	0.873
467.19	0.864
467.40	0.903
467.61	0.912
467.82	0.824
468.03	0.807
468.24	0.878
468.45	0.918
468.66	0.897
468.88	0.910
469.09	0.917
469.30	0.963
469.51	0.879
469.72	0.926
469.93	0.891
470.14	0.866
470.35	0.966
470.57	0.915
470.78	0.847
470.99	0.995
471.20	0.926
471.41	0.878
471.62	0.940
471.83	0.910
472.04	0.943
472.25	0.994
472.47	0.900
472.68	0.905
472.89	0.911
473.10	0.960
473.31	0.904
473.52	0.964
473.73	0.985
473.94	0.898
474.15	0.928
474.36	0.929
474.57	0.955
474.79	0.926
475.00	0.926
475.21	0.907
475.42	1.002
475.63	0.897
475.84	0.934
476.05	0.943
476.26	0.910
476.47	0.942
476.68	0.995
476.89	0.918
477.10	0.978
477.32	0.964
477.53	1.027
477.74	0.939
477.95	0.983
478.16	0.925
478.37	0.969
478.58	0.971
478.79	0.990
479.00	0.991
479.21	0.945
479.42	0.985
479.63	0.989
479.84	0.951
480.05	0.950
480.26	0.984
480.47	1.006
480.69	1.005
480.90	0.971
481.11	0.968
481.32	1.031
481.53	0.964
481.74	1.023
481.95	0.984
482.16	0.998
482.37	1.005
482.58	0.964
482.79	0.980
483.00	1.014
483.21	0.953
483.42	0.923
483.63	1.008
483.84	1.038
484.05	1.027
484.26	0.993
484.47	0.992
484.68	0.950
484.89	0.961
485.10	1.016
485.31	0.992
485.52	0.997
485.73	0.997
485.94	1.038
486.15	0.983
486.37	0.999
486.58	0.963
486.79	0.977
487.00	1.037
487.21	1.024
487.42	1.020
487.63	1.030
487.84	1.056
488.05	1.051
488.26	1.006
488.47	1.015
488.68	1.051
488.89	1.024
489.10	1.017
489.31	1.027
489.52	1.065
489.73	1.024
489.94	1.059
490.15	1.008
490.36	1.052
490.57	1.001
490.78	0.982
490.99	1.021
491.20	1.108
491.41	1.054
491.62	0.992
491.83	1.027
492.04	1.025
492.25	1.037
492.45	1.040
492.66	1.070
492.87	1.056
493.08	1.042
493.29	1.024
493.50	1.013
493.71	1.025
493.92	1.022
494.13	1.034
494.34	1.055
494.55	1.060
494.76	1.092
494.97	1.081
495.18	1.041
495.39	1.054
495.60	1.002
495.81	1.004
496.02	1.024
496.23	1.019
496.44	1.055
496.65	1.046
496.86	1.052
497.07	1.080
497.28	1.074
497.49	1.018
497.70	1.021
497.91	1.044
498.12	1.025
498.32	1.073
498.53	1.053
498.74	1.042
498.95	1.070
499.16	1.020
499.37	1.027
499.58	1.040
499.79	1.073
500.00	1.067
500.21	1.097
500.42	1.037
500.63	1.041
500.84	1.062
501.05	1.041
501.26	1.069
501.46	1.114
501.67	1.070
501.88	1.071
502.09	1.044
502.30	1.057
502.51	1.112
502.72	1.057
502.93	1.071
503.14	1.095
503.35	1.061
503.56	1.057
503.77	1.089
503.97	1.064
504.18	1.060
504.39	1.101
504.60	1.063
504.81	1.094
505.02	1.080
505.23	1.084
505.44	1.063
505.65	1.070
505.86	1.048
506.07	1.124
506.27	1.075
506.48	1.081
506.69	1.062
506.90	1.087
507.11	1.084
507.32	1.058
507.53	1.065
507.74	1.056
507.95	1.070
508.15	1.078
508.36	1.080
508.57	1.092
508.78	1.073
508.99	1.072
509.20	1.044
509.41	1.071
509.62	1.058
509.82	1.058
510.03	1.072
510.24	1.072
510.45	1.096
510.66	1.089
510.87	1.085
511.08	1.042
511.29	1.088
511.49	1.063
511.70	1.115
511.91	1.043
512.12	1.041
512.33	1.078
512.54	1.097
512.75	1.080
512.95	1.109
513.16	1.100
513.37	1.075
513.58	1.117
513.79	1.075
514.00	1.082
514.20	1.102
514.41	1.088
514.62	1.050
514.83	1.093
515.04	1.083
515.25	1.060
515.46	1.074
515.66	1.075
515.87	1.091
516.08	1.055
516.29	1.081
516.50	1.059
516.71	1.052
516.91	1.063
517.12	1.083
517.33	1.065
517.54	1.050
517.75	1.056
517.95	1.070
518.16	1.081
518.37	1.048
518.58	1.054
518.79	1.027
519.00	1.061
519.20	1.071
519.41	1.042
519.62	1.065
519.83	1.075
520.04	1.034
520.24	1.033
520.45	1.044
520.66	1.069
520.87	1.027
521.08	1.025
521.28	1.029
521.49	1.048
521.70	1.015
521.91	1.029
522.12	1.009
522.32	1.033
522.53	1.009
522.74	0.997
522.95	1.008
523.16	1.011
523.36	1.021
523.57	1.001
523.78	0.994
523.99	0.999
524.20	0.991
524.40	1.005
524.61	1.012
524.82	0.985
525.03	0.993
525.23	0.993
525.44	0.977
525.65	0.974
525.86	0.997
526.06	0.966
526.27	0.967
526.48	0.980
526.69	0.961
526.90	0.965
527.10	1.004
527.31	0.953
527.52	0.945
527.73	0.937
527.93	0.948
528.14	0.955
528.35	0.946
528.56	0.946
528.76	0.936
528.97	0.926
529.18	0.918
529.39	0.919
529.59	0.925
529.80	0.958
530.01	0.927
530.22	0.925
530.42	0.893
530.63	0.912
530.84	0.889
531.05	0.904
531.25	0.907
531.46	0.898
531.67	0.874
531.88	0.893
532.08	0.886
532.29	0.884
532.50	0.875
532.70	0.868
532.91	0.858
533.12	0.861
533.33	0.888
533.53	0.857
533.74	0.856
533.95	0.862
534.15	0.850
534.36	0.851
534.57	0.832
534.78	0.835
534.98	0.846
535.19	0.814
535.40	0.816
535.60	0.835
535.81	0.813
536.02	0.815
536.23	0.806
536.43	0.809
536.64	0.794
536.85	0.801
537.05	0.810
537.26	0.785
537.47	0.787
537.67	0.777
537.88	0.771
538.09	0.778
538.30	0.769
538.50	0.760
538.71	0.772
538.92	0.759
539.12	0.756
539.33	0.751
539.54	0.752
539.74	0.756
539.95	0.745
540.16	0.742
540.36	0.733
540.57	0.732
540.78	0.724
540.98	0.721
541.19	0.719
541.40	0.707
541.60	0.718
541.81	0.713
542.02	0.713
542.22	0.703
542.43	0.698
542.64	0.693
542.84	0.693
543.05	0.684
543.26	0.686
543.46	0.688
543.67	0.685
543.88	0.680
544.08	0.670
544.29	0.664
544.50	0.665
544.70	0.665
544.91	0.656
545.12	0.658
545.32	0.653
545.53	0.657
545.74	0.645
545.94	0.643
546.15	0.640
546.35	0.637
546.56	0.633
546.77	0.629
546.97	0.627
547.18	0.619
547.39	0.619
547.59	0.617
547.80	0.612
548.01	0.617
548.21	0.612
548.42	0.604
548.62	0.603
548.83	0.600
549.04	0.597
549.24	0.588
549.45	0.587
549.65	0.584
549.86	0.578
550.07	0.578
550.27	0.575
550.48	0.582
550.69	0.567
550.89	0.567
551.10	0.563
551.30	0.561
551.51	0.559
551.72	0.548
551.92	0.550
552.13	0.550
552.33	0.550
552.54	0.545
552.75	0.538
552.95	0.539
553.16	0.534
553.36	0.532
553.57	0.531
553.78	0.529
553.98	0.530
554.19	0.521
554.39	0.518
554.60	0.521
554.80	0.522
555.01	0.514
555.22	0.516
555.42	0.513
555.63	0.506
555.83	0.509
556.04	0.503
556.25	0.504
556.45	0.495
556.66	0.493
556.86	0.495
557.07	0.492
557.27	0.491
557.48	0.486
557.68	0.483
557.89	0.484
558.10	0.481
558.30	0.477
558.51	0.475
558.71	0.473
558.92	0.468
559.12	0.470
559.33	0.473
559.54	0.467
559.74	0.462
559.95	0.460
560.15	0.459
560.36	0.457
560.56	0.452
560.77	0.452
560.97	0.452
561.18	0.446
561.38	0.445
561.59	0.448
561.79	0.444
562.00	0.441
562.21	0.438
562.41	0.436
562.62	0.435
562.82	0.433
563.03	0.429
563.23	0.429
563.44	0.428
563.64	0.424
563.85	0.426
564.05	0.419
564.26	0.418
564.46	0.417
564.67	0.418
564.87	0.413
565.08	0.410
565.28	0.410
565.49	0.411
565.69	0.408
565.90	0.406
566.10	0.408
566.31	0.401
566.51	0.403
566.72	0.404
566.92	0.397
567.13	0.397
567.33	0.396
567.54	0.394
567.74	0.392
567.95	0.388
568.15	0.389
568.36	0.388
568.56	0.386
568.77	0.381
568.97	0.379
569.18	0.379
569.38	0.377
569.59	0.377
569.79	0.375
570.00	0.373
570.20	0.372
570.41	0.370
570.61	0.369
570.82	0.371
571.02	0.366
571.23	0.369
571.43	0.364
571.64	0.362
571.84	0.362
572.05	0.361
572.25	0.360
572.45	0.357
572.66	0.354
572.86	0.353
573.07	0.351
573.27	0.351
573.48	0.350
573.68	0.346
573.89	0.345
574.09	0.346
574.30	0.344
574.50	0.342
574.70	0.342
574.91	0.340
575.11	0.340
575.32	0.339
575.52	0.336
575.73	0.336
575.93	0.335
576.14	0.334
576.34	0.332
576.54	0.331
576.75	0.328
576.95	0.327
577.16	0.325
577.36	0.324
577.57	0.323
577.77	0.321
577.97	0.319
578.18	0.321
578.38	0.317
578.59	0.316
578.79	0.314
579.00	0.315
579.20	0.313
579.40	0.312
579.61	0.312
579.81	0.310
580.02	0.308
580.22	0.307
580.42	0.306
580.63	0.306
580.83	0.305
581.04	0.303
581.24	0.302
581.45	0.301
581.65	0.301
581.85	0.300
582.06	0.298
582.26	0.298
582.47	0.296
582.67	0.296
582.87	0.294
583.08	0.292
583.28	0.292
583.48	0.290
583.69	0.287
583.89	0.287
584.10	0.287
584.30	0.284
584.50	0.283
584.71	0.282
584.91	0.282
585.12	0.280
585.32	0.281
585.52	0.278
585.73	0.278
585.93	0.278
586.13	0.277
586.34	0.276
586.54	0.276
586.75	0.274
586.95	0.273
587.15	0.273
587.36	0.272
587.56	0.271
587.76	0.270
587.97	0.269
588.17	0.267
588.37	0.267
588.58	0.267
588.78	0.263
588.98	0.264
589.19	0.263
589.39	0.261
589.60	0.263
589.80	0.260
590.00	0.259
590.21	0.259
590.41	0.257
590.61	0.257
590.82	0.257
591.02	0.257
591.22	0.255
591.43	0.255
591.63	0.253
591.83	0.252
592.04	0.251
592.24	0.251
592.44	0.249
592.65	0.248
592.85	0.248
593.05	0.247
593.26	0.246
593.46	0.245
593.66	0.245
593.86	0.244
594.07	0.243
594.27	0.242
594.47	0.241
594.68	0.240
594.88	0.241
595.08	0.240
595.29	0.241
595.49	0.238
595.69	0.237
595.90	0.236
596.10	0.237
596.30	0.236
596.50	0.235
596.71	0.235
596.91	0.234
597.11	0.233
597.32	0.233
597.52	0.232
597.72	0.232
597.93	0.231
598.13	0.230
598.33	0.230
598.53	0.229
598.74	0.228
598.94	0.227
599.14	0.227
599.35	0.227
599.55	0.227
599.75	0.225
599.95	0.224
600.16	0.224
600.36	0.222
600.56	0.223
600.76	0.221
600.97	0.220
601.17	0.219
601.37	0.219
601.58	0.218
601.78	0.218
601.98	0.217
602.18	0.216
602.39	0.216
602.59	0.216
602.79	0.215
602.99	0.215
603.20	0.213
603.40	0.213
603.60	0.213
603.80	0.212
604.01	0.212
604.21	0.211
604.41	0.211
604.61	0.209
604.82	0.209
605.02	0.209
605.22	0.209
605.42	0.209
605.62	0.209
605.83	0.207
606.03	0.207
606.23	0.207
606.43	0.206
606.64	0.206
606.84	0.205
607.04	0.205
607.24	0.205
607.45	0.204
607.65	0.203
607.85	0.204
608.05	0.202
608.25	0.202
608.46	0.201
608.66	0.201
608.86	0.201
609.06	0.200
609.26	0.199
609.47	0.199
609.67	0.198
609.87	0.199
610.07	0.198
610.28	0.197
610.48	0.197
610.68	0.197
610.88	0.196
611.08	0.196
611.29	0.195
611.49	0.194
611.69	0.195
611.89	0.193
612.09	0.193
612.29	0.192
612.50	0.191
612.70	0.192
612.90	0.191
613.10	0.190
613.30	0.189
613.51	0.190
613.71	0.189
613.91	0.193
614.11	0.188
614.31	0.188
614.51	0.188
614.72	0.187
614.92	0.187
615.12	0.186
615.32	0.186
615.52	0.186
615.72	0.186
615.93	0.186
616.13	0.186
616.33	0.186
616.53	0.185
616.73	0.185
616.93	0.183
617.14	0.184
617.34	0.184
617.54	0.184
617.74	0.184
617.94	0.182
618.14	0.182
618.34	0.181
618.55	0.180
618.75	0.181
618.95	0.180
619.15	0.180
619.35	0.180
619.55	0.179
619.75	0.180
619.96	0.179
620.16	0.179
620.36	0.179
620.56	0.179
620.76	0.178
620.96	0.178
621.16	0.178
621.36	0.178
621.57	0.178
621.77	0.178
621.97	0.176
622.17	0.176
622.37	0.176
622.57	0.176
622.77	0.176
622.97	0.174
623.18	0.175
623.38	0.175
623.58	0.174
623.78	0.174
623.98	0.173
624.18	0.173
624.38	0.173
624.58	0.173
624.78	0.173
624.98	0.173
625.19	0.173
625.39	0.173
625.59	0.172
625.79	0.172
625.99	0.171
626.19	0.171
626.39	0.171
626.59	0.171
626.79	0.171
626.99	0.170
627.19	0.170
627.40	0.170
627.60	0.169
627.80	0.170
628.00	0.169
628.20	0.169
628.40	0.169
628.60	0.168
628.80	0.167
629.00	0.168
629.20	0.167
629.40	0.167
629.60	0.166
629.80	0.166
630.00	0.166
630.20	0.166
630.41	0.166
630.61	0.165
630.81	0.165
631.01	0.166
631.21	0.165
631.41	0.164
631.61	0.165
631.81	0.165
632.01	0.164
632.21	0.164
632.41	0.163
632.61	0.162
632.81	0.163
633.01	0.163
633.21	0.162
633.41	0.163
633.61	0.162
633.81	0.161
634.01	0.161
634.21	0.161
634.41	0.160
634.61	0.161
634.81	0.160
635.01	0.160
635.22	0.160
635.42	0.160
635.62	0.160
635.82	0.160
636.02	0.159
636.22	0.159
636.42	0.159
636.62	0.159
636.82	0.158
637.02	0.158
637.22	0.158
637.42	0.158
637.62	0.157
637.82	0.157
638.02	0.156
638.22	0.156
638.42	0.156
638.62	0.155
638.82	0.156
639.02	0.155
639.22	0.155
639.42	0.155
639.62	0.154
639.82	0.154
640.02	0.154
640.22	0.154
640.42	0.153
640.62	0.153
640.82	0.153
641.02	0.152
641.22	0.153
641.42	0.152
641.61	0.152
641.81	0.152
642.01	0.152
642.21	0.152
642.41	0.152
642.61	0.152
642.81	0.151
643.01	0.151
643.21	0.151
643.41	0.151
643.61	0.151
643.81	0.150
644.01	0.149
644.21	0.148
644.41	0.149
644.61	0.149
644.81	0.149
645.01	0.148
645.21	0.148
645.41	0.148
645.61	0.147
645.81	0.147
646.01	0.147
646.21	0.148
646.40	0.147
646.60	0.148
646.80	0.148
647.00	0.147
647.20	0.146
647.40	0.146
647.60	0.147
647.80	0.146
648.00	0.147
648.20	0.146
648.40	0.146
648.60	0.145
648.80	0.145
649.00	0.145
649.20	0.145
649.39	0.144
649.59	0.144
649.79	0.144
649.99	0.144
650.19	0.143
650.39	0.143
650.59	0.143
650.79	0.142
650.99	0.143
651.19	0.142
651.39	0.142
651.58	0.142
651.78	0.141
651.98	0.141
652.18	0.141
652.38	0.140
652.58	0.141
652.78	0.140
652.98	0.139
653.18	0.140
653.38	0.140
653.57	0.139
653.77	0.140
653.97	0.139
654.17	0.140
654.37	0.139
654.57	0.139
654.77	0.139
654.97	0.138
655.16	0.139
655.36	0.138
655.56	0.137
655.76	0.137
655.96	0.137
656.16	0.136
656.36	0.136
656.56	0.136
656.75	0.136
656.95	0.135
657.15	0.135
657.35	0.135
657.55	0.135
657.75	0.135
657.95	0.135
658.14	0.135
658.34	0.135
658.54	0.135
658.74	0.134
658.94	0.134
659.14	0.134
659.34	0.134
659.53	0.134
659.73	0.133
659.93	0.133
660.13	0.132
660.33	0.133
660.53	0.132
660.72	0.132
660.92	0.132
661.12	0.132
661.32	0.132
661.52	0.131
661.72	0.131
661.91	0.131
662.11	0.131
662.31	0.130
662.51	0.130
662.71	0.130
662.90	0.129
663.10	0.129
663.30	0.129
663.50	0.129
663.70	0.129
663.90	0.128
664.09	0.128
664.29	0.128
664.49	0.128
664.69	0.128
664.89	0.128
665.08	0.128
665.28	0.127
665.48	0.126
665.68	0.126
665.88	0.126
666.07	0.126
666.27	0.126
666.47	0.125
666.67	0.126
666.87	0.125
667.06	0.125
667.26	0.124
667.46	0.124
667.66	0.124
667.85	0.125
668.05	0.124
668.25	0.124
668.45	0.124
668.65	0.124
668.84	0.124
669.04	0.124
669.24	0.123
669.44	0.123
669.63	0.123
669.83	0.123
670.03	0.121
670.23	0.121
670.42	0.121
670.62	0.120
670.82	0.120
671.02	0.120
671.22	0.120
671.41	0.120
671.61	0.120
671.81	0.120
672.01	0.120
672.20	0.120
672.40	0.120
672.60	0.119
672.80	0.119
672.99	0.119
673.19	0.118
673.39	0.118
673.58	0.118
673.78	0.117
673.98	0.117
674.18	0.117
674.37	0.116
674.57	0.116
674.77	0.117
674.97	0.117
675.16	0.117
675.36	0.117
675.56	0.116
675.75	0.116
675.95	0.115
676.15	0.116
676.35	0.116
676.54	0.116
676.74	0.115
676.94	0.115
677.13	0.115
677.33	0.114
677.53	0.115
677.73	0.115
677.92	0.114
678.12	0.114
678.32	0.113
678.51	0.113
678.71	0.113
678.91	0.113
679.11	0.112
679.30	0.113
679.50	0.112
679.70	0.112
679.89	0.112
680.09	0.112
680.29	0.111
680.48	0.111
680.68	0.111
680.88	0.111
681.07	0.111
681.27	0.111
681.47	0.111
681.66	0.111
681.86	0.111
682.06	0.111
682.25	0.110
682.45	0.110
682.65	0.110
682.84	0.109
683.04	0.109
683.24	0.108
683.43	0.109
683.63	0.108
683.83	0.108
684.02	0.108
684.22	0.108
684.42	0.108
684.61	0.108
684.81	0.108
685.01	0.108
685.20	0.107
685.40	0.107
685.60	0.107
685.79	0.107
685.99	0.107
686.19	0.107
686.38	0.106
686.58	0.107
686.77	0.107
686.97	0.106
687.17	0.106
687.36	0.106
687.56	0.106
687.76	0.106
687.95	0.106
688.15	0.106
688.34	0.105
688.54	0.105
688.74	0.104
688.93	0.104
689.13	0.104
689.33	0.104
689.52	0.104
689.72	0.104
689.91	0.103
690.11	0.103
690.31	0.103
690.50	0.103
690.70	0.104
690.89	0.103
691.09	0.103
691.29	0.103
691.48	0.103
691.68	0.102
691.87	0.103
692.07	0.103
692.27	0.103
692.46	0.102
692.66	0.102
692.85	0.102
693.05	0.102
693.25	0.102
693.44	0.102
693.64	0.101
693.83	0.101
694.03	0.101
694.22	0.100
694.42	0.100
694.62	0.100
694.81	0.100
695.01	0.101
695.20	0.100
695.40	0.100
695.59	0.100
695.79	0.100
695.99	0.100
696.18	0.100
696.38	0.100
696.57	0.100
696.77	0.099
696.96	0.100
697.16	0.099
697.36	0.099
697.55	0.099
697.75	0.098
697.94	0.098
698.14	0.098
698.33	0.098
698.53	0.098
698.72	0.097
698.92	0.097
699.11	0.097
699.31	0.097
699.51	0.097
699.70	0.097
699.90	0.097
700.09	0.097
700.29	0.096
700.48	0.097
700.68	0.096
700.87	0.096
701.07	0.096
701.26	0.096
701.46	0.096
701.65	0.096
701.85	0.095
702.04	0.095
702.24	0.095
702.43	0.095
702.63	0.095
702.82	0.095
703.02	0.095
703.21	0.095
703.41	0.095
703.60	0.095
703.80	0.095
703.99	0.094
704.19	0.094
704.38	0.094
704.58	0.093
704.77	0.094
704.97	0.093
705.16	0.093
705.36	0.094
705.55	0.093
705.75	0.093
705.94	0.093
706.14	0.093
706.33	0.093
706.53	0.093
706.72	0.093
706.92	0.093
707.11	0.093
707.31	0.092
707.50	0.092
707.70	0.093
707.89	0.093
708.09	0.092
708.28	0.092
708.48	0.092
708.67	0.091
708.86	0.092
709.06	0.092
709.25	0.092
709.45	0.092
709.64	0.092
709.84	0.091
710.03	0.091
710.23	0.091
710.42	0.090
710.62	0.091
710.81	0.090
711.00	0.091
711.20	0.090
711.39	0.090
711.59	0.090
711.78	0.090
711.98	0.090
712.17	0.090
712.37	0.090
712.56	0.090
712.75	0.090
712.95	0.090
713.14	0.090
713.34	0.090
713.53	0.090
713.73	0.090
713.92	0.090
714.11	0.090
714.31	0.090
714.50	0.090
714.70	0.090
714.89	0.090
715.08	0.090
715.28	0.090
715.47	0.089
715.67	0.089
715.86	0.089
716.06	0.089
716.25	0.089
716.44	0.089
716.64	0.089
716.83	0.089
717.03	0.089
717.22	0.088
717.41	0.088
717.61	0.088
717.80	0.089
717.99	0.089
718.19	0.089
718.38	0.089
718.58	0.088
718.77	0.089
718.96	0.089
719.16	0.088
719.35	0.088
719.55	0.088
719.74	0.088
719.93	0.087
720.13	0.087
720.32	0.087
720.51	0.087
720.71	0.087
720.90	0.087
721.10	0.087
721.29	0.086
721.48	0.086
721.68	0.086
721.87	0.086
722.06	0.086
722.26	0.087
722.45	0.086
722.64	0.087
722.84	0.086
723.03	0.087
723.22	0.087
723.42	0.087
723.61	0.087
723.80	0.088
724.00	0.088
724.19	0.088
724.38	0.087
724.58	0.087
724.77	0.087
724.96	0.087
725.16	0.087
725.35	0.087
725.54	0.087
725.74	0.087
725.93	0.087
726.12	0.087
726.32	0.087
726.51	0.087
726.70	0.087
726.90	0.087
727.09	0.087
727.28	0.087
727.48	0.087
727.67	0.087
727.86	0.087
728.06	0.087
728.25	0.087
728.44	0.087
728.64	0.087
728.83	0.087
729.02	0.086
729.21	0.087
729.41	0.087
729.60	0.086
729.79	0.086
729.99	0.086
730.18	0.086
730.37	0.086
730.56	0.086
730.76	0.086
730.95	0.086
731.14	0.086
731.34	0.086
731.53	0.087
731.72	0.087
731.91	0.087
732.11	0.087
732.30	0.087
732.49	0.087
732.69	0.087
732.88	0.087
733.07	0.087
733.26	0.088
733.46	0.087
733.65	0.087
733.84	0.087
734.03	0.087
734.23	0.087
734.42	0.087
734.61	0.087
734.80	0.087
735.00	0.087
735.19	0.087
735.38	0.087
735.57	0.087
735.77	0.087
735.96	0.087
736.15	0.087
736.34	0.087
736.54	0.087
736.73	0.087
736.92	0.087
737.11	0.087
737.31	0.087
737.50	0.087
737.69	0.088
737.88	0.088
738.07	0.088
738.27	0.087
738.46	0.087
738.65	0.087
738.84	0.087
739.04	0.087
739.23	0.087
739.42	0.087
739.61	0.087
739.80	0.086
740.00	0.087
740.19	0.087
740.38	0.087
740.57	0.087
740.76	0.086
740.96	0.086
741.15	0.086
741.34	0.086
741.53	0.087
741.72	0.087
741.92	0.086
742.11	0.086
742.30	0.086
742.49	0.086
742.68	0.087
742.88	0.087
743.07	0.086
743.26	0.086
743.45	0.086
743.64	0.085
743.84	0.085
744.03	0.085
744.22	0.085
744.41	0.085
744.60	0.085
744.79	0.085
744.99	0.085
745.18	0.085
745.37	0.085
745.56	0.085
745.75	0.085
745.94	0.085
746.14	0.085
746.33	0.086
746.52	0.086
746.71	0.086
746.90	0.085
747.09	0.085
747.28	0.085
747.48	0.085
747.67	0.085
747.86	0.085
748.05	0.085
748.24	0.084
748.43	0.084
748.62	0.084
748.82	0.084
749.01	0.084
749.20	0.084
749.39	0.084
749.58	0.084
749.77	0.084
749.96	0.084
750.16	0.084
750.35	0.083
750.54	0.083
750.73	0.083
750.92	0.083
751.11	0.083
751.30	0.084
751.49	0.084
751.68	0.083
751.88	0.083
752.07	0.083
752.26	0.083
752.45	0.083
752.64	0.083
752.83	0.083
753.02	0.083
753.21	0.083
753.40	0.082
753.60	0.083
753.79	0.082
753.98	0.082
754.17	0.082
754.36	0.082
754.55	0.082
754.74	0.082
754.93	0.082
755.12	0.082
755.31	0.083
755.50	0.082
755.70	0.082
755.89	0.082
756.08	0.082
756.27	0.082
756.46	0.082
756.65	0.082
756.84	0.081
757.03	0.081
757.22	0.080
757.41	0.080
757.60	0.080
757.79	0.081
757.98	0.081
758.17	0.081
758.36	0.081
758.56	0.081
758.75	0.081
758.94	0.081
759.13	0.082
759.32	0.081
759.51	0.081
759.70	0.081
759.89	0.081
760.08	0.081
760.27	0.080
760.46	0.081
760.65	0.081
760.84	0.081
761.03	0.080
761.22	0.080
761.41	0.081
761.60	0.081
761.79	0.080
761.98	0.080
762.17	0.080
762.36	0.080
762.55	0.080
762.74	0.080
762.93	0.079
763.12	0.079
763.31	0.079
763.50	0.079
763.69	0.079
763.88	0.079
764.07	0.079
764.26	0.079
764.45	0.079
764.64	0.079
764.83	0.079
765.02	0.079
765.21	0.079
765.40	0.079
765.59	0.079
765.78	0.079
765.97	0.079
766.16	0.079
766.35	0.079
766.54	0.079
766.73	0.079
766.92	0.079
767.11	0.079
767.30	0.079
767.49	0.079
767.68	0.079
767.87	0.079
768.06	0.079
768.25	0.079
768.44	0.079
768.63	0.079
768.82	0.079
769.01	0.079
769.20	0.079
769.39	0.080
769.58	0.080
769.77	0.080
769.96	0.080
770.15	0.080
770.34	0.080
770.53	0.079
770.72	0.079
770.91	0.079
771.10	0.079
771.29	0.079
771.47	0.078
771.66	0.078
771.85	0.078
772.04	0.078
772.23	0.078
772.42	0.078
772.61	0.078
772.80	0.078
772.99	0.078
773.18	0.078
773.37	0.079
773.56	0.078
773.75	0.078
773.94	0.078
774.13	0.077
774.31	0.078
774.50	0.078
774.69	0.078
774.88	0.078
775.07	0.078
775.26	0.078
775.45	0.077
775.64	0.077
775.83	0.077
776.02	0.077
776.21	0.077
776.40	0.077
776.58	0.077
776.77	0.077
776.96	0.077
777.15	0.077
777.34	0.077
777.53	0.077
777.72	0.077
777.91	0.077
778.10	0.077
778.28	0.077
778.47	0.077
778.66	0.077
778.85	0.076
779.04	0.076
779.23	0.076
779.42	0.076
779.61	0.076
779.79	0.076
779.98	0.076
780.17	0.076
780.36	0.076
780.55	0.075
780.74	0.075
780.93	0.075
781.12	0.075
781.30	0.075
781.49	0.075
781.68	0.075
781.87	0.075
782.06	0.075
782.25	0.075
782.44	0.075
782.62	0.075
782.81	0.076
783.00	0.075
783.19	0.075
783.38	0.075
783.57	0.076
783.75	0.075
783.94	0.075
784.13	0.075
784.32	0.075
784.51	0.075
784.70	0.075
784.88	0.075
785.07	0.075
785.26	0.075
785.45	0.075
785.64	0.074
785.83	0.075
786.01	0.075
786.20	0.075
786.39	0.075
786.58	0.075
786.77	0.074
786.95	0.074
787.14	0.074
787.33	0.075
787.52	0.075
787.71	0.075
787.90	0.074
788.08	0.074
788.27	0.075
788.46	0.075
788.65	0.075
788.84	0.075
789.02	0.075
789.21	0.075
789.40	0.075
789.59	0.075
789.77	0.075
789.96	0.075
790.15	0.075
790.34	0.075
790.53	0.074
790.71	0.074
790.90	0.074
791.09	0.074
791.28	0.075
791.46	0.075
791.65	0.074
791.84	0.074
792.03	0.075
792.22	0.074
792.40	0.074
792.59	0.074
792.78	0.074
792.97	0.075
793.15	0.074
793.34	0.074
793.53	0.074
793.72	0.074
793.90	0.074
794.09	0.074
794.28	0.074
794.47	0.074
794.65	0.074
794.84	0.074
795.03	0.073
795.22	0.073
795.40	0.073
795.59	0.073
795.78	0.073
795.97	0.073
796.15	0.073
796.34	0.073
796.53	0.073
796.71	0.074
796.90	0.074
797.09	0.074
797.28	0.074
797.46	0.074
797.65	0.073
797.84	0.073
798.02	0.073
798.21	0.073
798.40	0.072
798.59	0.072
798.77	0.072
798.96	0.072
799.15	0.072
799.33	0.072
799.52	0.071
799.71	0.072
799.90	0.072
800.08	0.072
800.27	0.072
800.46	0.072
800.64	0.072
800.83	0.072
801.02	0.072
801.20	0.072
801.39	0.072
801.58	0.072
801.76	0.072
801.95	0.072
802.14	0.072
802.32	0.072
802.51	0.072
802.70	0.072
802.88	0.071
803.07	0.072
803.26	0.071
803.44	0.071
803.63	0.071
803.82	0.071
804.00	0.071
804.19	0.071
804.38	0.072
804.56	0.072
804.75	0.072
804.94	0.072
805.12	0.072
805.31	0.072
805.50	0.072
805.68	0.072
805.87	0.072
806.06	0.072
806.24	0.072
806.43	0.072
806.62	0.072
806.80	0.072
806.99	0.071
807.17	0.072
807.36	0.072
807.55	0.072
807.73	0.072
807.92	0.072
808.11	0.072
808.29	0.072
808.48	0.071
808.66	0.072
808.85	0.072
809.04	0.071
809.22	0.071
809.41	0.072
809.59	0.072
809.78	0.071
809.97	0.071
810.15	0.071
810.34	0.071
810.53	0.071
810.71	0.070
810.90	0.071
811.08	0.070
811.27	0.070
811.45	0.070
811.64	0.070
811.83	0.070
812.01	0.070
812.20	0.070
812.38	0.070
812.57	0.071
812.76	0.071
812.94	0.071
813.13	0.071
813.31	0.071
813.50	0.071
813.68	0.071
813.87	0.071
814.06	0.071
814.24	0.071
814.43	0.071
814.61	0.071
814.80	0.071
814.98	0.071
815.17	0.071
815.36	0.071
815.54	0.071
815.73	0.071
815.91	0.070
816.10	0.071
816.28	0.070
816.47	0.070
816.65	0.071
816.84	0.071
817.03	0.071
817.21	0.071
817.40	0.071
817.58	0.071
817.77	0.071
817.95	0.071
818.14	0.071
818.32	0.071
818.51	0.071
818.69	0.071
818.88	0.071
819.06	0.071
819.25	0.071
819.43	0.071
819.62	0.071
819.80	0.071
819.99	0.071
820.18	0.071
820.36	0.071
820.55	0.071
820.73	0.071
820.92	0.071
821.10	0.071
821.29	0.072
821.47	0.071
821.66	0.072
821.84	0.072
822.03	0.072
822.21	0.072
822.40	0.071
822.58	0.072
822.77	0.071
822.95	0.072
823.14	0.072
823.32	0.072
823.50	0.073
823.69	0.073
823.87	0.073
824.06	0.073
824.24	0.073
824.43	0.073
824.61	0.073
824.80	0.073
824.98	0.073
825.17	0.073
825.35	0.073
825.54	0.073
825.72	0.073
825.91	0.073
826.09	0.073
826.28	0.073
826.46	0.073
826.64	0.073
826.83	0.073
827.01	0.073
827.20	0.074
827.38	0.073
827.57	0.074
827.75	0.074
827.94	0.074
828.12	0.074
828.31	0.074
828.49	0.074
828.67	0.074
828.86	0.074
829.04	0.074
829.23	0.074
829.41	0.074
829.60	0.075
829.78	0.075
829.96	0.076
830.15	0.076
830.33	0.076
830.52	0.076
830.70	0.076
830.88	0.075
831.07	0.076
831.25	0.076
831.44	0.076
831.62	0.076
831.81	0.076
831.99	0.075
832.17	0.076
832.36	0.076
832.54	0.076
832.73	0.076
832.91	0.076
833.09	0.076
833.28	0.076
833.46	0.076
833.65	0.076
833.83	0.076
834.01	0.077
834.20	0.077
834.38	0.077
834.56	0.077
834.75	0.077
834.93	0.077
835.12	0.077
835.30	0.077
835.48	0.077
835.67	0.077
835.85	0.077
836.03	0.076
836.22	0.076
836.40	0.077
836.59	0.077
836.77	0.077
836.95	0.077
837.14	0.077
837.32	0.077
837.50	0.077
837.69	0.077
837.87	0.077
838.05	0.078
838.24	0.078
838.42	0.077
838.60	0.077
838.79	0.078
838.97	0.078
839.15	0.078
839.34	0.078
839.52	0.078
839.70	0.078
839.89	0.078
840.07	0.078
840.25	0.079
840.44	0.079
840.62	0.079
840.80	0.078
840.99	0.079
841.17	0.079
841.35	0.078
841.54	0.078
841.72	0.078
841.90	0.079
842.09	0.079
842.27	0.079
842.45	0.079
842.64	0.079
842.82	0.079
843.00	0.079
843.19	0.078
843.37	0.078
843.55	0.079
843.73	0.078
843.92	0.078
844.10	0.078
844.28	0.079
844.47	0.079
844.65	0.079
844.83	0.079
845.01	0.079
845.20	0.079
845.38	0.079
845.56	0.079
845.75	0.079
845.93	0.079
846.11	0.079
846.29	0.079
846.48	0.079
846.66	0.079
846.84	0.079
847.02	0.078
847.21	0.078
847.39	0.078
847.57	0.078
847.76	0.079
847.94	0.079
848.12	0.079
848.30	0.079
848.49	0.079
848.67	0.079
848.85	0.079
849.03	0.079
849.22	0.079
849.40	0.080
849.58	0.080
849.76	0.080
849.95	0.080
850.13	0.080
850.31	0.080
850.49	0.080
850.67	0.081
850.86	0.080
851.04	0.080
851.22	0.080
851.40	0.080
851.59	0.079
851.77	0.079
851.95	0.079
852.13	0.079
852.31	0.079
852.50	0.079
852.68	0.079
852.86	0.079
853.04	0.079
853.23	0.080
853.41	0.080
853.59	0.080
853.77	0.080
853.95	0.080
854.14	0.080
854.32	0.080
854.50	0.080
854.68	0.080
854.86	0.080
855.04	0.080
855.23	0.080
855.41	0.080
855.59	0.080
855.77	0.081
855.95	0.081
856.14	0.081
856.32	0.081
856.50	0.081
856.68	0.081
856.86	0.081
857.04	0.080
857.23	0.080
857.41	0.080
857.59	0.080
857.77	0.080
857.95	0.080
858.13	0.080
858.32	0.080
858.50	0.080
858.68	0.080
858.86	0.080
859.04	0.081
859.22	0.080
859.41	0.080
859.59	0.080
859.77	0.080
859.95	0.080
860.13	0.080
860.31	0.080
860.49	0.080
860.68	0.080
860.86	0.080
861.04	0.080
861.22	0.080
861.40	0.081
861.58	0.081
861.76	0.081
861.94	0.081
862.13	0.080
862.31	0.080
862.49	0.080
862.67	0.080
862.85	0.081
863.03	0.081
863.21	0.080
863.39	0.080
863.57	0.080
863.76	0.081
863.94	0.081
864.12	0.081
864.30	0.081
864.48	0.080
864.66	0.081
864.84	0.081
865.02	0.081
865.20	0.081
865.38	0.081
865.57	0.081
865.75	0.081
865.93	0.081
866.11	0.081
866.29	0.082
866.47	0.082
866.65	0.082
866.83	0.082
867.01	0.082
867.19	0.082
867.37	0.082
867.55	0.082
867.73	0.082
867.92	0.082
868.10	0.082
868.28	0.082
868.46	0.082
868.64	0.082
868.82	0.082
869.00	0.083
869.18	0.083
869.36	0.082
869.54	0.083
869.72	0.083
869.90	0.082
870.08	0.082
870.26	0.082
870.44	0.082
870.62	0.082
870.80	0.082
870.98	0.082
871.16	0.082
871.34	0.082
871.53	0.082
871.71	0.082
871.89	0.082
872.07	0.082
872.25	0.082
872.43	0.082
872.61	0.082
872.79	0.083
872.97	0.083
873.15	0.083
873.33	0.084
873.51	0.083
873.69	0.083
873.87	0.083
874.05	0.083
874.23	0.083
874.41	0.083
874.59	0.084
874.77	0.083
874.95	0.083
875.13	0.083
875.31	0.083
875.49	0.083
875.67	0.083
875.85	0.083
876.03	0.083
876.21	0.084
876.39	0.083
876.57	0.083
876.75	0.084
876.93	0.084
877.11	0.084
877.29	0.083
877.47	0.084
877.65	0.084
877.82	0.085
878.00	0.084
878.18	0.085
878.36	0.085
878.54	0.084
878.72	0.084
878.90	0.084
879.08	0.085
879.26	0.085
879.44	0.085
879.62	0.085
879.80	0.084
879.98	0.085
880.16	0.084
880.34	0.084
880.52	0.084
880.70	0.084
880.88	0.084
881.06	0.084
881.24	0.084
881.42	0.084
881.59	0.084
881.77	0.084
881.95	0.084
882.13	0.085
882.31	0.085
882.49	0.085
882.67	0.085
882.85	0.084
883.03	0.084
883.21	0.085
883.39	0.085
883.57	0.085
883.75	0.085
883.92	0.085
884.10	0.085
884.28	0.085
884.46	0.085
884.64	0.085
884.82	0.085
885.00	0.085
885.18	0.085
885.36	0.085
885.54	0.085
885.71	0.086
885.89	0.086
886.07	0.086
886.25	0.086
886.43	0.086
886.61	0.086
886.79	0.086
886.97	0.086
887.15	0.086
887.32	0.086
887.50	0.086
887.68	0.086
887.86	0.086
888.04	0.086
888.22	0.086
888.40	0.085
888.57	0.086
888.75	0.086
888.93	0.086
889.11	0.086
889.29	0.087
889.47	0.087
889.65	0.086
889.82	0.087
890.00	0.087
890.18	0.087
890.36	0.087
890.54	0.087
890.72	0.087
890.90	0.087
891.07	0.087
891.25	0.086
891.43	0.086
891.61	0.086
891.79	0.086
891.97	0.086
892.14	0.086
892.32	0.086
892.50	0.086
892.68	0.086
892.86	0.087
893.03	0.087
893.21	0.087
893.39	0.087
893.57	0.087
893.75	0.087
893.93	0.087
894.10	0.087
894.28	0.088
894.46	0.088
894.64	0.088
894.82	0.088
894.99	0.088
895.17	0.088
895.35	0.088
895.53	0.088
895.71	0.088
895.88	0.088
896.06	0.088
896.24	0.088
896.42	0.088
896.59	0.088
896.77	0.088
896.95	0.088
897.13	0.088
897.31	0.089
897.48	0.088
897.66	0.089
897.84	0.089
898.02	0.088
898.19	0.088
898.37	0.089
898.55	0.089
898.73	0.089
898.91	0.089
899.08	0.089
899.26	0.089
899.44	0.089
899.62	0.089
899.79	0.090
899.97	0.090
900.15	0.090
900.33	0.090
900.50	0.089
900.68	0.089
900.86	0.089
901.04	0.089
901.21	0.089
901.39	0.090
901.57	0.090
901.74	0.089
901.92	0.089
902.10	0.090
902.28	0.089
902.45	0.089
902.63	0.089
902.81	0.089
902.99	0.090
903.16	0.090
903.34	0.090
903.52	0.090
903.69	0.090
903.87	0.089
904.05	0.090
904.22	0.090
904.40	0.090
904.58	0.091
904.76	0.091
904.93	0.090
905.11	0.090
905.29	0.091
905.46	0.091
905.64	0.091
905.82	0.091
905.99	0.091
906.17	0.091
906.35	0.091
906.53	0.091
906.70	0.091
906.88	0.092
907.06	0.091
907.23	0.091
907.41	0.092
907.59	0.091
907.76	0.092
907.94	0.092
908.12	0.092
908.29	0.092
908.47	0.092
908.65	0.092
908.82	0.092
909.00	0.092
909.18	0.092
909.35	0.093
909.53	0.093
909.71	0.093
909.88	0.092
910.06	0.092
910.23	0.092
910.41	0.093
910.59	0.093
910.76	0.093
910.94	0.093
911.12	0.093
911.29	0.093
911.47	0.093
911.65	0.093
911.82	0.093
912.00	0.094
912.17	0.094
912.35	0.094
912.53	0.094
912.70	0.094
912.88	0.094
913.06	0.095
913.23	0.095
913.41	0.095
913.58	0.095
913.76	0.095
913.94	0.095
914.11	0.095
914.29	0.095
914.46	0.096
914.64	0.096
914.82	0.096
914.99	0.096
915.17	0.095
915.34	0.095
915.52	0.095
915.70	0.096
915.87	0.096
916.05	0.096
916.22	0.096
916.40	0.096
916.57	0.097
916.75	0.097
916.93	0.097
917.10	0.097
917.28	0.097
917.45	0.097
917.63	0.097
917.80	0.097
917.98	0.097
918.16	0.097
918.33	0.098
918.51	0.097
918.68	0.097
918.86	0.098
919.03	0.098
919.21	0.098
919.39	0.099
919.56	0.099
919.74	0.099
919.91	0.099
920.09	0.100
920.26	0.099
920.44	0.100
920.61	0.100
920.79	0.100
920.96	0.100
921.14	0.101
921.31	0.100
921.49	0.100
921.67	0.101
921.84	0.101
922.02	0.101
922.19	0.101
922.37	0.101
922.54	0.102
922.72	0.101
922.89	0.102
923.07	0.102
923.24	0.103
923.42	0.103
923.59	0.103
923.77	0.104
923.94	0.104
924.12	0.105
924.29	0.105
924.47	0.105
924.64	0.106
924.82	0.106
924.99	0.106
925.17	0.107
925.34	0.107
925.52	0.107
925.69	0.107
925.87	0.107
926.04	0.108
926.22	0.108
926.39	0.108
926.57	0.108
926.74	0.108
926.91	0.109
927.09	0.109
927.26	0.109
927.44	0.109
927.61	0.110
927.79	0.110
927.96	0.111
928.14	0.111
928.31	0.112
928.49	0.112
928.66	0.112
928.84	0.113
929.01	0.113
929.18	0.114
929.36	0.115
929.53	0.115
929.71	0.115
929.88	0.116
930.06	0.116
930.23	0.117
930.41	0.117
930.58	0.118
930.75	0.118
930.93	0.118
931.10	0.118
931.28	0.118
931.45	0.119
931.63	0.119
931.80	0.119
931.97	0.120
932.15	0.120
932.32	0.120
932.50	0.121
932.67	0.121
932.84	0.122
933.02	0.123
933.19	0.123
933.37	0.124
933.54	0.124
933.71	0.125
933.89	0.126
934.06	0.126
934.24	0.127
934.41	0.127
934.58	0.127
934.76	0.128
934.93	0.128
935.11	0.129
935.28	0.129
935.45	0.130
935.63	0.130
935.80	0.130
935.98	0.131
936.15	0.131
936.32	0.132
936.50	0.132
936.67	0.133
936.84	0.133
937.02	0.134
937.19	0.135
937.36	0.135
937.54	0.135
937.71	0.136
937.89	0.136
938.06	0.137
938.23	0.137
938.41	0.138
938.58	0.138
938.75	0.139
938.93	0.139
939.10	0.140
939.27	0.140
939.45	0.141
939.62	0.142
939.79	0.143
939.97	0.143
940.14	0.143
940.31	0.144
940.49	0.144
940.66	0.145
940.83	0.146
941.01	0.146
941.18	0.147
941.35	0.147
941.53	0.148
941.70	0.149
941.87	0.149
942.05	0.150
942.22	0.151
942.39	0.152
942.57	0.152
942.74	0.153
942.91	0.153
943.08	0.154
943.26	0.154
943.43	0.155
943.60	0.155
943.78	0.156
943.95	0.156
944.12	0.157
944.29	0.157
944.47	0.158
944.64	0.159
944.81	0.161
944.99	0.162
945.16	0.162
945.33	0.162
945.50	0.163
945.68	0.164
945.85	0.165
946.02	0.166
946.20	0.167
946.37	0.168
946.54	0.168
946.71	0.169
946.89	0.169
947.06	0.170
947.23	0.171
947.40	0.173
947.58	0.173
947.75	0.175
947.92	0.175
948.09	0.176
948.27	0.177
948.44	0.179
948.61	0.180
948.78	0.181
948.96	0.182
949.13	0.183
949.30	0.184
949.47	0.185
949.65	0.186
949.82	0.188
949.99	0.188
950.16	0.190
950.33	0.191
950.51	0.191
950.68	0.193
950.85	0.193
951.02	0.195
951.20	0.196
951.37	0.197
951.54	0.197
951.71	0.199
951.88	0.200
952.06	0.201
952.23	0.202
952.40	0.203
952.57	0.205
952.74	0.206
952.92	0.207
953.09	0.209
953.26	0.210
953.43	0.211
953.60	0.212
953.77	0.213
953.95	0.214
954.12	0.216
954.29	0.217
954.46	0.220
954.63	0.220
954.81	0.221
954.98	0.221
955.15	0.224
955.32	0.225
955.49	0.225
955.66	0.226
955.84	0.228
956.01	0.228
956.18	0.230
956.35	0.231
956.52	0.231
956.69	0.233
956.87	0.233
957.04	0.235
957.21	0.237
957.38	0.237
957.55	0.238
957.72	0.239
957.89	0.240
958.07	0.240
958.24	0.242
958.41	0.244
958.58	0.243
958.75	0.244
958.92	0.245
959.09	0.246
959.26	0.246
959.44	0.247
959.61	0.249
959.78	0.249
959.95	0.251
960.12	0.251
960.29	0.253
960.46	0.253
960.63	0.253
960.81	0.253
960.98	0.254
961.15	0.255
961.32	0.256
961.49	0.255
961.66	0.256
961.83	0.256
962.00	0.256
962.17	0.258
962.34	0.257
962.52	0.258
962.69	0.259
962.86	0.258
963.03	0.259
963.20	0.260
963.37	0.258
963.54	0.259
963.71	0.259
963.88	0.260
964.05	0.261
964.22	0.262
964.39	0.261
964.56	0.262
964.74	0.263
964.91	0.262
965.08	0.263
965.25	0.263
965.42	0.263
965.59	0.264
965.76	0.263
965.93	0.264
966.10	0.262
966.27	0.263
966.44	0.263
966.61	0.264
966.78	0.264
966.95	0.263
967.12	0.264
967.29	0.266
967.46	0.265
967.63	0.265
967.80	0.266
967.97	0.265
968.14	0.265
968.32	0.266
968.49	0.266
968.66	0.265
968.83	0.266
969.00	0.266
969.17	0.265
969.34	0.267
969.51	0.267
969.68	0.266
969.85	0.267
970.02	0.266
970.19	0.266
970.36	0.267
970.53	0.267
970.70	0.265
970.87	0.266
971.04	0.265
971.21	0.266
971.38	0.266
971.55	0.266
971.72	0.266
971.89	0.268
972.06	0.267
972.23	0.267
972.40	0.267
972.57	0.267
972.74	0.267
972.91	0.268
973.07	0.268
973.24	0.268
973.41	0.268
973.58	0.267
973.75	0.279
973.92	0.267
974.09	0.266
974.26	0.266
974.43	0.265
974.60	0.266
974.77	0.267
974.94	0.267
975.11	0.268
975.28	0.269
975.45	0.267
975.62	0.268
975.79	0.269
975.96	0.268
976.13	0.266
976.30	0.268
976.47	0.266
976.64	0.266
976.80	0.266
976.97	0.265
977.14	0.265
977.31	0.264
977.48	0.265
977.65	0.265
977.82	0.264
977.99	0.266
978.16	0.265
978.33	0.265
978.50	0.265
978.67	0.265
978.83	0.265
979.00	0.265
979.17	0.264
979.34	0.264
979.51	0.263
979.68	0.264
979.85	0.263
980.02	0.263
980.19	0.261
980.36	0.262
980.52	0.263
980.69	0.261
980.86	0.261
981.03	0.261
981.20	0.260
981.37	0.261
981.54	0.261
981.71	0.261
981.88	0.261
982.04	0.261
982.21	0.261
982.38	0.262
982.55	0.261
982.72	0.260
982.89	0.261
983.06	0.259
983.22	0.259
983.39	0.259
983.56	0.259
983.73	0.258
983.90	0.258
984.07	0.260
984.24	0.258
984.40	0.258
984.57	0.257
984.74	0.259
984.91	0.259
985.08	0.257
985.25	0.255
985.41	0.256
985.58	0.256
985.75	0.257
985.92	0.256
986.09	0.255
986.26	0.255
986.42	0.254
986.59	0.252
986.76	0.254
986.93	0.254
987.10	0.254
987.27	0.252
987.43	0.250
987.60	0.252
987.77	0.252
987.94	0.250
988.11	0.252
988.27	0.252
988.44	0.252
988.61	0.250
988.78	0.249
988.95	0.249
989.11	0.251
989.28	0.250
989.45	0.249
989.62	0.249
989.79	0.249
989.95	0.247
990.12	0.248
990.29	0.248
990.46	0.246
990.62	0.245
990.79	0.245
990.96	0.246
991.13	0.246
991.30	0.245
991.46	0.244
991.63	0.243
991.80	0.242
991.97	0.242
992.13	0.242
992.30	0.243
992.47	0.241
992.64	0.241
992.80	0.241
992.97	0.242
993.14	0.240
993.31	0.237
993.47	0.240
993.64	0.238
993.81	0.238
993.98	0.239
994.14	0.237
994.31	0.236
994.48	0.237
994.64	0.237
994.81	0.235
994.98	0.235
995.15	0.233
995.31	0.233
995.48	0.233
995.65	0.235
995.82	0.232
995.98	0.232
996.15	0.233
996.32	0.234
996.48	0.233
996.65	0.232
996.82	0.230
996.99	0.231
997.15	0.231
997.32	0.232
997.49	0.230
997.65	0.231
997.82	0.230
997.99	0.228
998.15	0.229
998.32	0.230
998.49	0.229
998.65	0.229
998.82	0.228
998.99	0.225
999.15	0.225
999.32	0.225
999.49	0.225
999.65	0.226
999.82	0.223
999.99	0.224
1000.15	0.224
1000.32	0.223
1000.49	0.224
1000.65	0.222
1000.82	0.222
1000.99	0.222
1001.15	0.222
1001.32	0.221
1001.49	0.220
1001.65	0.220
1001.82	0.222
1001.99	0.219
1002.15	0.219
1002.32	0.218
1002.49	0.219
1002.65	0.218
1002.82	0.216
1002.99	0.216
1003.15	0.218
1003.32	0.217
1003.48	0.217
1003.65	0.216
1003.82	0.215
1003.98	0.213
1004.15	0.212
1004.32	0.213
1004.48	0.213
1004.65	0.214
1004.81	0.212
1004.98	0.211
1005.15	0.211
1005.31	0.211
1005.48	0.209
1005.64	0.209
1005.81	0.211
1005.98	0.208
1006.14	0.207
1006.31	0.208
1006.47	0.206
1006.64	0.205
1006.81	0.205
1006.97	0.205
1007.14	0.204
1007.30	0.205
1007.47	0.205
1007.63	0.203
1007.80	0.201
1007.97	0.201
1008.13	0.202
1008.30	0.201
1008.46	0.201
1008.63	0.200
1008.79	0.200
1008.96	0.200
1009.13	0.202
1009.29	0.199
1009.46	0.199
1009.62	0.199
1009.79	0.196
1009.95	0.196
1010.12	0.197
1010.28	0.198
1010.45	0.196
1010.62	0.195
1010.78	0.194
1010.95	0.192
1011.11	0.194
1011.28	0.193
1011.44	0.195
1011.61	0.194
1011.77	0.193
1011.94	0.193
1012.10	0.193
1012.27	0.193
1012.43	0.193
1012.60	0.191
1012.76	0.192
1012.93	0.191
1013.10	0.190
1013.26	0.187
1013.43	0.188
1013.59	0.196
1013.76	0.187
1013.92	0.185
1014.09	0.184
1014.25	0.186
1014.42	0.186
1014.58	0.186
1014.75	0.189
1014.91	0.187
1015.08	0.189
1015.24	0.185
1015.41	0.186
1015.57	0.186
1015.73	0.186
1015.90	0.184
1016.06	0.186
1016.23	0.184
1016.39	0.184
1016.56	0.185
1016.72	0.184
1016.89	0.183
1017.05	0.185
1017.22	0.183
1017.38	0.183
1017.55	0.181
1017.71	0.183
1017.88	0.181
1018.04	0.183
1018.21	0.180
1018.37	0.179
1018.53	0.179
1018.70	0.179
1018.86	0.178
1019.03	0.179
1019.19	0.177
1019.36	0.176
1019.52	0.178
1019.69	0.179
1019.85	0.177
1020.01	0.176
1020.18	0.175
1020.34	0.175
1020.51	0.174
1020.67	0.175
1020.84	0.174
1021.00	0.175
1021.16	0.173
1021.33	0.174
1021.49	0.173
1021.66	0.174
1021.82	0.172
1021.98	0.172
1022.15	0.172
1022.31	0.171
1022.48	0.170
1022.64	0.171
1022.80	0.169
1022.97	0.167
1023.13	0.167
1023.30	0.167
1023.46	0.168
1023.62	0.166
1023.79	0.167
1023.95	0.168
1024.12	0.167
1024.28	0.167
1024.44	0.167
1024.61	0.166
1024.77	0.166
1024.93	0.165
1025.10	0.165
1025.26	0.162
1025.43	0.162
1025.59	0.157
1025.75	0.160
1025.92	0.159
1026.08	0.158
1026.24	0.159
1026.41	0.160
1026.57	0.158
1026.73	0.155
1026.90	0.157
1027.06	0.156
1027.23	0.158
1027.39	0.158
1027.55	0.158
1027.72	0.157
1027.88	0.157
1028.04	0.157
1028.21	0.158
1028.37	0.153
1028.53	0.159
1028.70	0.156
1028.86	0.154
1029.02	0.155
1029.19	0.155
1029.35	0.154
1029.51	0.153
1029.67	0.152
1029.84	0.153
1030.00	0.148
1030.16	0.148
1030.33	0.151
1030.49	0.148
1030.65	0.145
1030.82	0.161
1030.98	0.148
1031.14	0.148
1031.31	0.149
1031.47	0.146
1031.63	0.149
1031.79	0.148
1031.96	0.150
1032.12	0.151
1032.28	0.148
1032.45	0.154
1032.61	0.152
1032.77	0.151
1032.93	0.149
1033.10	0.150
1033.26	0.152
1033.42	0.150
1033.58	0.150
1033.75	0.151
1033.91	0.149
1034.07	0.152
1034.24	0.149
1034.40	0.147
1034.56	0.147
1034.72	0.147
1034.89	0.147
1035.05	0.145
1035.21	0.146
1035.37	0.145
1035.54	0.148
1035.70	0.145
1035.86	0.145
1036.02	0.146
1036.19	0.143
1036.35	0.141
1036.51	0.145
1036.67	0.143
1036.83	0.141
1037.00	0.139
1037.16	0.139
1037.32	0.139
1037.48	0.139
1037.65	0.143
1037.81	0.138
1037.97	0.139
1038.13	0.140
1038.29	0.138
1038.46	0.136
1038.62	0.140
1038.78	0.139
1038.94	0.135
1039.10	0.141
1039.27	0.136
1039.43	0.138
1039.59	0.139
1039.75	0.139
1039.91	0.136
1040.08	0.135
1040.24	0.137
1040.40	0.139
1040.56	0.137
1040.72	0.132
1040.89	0.133
1041.05	0.135
1041.21	0.135
1041.37	0.132
1041.53	0.137
1041.69	0.136
1041.86	0.136
1042.02	0.134
1042.18	0.135
1042.34	0.137
1042.50	0.142
1042.66	0.139
1042.83	0.136
1042.99	0.138
1043.15	0.134
1043.31	0.134
1043.47	0.138
1043.63	0.134
1043.79	0.133
1043.96	0.134
1044.12	0.138
1044.28	0.134
1044.44	0.137
1044.60	0.132
1044.76	0.131
1044.92	0.134
1045.09	0.136
1045.25	0.132
1045.41	0.134
1045.57	0.128
1045.73	0.128
1045.89	0.130
1046.05	0.133
1046.21	0.135
1046.38	0.126
1046.54	0.136
1046.70	0.134
1046.86	0.140
>>>>>End Processed Spectral Data<<<<<
