SpectraSuite Data File
++++++++++++++++++++++++++++++++++++
Date: Mon May 20 12:10:47 CDT 2013
User: Students
Dark Spectrum Present: Yes
Reference Spectrum Present: Yes
Number of Sampled Component Spectra: 1
Spectrometers: USB4H00887
Integration Time (usec): 60000 (USB4H00887)
Spectra Averaged: 5 (USB4H00887)
Boxcar Smoothing: 5 (USB4H00887)
Correct for Electrical Dark: No (USB4H00887)
Strobe/Lamp Enabled: No (USB4H00887)
Correct for Detector Non-linearity: No (USB4H00887)
Correct for Stray Light: No (USB4H00887)
Number of Pixels in Processed Spectrum: 3648
>>>>>Begin Processed Spectral Data<<<<<
345.83	0.151
346.05	0.151
346.26	0.151
346.48	-0.000
346.70	-0.013
346.92	0.057
347.14	0.058
347.35	0.068
347.57	0.761
347.79	-0.326
348.01	-0.196
348.23	-0.296
348.44	-0.000
348.66	0.391
348.88	-0.430
349.10	-0.215
349.32	0.071
349.53	0.009
349.75	0.040
349.97	0.022
350.19	0.105
350.41	0.055
350.62	-0.223
350.84	0.027
351.06	0.035
351.28	0.014
351.50	-0.093
351.71	-0.054
351.93	-0.083
352.15	-0.032
352.37	-0.077
352.58	-0.042
352.80	-0.020
353.02	-0.023
353.24	-0.008
353.46	0.013
353.67	-0.070
353.89	0.045
354.11	0.041
354.33	0.045
354.54	0.092
354.76	0.159
354.98	0.337
355.20	0.327
355.41	0.123
355.63	0.244
355.85	0.120
356.07	-0.000
356.28	0.077
356.50	0.132
356.72	0.043
356.94	0.103
357.15	0.176
357.37	-0.000
357.59	0.095
357.81	0.031
358.02	0.075
358.24	0.057
358.46	0.135
358.68	0.120
358.89	0.059
359.11	-0.000
359.33	0.064
359.55	-0.430
359.76	0.078
359.98	0.058
360.20	0.080
360.42	0.068
360.63	0.068
360.85	0.021
361.07	0.186
361.29	0.053
361.50	0.208
361.72	0.069
361.94	0.254
362.15	0.110
362.37	0.073
362.59	0.082
362.81	0.118
363.02	0.201
363.24	0.352
363.46	0.210
363.68	0.260
363.89	0.157
364.11	0.240
364.33	0.292
364.54	0.169
364.76	0.210
364.98	0.224
365.20	0.253
365.41	0.145
365.63	0.157
365.85	0.087
366.06	0.221
366.28	0.274
366.50	0.170
366.71	0.075
366.93	0.123
367.15	0.127
367.37	0.108
367.58	0.140
367.80	0.168
368.02	0.524
368.23	0.177
368.45	0.176
368.67	0.128
368.88	0.148
369.10	-0.000
369.32	0.118
369.53	0.059
369.75	0.113
369.97	0.274
370.19	0.149
370.40	0.070
370.62	0.240
370.84	0.094
371.05	0.559
371.27	0.134
371.49	0.160
371.70	0.209
371.92	0.336
372.14	0.117
372.35	0.135
372.57	0.155
372.79	0.428
373.00	0.092
373.22	0.159
373.44	0.152
373.65	0.106
373.87	0.134
374.09	0.484
374.30	0.113
374.52	0.152
374.74	0.101
374.95	0.451
375.17	0.112
375.39	-0.000
375.60	0.125
375.82	0.242
376.04	0.093
376.25	0.124
376.47	0.067
376.68	0.164
376.90	0.095
377.12	0.185
377.33	0.121
377.55	0.256
377.77	0.144
377.98	0.199
378.20	0.112
378.42	0.160
378.63	0.194
378.85	-0.000
379.07	0.157
379.28	0.509
379.50	0.315
379.71	0.156
379.93	0.123
380.15	0.147
380.36	0.211
380.58	0.149
380.80	0.395
381.01	0.125
381.23	0.097
381.44	0.121
381.66	0.146
381.88	0.191
382.09	-0.088
382.31	0.144
382.53	0.155
382.74	1.088
382.96	0.212
383.17	0.173
383.39	0.236
383.61	0.324
383.82	0.216
384.04	0.258
384.25	0.308
384.47	0.293
384.69	0.284
384.90	0.272
385.12	0.649
385.33	0.369
385.55	0.261
385.77	0.428
385.98	0.198
386.20	0.274
386.41	0.255
386.63	0.301
386.85	0.241
387.06	0.282
387.28	0.450
387.49	0.284
387.71	0.201
387.93	0.186
388.14	0.529
388.36	0.207
388.57	0.193
388.79	0.208
389.01	1.408
389.22	0.274
389.44	0.238
389.65	0.195
389.87	0.191
390.08	0.232
390.30	0.184
390.52	0.379
390.73	0.410
390.95	0.268
391.16	0.249
391.38	-0.000
391.59	0.275
391.81	0.225
392.03	0.214
392.24	0.240
392.46	0.204
392.67	0.176
392.89	0.236
393.10	0.367
393.32	0.245
393.53	0.288
393.75	0.183
393.97	0.215
394.18	0.298
394.40	0.269
394.61	0.282
394.83	0.242
395.04	0.294
395.26	0.212
395.47	0.316
395.69	0.279
395.91	0.303
396.12	0.358
396.34	0.346
396.55	0.222
396.77	0.308
396.98	1.652
397.20	0.392
397.41	0.426
397.63	0.283
397.84	0.257
398.06	0.237
398.27	0.239
398.49	0.282
398.71	0.211
398.92	0.256
399.14	0.346
399.35	0.432
399.57	0.417
399.78	0.278
400.00	0.283
400.21	0.352
400.43	0.277
400.64	0.297
400.86	0.658
401.07	0.356
401.29	0.307
401.50	0.319
401.72	0.452
401.93	0.283
402.15	0.363
402.36	0.333
402.58	0.273
402.79	0.308
403.01	0.495
403.22	0.387
403.44	0.264
403.65	0.433
403.87	0.493
404.08	0.389
404.30	0.677
404.51	0.340
404.73	0.401
404.94	0.344
405.16	0.353
405.37	0.275
405.59	0.481
405.80	0.301
406.02	0.357
406.23	0.358
406.45	0.395
406.66	0.405
406.88	0.268
407.09	0.402
407.31	0.321
407.52	0.401
407.74	0.321
407.95	0.381
408.17	0.363
408.38	0.383
408.60	0.255
408.81	0.415
409.03	0.322
409.24	0.320
409.45	0.373
409.67	0.356
409.88	0.304
410.10	0.391
410.31	0.333
410.53	0.314
410.74	0.442
410.96	0.438
411.17	0.479
411.39	0.371
411.60	0.354
411.82	0.402
412.03	0.384
412.24	0.368
412.46	0.547
412.67	0.453
412.89	0.460
413.10	0.442
413.32	0.395
413.53	0.451
413.75	0.457
413.96	0.346
414.17	0.459
414.39	0.476
414.60	0.405
414.82	0.532
415.03	0.408
415.25	0.439
415.46	0.308
415.68	0.427
415.89	0.747
416.10	0.647
416.32	0.357
416.53	0.415
416.75	0.397
416.96	0.474
417.18	0.403
417.39	0.387
417.60	0.393
417.82	0.579
418.03	0.512
418.25	0.422
418.46	0.425
418.67	0.399
418.89	0.435
419.10	0.441
419.32	0.584
419.53	0.525
419.75	0.446
419.96	0.397
420.17	0.486
420.39	0.463
420.60	0.491
420.82	0.623
421.03	0.503
421.24	0.417
421.46	0.464
421.67	0.500
421.89	0.447
422.10	0.492
422.31	0.477
422.53	0.649
422.74	0.488
422.96	0.387
423.17	0.423
423.38	0.511
423.60	0.440
423.81	0.545
424.03	0.476
424.24	0.531
424.45	0.525
424.67	0.524
424.88	0.479
425.09	0.508
425.31	0.466
425.52	0.486
425.74	0.532
425.95	0.564
426.16	0.447
426.38	0.512
426.59	0.469
426.80	0.524
427.02	0.543
427.23	0.430
427.45	0.550
427.66	0.538
427.87	0.439
428.09	0.466
428.30	0.523
428.51	0.512
428.73	0.566
428.94	0.505
429.15	0.499
429.37	0.487
429.58	0.518
429.79	0.473
430.01	0.561
430.22	0.544
430.44	0.552
430.65	0.493
430.86	0.530
431.08	0.518
431.29	0.474
431.50	0.552
431.72	0.710
431.93	0.588
432.14	0.460
432.36	0.507
432.57	0.520
432.78	0.543
433.00	0.501
433.21	0.493
433.42	0.598
433.64	0.526
433.85	0.588
434.06	0.483
434.28	0.504
434.49	0.520
434.70	0.534
434.92	0.544
435.13	0.580
435.34	0.593
435.56	0.566
435.77	0.562
435.98	0.708
436.20	0.609
436.41	0.528
436.62	0.519
436.83	0.580
437.05	0.637
437.26	0.560
437.47	0.506
437.69	0.545
437.90	0.501
438.11	0.493
438.33	0.540
438.54	0.554
438.75	0.697
438.97	0.689
439.18	0.533
439.39	0.557
439.60	0.603
439.82	0.569
440.03	0.534
440.24	0.762
440.46	0.587
440.67	0.563
440.88	0.600
441.10	0.556
441.31	0.552
441.52	0.593
441.73	0.659
441.95	0.590
442.16	0.547
442.37	0.816
442.58	0.542
442.80	0.530
443.01	0.674
443.22	0.614
443.44	0.532
443.65	0.625
443.86	0.627
444.07	0.677
444.29	0.592
444.50	0.739
444.71	0.574
444.92	0.540
445.14	0.676
445.35	0.708
445.56	0.570
445.78	0.669
445.99	0.663
446.20	0.574
446.41	0.635
446.63	0.637
446.84	0.600
447.05	0.602
447.26	0.705
447.48	0.611
447.69	0.583
447.90	0.661
448.11	0.589
448.33	0.615
448.54	0.635
448.75	0.663
448.96	0.674
449.18	0.717
449.39	0.639
449.60	0.620
449.81	0.738
450.03	0.644
450.24	0.688
450.45	0.653
450.66	0.633
450.87	0.661
451.09	0.620
451.30	0.599
451.51	0.656
451.72	0.668
451.94	0.683
452.15	0.739
452.36	0.631
452.57	0.651
452.78	0.651
453.00	0.682
453.21	0.640
453.42	0.618
453.63	0.702
453.85	0.671
454.06	0.664
454.27	0.770
454.48	0.686
454.69	0.627
454.91	0.683
455.12	0.604
455.33	0.666
455.54	0.678
455.75	0.659
455.97	0.676
456.18	0.670
456.39	0.673
456.60	0.694
456.81	0.649
457.03	0.659
457.24	0.663
457.45	0.740
457.66	0.699
457.87	0.668
458.09	0.683
458.30	0.610
458.51	0.711
458.72	0.735
458.93	0.747
459.15	0.666
459.36	0.721
459.57	0.739
459.78	0.772
459.99	0.698
460.20	0.663
460.42	0.728
460.63	0.695
460.84	0.682
461.05	0.700
461.26	0.745
461.47	0.675
461.69	0.717
461.90	0.746
462.11	0.714
462.32	0.759
462.53	0.713
462.74	0.791
462.96	0.701
463.17	0.690
463.38	0.723
463.59	0.817
463.80	0.693
464.01	0.711
464.23	0.782
464.44	0.752
464.65	0.759
464.86	0.776
465.07	0.781
465.28	0.743
465.49	0.762
465.71	0.726
465.92	0.755
466.13	0.792
466.34	0.738
466.55	0.781
466.76	0.747
466.97	0.764
467.19	0.758
467.40	0.793
467.61	0.799
467.82	0.733
468.03	0.720
468.24	0.779
468.45	0.805
468.66	0.792
468.88	0.794
469.09	0.798
469.30	0.839
469.51	0.773
469.72	0.799
469.93	0.776
470.14	0.759
470.35	0.827
470.57	0.785
470.78	0.741
470.99	0.839
471.20	0.794
471.41	0.760
471.62	0.798
471.83	0.779
472.04	0.804
472.25	0.834
472.47	0.770
472.68	0.776
472.89	0.782
473.10	0.812
473.31	0.777
473.52	0.825
473.73	0.839
473.94	0.783
474.15	0.804
474.36	0.805
474.57	0.825
474.79	0.805
475.00	0.801
475.21	0.789
475.42	0.859
475.63	0.786
475.84	0.810
476.05	0.816
476.26	0.789
476.47	0.814
476.68	0.850
476.89	0.796
477.10	0.838
477.32	0.832
477.53	0.873
477.74	0.811
477.95	0.840
478.16	0.803
478.37	0.837
478.58	0.841
478.79	0.851
479.00	0.851
479.21	0.823
479.42	0.850
479.63	0.852
479.84	0.822
480.05	0.820
480.26	0.842
480.47	0.856
480.69	0.861
480.90	0.834
481.11	0.832
481.32	0.879
481.53	0.832
481.74	0.874
481.95	0.850
482.16	0.867
482.37	0.876
482.58	0.849
482.79	0.862
483.00	0.883
483.21	0.838
483.42	0.816
483.63	0.875
483.84	0.895
484.05	0.888
484.26	0.865
484.47	0.863
484.68	0.834
484.89	0.840
485.10	0.875
485.31	0.857
485.52	0.863
485.73	0.864
485.94	0.894
486.15	0.854
486.37	0.866
486.58	0.838
486.79	0.849
487.00	0.887
487.21	0.879
487.42	0.878
487.63	0.881
487.84	0.897
488.05	0.896
488.26	0.864
488.47	0.869
488.68	0.891
488.89	0.874
489.10	0.869
489.31	0.876
489.52	0.901
489.73	0.874
489.94	0.904
490.15	0.871
490.36	0.902
490.57	0.866
490.78	0.853
490.99	0.883
491.20	0.940
491.41	0.906
491.62	0.863
491.83	0.885
492.04	0.881
492.25	0.885
492.45	0.886
492.66	0.902
492.87	0.894
493.08	0.884
493.29	0.875
493.50	0.868
493.71	0.874
493.92	0.871
494.13	0.885
494.34	0.904
494.55	0.911
494.76	0.936
494.97	0.929
495.18	0.904
495.39	0.917
495.60	0.875
495.81	0.876
496.02	0.895
496.23	0.891
496.44	0.913
496.65	0.903
496.86	0.905
497.07	0.923
497.28	0.922
497.49	0.883
497.70	0.884
497.91	0.902
498.12	0.889
498.32	0.919
498.53	0.908
498.74	0.902
498.95	0.922
499.16	0.889
499.37	0.890
499.58	0.896
499.79	0.920
500.00	0.916
500.21	0.937
500.42	0.897
500.63	0.899
500.84	0.915
501.05	0.900
501.26	0.920
501.46	0.950
501.67	0.922
501.88	0.923
502.09	0.903
502.30	0.909
502.51	0.945
502.72	0.909
502.93	0.922
503.14	0.938
503.35	0.916
503.56	0.913
503.77	0.936
503.97	0.920
504.18	0.918
504.39	0.944
504.60	0.923
504.81	0.945
505.02	0.936
505.23	0.937
505.44	0.920
505.65	0.926
505.86	0.910
506.07	0.960
506.27	0.929
506.48	0.934
506.69	0.922
506.90	0.937
507.11	0.934
507.32	0.917
507.53	0.925
507.74	0.920
507.95	0.929
508.15	0.934
508.36	0.939
508.57	0.948
508.78	0.936
508.99	0.934
509.20	0.915
509.41	0.935
509.62	0.925
509.82	0.921
510.03	0.929
510.24	0.928
510.45	0.946
510.66	0.938
510.87	0.934
511.08	0.905
511.29	0.938
511.49	0.922
511.70	0.955
511.91	0.904
512.12	0.902
512.33	0.927
512.54	0.939
512.75	0.926
512.95	0.945
513.16	0.938
513.37	0.919
513.58	0.946
513.79	0.918
514.00	0.924
514.20	0.935
514.41	0.927
514.62	0.904
514.83	0.936
515.04	0.930
515.25	0.915
515.46	0.925
515.66	0.926
515.87	0.935
516.08	0.914
516.29	0.932
516.50	0.920
516.71	0.914
516.91	0.922
517.12	0.934
517.33	0.921
517.54	0.910
517.75	0.913
517.95	0.923
518.16	0.933
518.37	0.906
518.58	0.909
518.79	0.888
519.00	0.912
519.20	0.918
519.41	0.896
519.62	0.914
519.83	0.920
520.04	0.894
520.24	0.891
520.45	0.899
520.66	0.917
520.87	0.889
521.08	0.889
521.28	0.892
521.49	0.906
521.70	0.883
521.91	0.891
522.12	0.877
522.32	0.892
522.53	0.878
522.74	0.869
522.95	0.875
523.16	0.877
523.36	0.884
523.57	0.868
523.78	0.863
523.99	0.866
524.20	0.861
524.40	0.871
524.61	0.875
524.82	0.856
525.03	0.858
525.23	0.859
525.44	0.847
525.65	0.845
525.86	0.863
526.06	0.840
526.27	0.841
526.48	0.847
526.69	0.832
526.90	0.835
527.10	0.861
527.31	0.827
527.52	0.822
527.73	0.816
527.93	0.825
528.14	0.829
528.35	0.821
528.56	0.821
528.76	0.815
528.97	0.807
529.18	0.799
529.39	0.799
529.59	0.801
529.80	0.825
530.01	0.803
530.22	0.800
530.42	0.776
530.63	0.789
530.84	0.771
531.05	0.782
531.25	0.783
531.46	0.778
531.67	0.761
531.88	0.775
532.08	0.771
532.29	0.766
532.50	0.761
532.70	0.756
532.91	0.748
533.12	0.750
533.33	0.770
533.53	0.747
533.74	0.747
533.95	0.751
534.15	0.741
534.36	0.741
534.57	0.727
534.78	0.727
534.98	0.735
535.19	0.711
535.40	0.712
535.60	0.725
535.81	0.708
536.02	0.710
536.23	0.704
536.43	0.706
536.64	0.695
536.85	0.702
537.05	0.708
537.26	0.690
537.47	0.691
537.67	0.683
537.88	0.678
538.09	0.685
538.30	0.676
538.50	0.668
538.71	0.678
538.92	0.667
539.12	0.663
539.33	0.659
539.54	0.659
539.74	0.663
539.95	0.656
540.16	0.654
540.36	0.647
540.57	0.647
540.78	0.639
540.98	0.638
541.19	0.635
541.40	0.625
541.60	0.633
541.81	0.628
542.02	0.628
542.22	0.619
542.43	0.614
542.64	0.610
542.84	0.610
543.05	0.604
543.26	0.604
543.46	0.606
543.67	0.606
543.88	0.602
544.08	0.594
544.29	0.590
544.50	0.590
544.70	0.590
544.91	0.583
545.12	0.585
545.32	0.580
545.53	0.583
545.74	0.573
545.94	0.570
546.15	0.568
546.35	0.566
546.56	0.563
546.77	0.561
546.97	0.559
547.18	0.552
547.39	0.552
547.59	0.550
547.80	0.546
548.01	0.550
548.21	0.546
548.42	0.540
548.62	0.539
548.83	0.536
549.04	0.533
549.24	0.527
549.45	0.526
549.65	0.523
549.86	0.520
550.07	0.519
550.27	0.517
550.48	0.524
550.69	0.511
550.89	0.511
551.10	0.507
551.30	0.505
551.51	0.505
551.72	0.496
551.92	0.497
552.13	0.497
552.33	0.496
552.54	0.491
552.75	0.485
552.95	0.487
553.16	0.483
553.36	0.481
553.57	0.480
553.78	0.478
553.98	0.478
554.19	0.471
554.39	0.468
554.60	0.471
554.80	0.471
555.01	0.464
555.22	0.465
555.42	0.462
555.63	0.457
555.83	0.460
556.04	0.455
556.25	0.456
556.45	0.448
556.66	0.447
556.86	0.450
557.07	0.448
557.27	0.448
557.48	0.443
557.68	0.440
557.89	0.441
558.10	0.438
558.30	0.435
558.51	0.435
558.71	0.432
558.92	0.428
559.12	0.429
559.33	0.432
559.54	0.427
559.74	0.423
559.95	0.421
560.15	0.421
560.36	0.419
560.56	0.414
560.77	0.413
560.97	0.413
561.18	0.409
561.38	0.408
561.59	0.411
561.79	0.407
562.00	0.406
562.21	0.403
562.41	0.402
562.62	0.402
562.82	0.400
563.03	0.398
563.23	0.398
563.44	0.397
563.64	0.394
563.85	0.395
564.05	0.389
564.26	0.388
564.46	0.387
564.67	0.388
564.87	0.384
565.08	0.381
565.28	0.381
565.49	0.382
565.69	0.380
565.90	0.377
566.10	0.379
566.31	0.374
566.51	0.376
566.72	0.376
566.92	0.371
567.13	0.371
567.33	0.370
567.54	0.368
567.74	0.367
567.95	0.363
568.15	0.364
568.36	0.364
568.56	0.363
568.77	0.358
568.97	0.357
569.18	0.356
569.38	0.355
569.59	0.355
569.79	0.353
570.00	0.350
570.20	0.350
570.41	0.348
570.61	0.346
570.82	0.347
571.02	0.343
571.23	0.345
571.43	0.341
571.64	0.340
571.84	0.339
572.05	0.337
572.25	0.337
572.45	0.336
572.66	0.333
572.86	0.332
573.07	0.331
573.27	0.332
573.48	0.331
573.68	0.327
573.89	0.327
574.09	0.328
574.30	0.327
574.50	0.325
574.70	0.325
574.91	0.323
575.11	0.323
575.32	0.323
575.52	0.319
575.73	0.319
575.93	0.318
576.14	0.317
576.34	0.315
576.54	0.314
576.75	0.312
576.95	0.311
577.16	0.310
577.36	0.309
577.57	0.309
577.77	0.308
577.97	0.305
578.18	0.307
578.38	0.304
578.59	0.303
578.79	0.301
579.00	0.302
579.20	0.301
579.40	0.300
579.61	0.298
579.81	0.298
580.02	0.295
580.22	0.295
580.42	0.294
580.63	0.294
580.83	0.293
581.04	0.292
581.24	0.291
581.45	0.290
581.65	0.290
581.85	0.289
582.06	0.287
582.26	0.287
582.47	0.286
582.67	0.285
582.87	0.284
583.08	0.282
583.28	0.282
583.48	0.281
583.69	0.278
583.89	0.278
584.10	0.279
584.30	0.277
584.50	0.275
584.71	0.275
584.91	0.275
585.12	0.273
585.32	0.274
585.52	0.272
585.73	0.270
585.93	0.270
586.13	0.270
586.34	0.268
586.54	0.268
586.75	0.267
586.95	0.266
587.15	0.266
587.36	0.265
587.56	0.264
587.76	0.263
587.97	0.263
588.17	0.261
588.37	0.261
588.58	0.261
588.78	0.258
588.98	0.259
589.19	0.258
589.39	0.256
589.60	0.258
589.80	0.255
590.00	0.254
590.21	0.254
590.41	0.253
590.61	0.253
590.82	0.252
591.02	0.252
591.22	0.250
591.43	0.251
591.63	0.249
591.83	0.248
592.04	0.247
592.24	0.248
592.44	0.245
592.65	0.244
592.85	0.244
593.05	0.245
593.26	0.243
593.46	0.243
593.66	0.243
593.86	0.243
594.07	0.241
594.27	0.241
594.47	0.240
594.68	0.239
594.88	0.240
595.08	0.239
595.29	0.239
595.49	0.236
595.69	0.236
595.90	0.235
596.10	0.235
596.30	0.235
596.50	0.234
596.71	0.234
596.91	0.233
597.11	0.233
597.32	0.233
597.52	0.232
597.72	0.232
597.93	0.231
598.13	0.229
598.33	0.230
598.53	0.229
598.74	0.228
598.94	0.227
599.14	0.227
599.35	0.227
599.55	0.226
599.75	0.225
599.95	0.224
600.16	0.225
600.36	0.223
600.56	0.223
600.76	0.223
600.97	0.221
601.17	0.221
601.37	0.221
601.58	0.220
601.78	0.220
601.98	0.219
602.18	0.218
602.39	0.218
602.59	0.218
602.79	0.217
602.99	0.216
603.20	0.215
603.40	0.215
603.60	0.215
603.80	0.215
604.01	0.215
604.21	0.214
604.41	0.213
604.61	0.212
604.82	0.212
605.02	0.212
605.22	0.211
605.42	0.211
605.62	0.211
605.83	0.209
606.03	0.209
606.23	0.209
606.43	0.209
606.64	0.208
606.84	0.208
607.04	0.208
607.24	0.208
607.45	0.208
607.65	0.207
607.85	0.208
608.05	0.207
608.25	0.206
608.46	0.205
608.66	0.205
608.86	0.205
609.06	0.204
609.26	0.203
609.47	0.203
609.67	0.202
609.87	0.203
610.07	0.202
610.28	0.200
610.48	0.200
610.68	0.200
610.88	0.199
611.08	0.200
611.29	0.198
611.49	0.198
611.69	0.199
611.89	0.197
612.09	0.196
612.29	0.196
612.50	0.196
612.70	0.196
612.90	0.195
613.10	0.194
613.30	0.194
613.51	0.194
613.71	0.194
613.91	0.197
614.11	0.193
614.31	0.192
614.51	0.192
614.72	0.191
614.92	0.191
615.12	0.191
615.32	0.192
615.52	0.191
615.72	0.191
615.93	0.191
616.13	0.190
616.33	0.190
616.53	0.190
616.73	0.190
616.93	0.189
617.14	0.190
617.34	0.189
617.54	0.189
617.74	0.189
617.94	0.188
618.14	0.187
618.34	0.187
618.55	0.187
618.75	0.187
618.95	0.187
619.15	0.187
619.35	0.186
619.55	0.185
619.75	0.186
619.96	0.185
620.16	0.185
620.36	0.185
620.56	0.184
620.76	0.184
620.96	0.183
621.16	0.183
621.36	0.183
621.57	0.183
621.77	0.183
621.97	0.182
622.17	0.182
622.37	0.182
622.57	0.182
622.77	0.181
622.97	0.180
623.18	0.180
623.38	0.180
623.58	0.180
623.78	0.179
623.98	0.179
624.18	0.178
624.38	0.177
624.58	0.178
624.78	0.178
624.98	0.178
625.19	0.178
625.39	0.178
625.59	0.177
625.79	0.177
625.99	0.176
626.19	0.176
626.39	0.176
626.59	0.176
626.79	0.176
626.99	0.176
627.19	0.176
627.40	0.177
627.60	0.176
627.80	0.175
628.00	0.175
628.20	0.174
628.40	0.174
628.60	0.174
628.80	0.172
629.00	0.173
629.20	0.172
629.40	0.172
629.60	0.171
629.80	0.171
630.00	0.172
630.20	0.172
630.41	0.171
630.61	0.171
630.81	0.171
631.01	0.171
631.21	0.170
631.41	0.170
631.61	0.170
631.81	0.170
632.01	0.169
632.21	0.169
632.41	0.168
632.61	0.168
632.81	0.168
633.01	0.169
633.21	0.168
633.41	0.169
633.61	0.168
633.81	0.168
634.01	0.167
634.21	0.167
634.41	0.166
634.61	0.167
634.81	0.166
635.01	0.166
635.22	0.166
635.42	0.165
635.62	0.164
635.82	0.164
636.02	0.164
636.22	0.164
636.42	0.164
636.62	0.164
636.82	0.164
637.02	0.163
637.22	0.163
637.42	0.163
637.62	0.162
637.82	0.163
638.02	0.162
638.22	0.162
638.42	0.161
638.62	0.161
638.82	0.161
639.02	0.161
639.22	0.160
639.42	0.160
639.62	0.160
639.82	0.159
640.02	0.159
640.22	0.159
640.42	0.159
640.62	0.159
640.82	0.159
641.02	0.158
641.22	0.158
641.42	0.158
641.61	0.158
641.81	0.158
642.01	0.158
642.21	0.158
642.41	0.158
642.61	0.157
642.81	0.156
643.01	0.156
643.21	0.156
643.41	0.156
643.61	0.156
643.81	0.155
644.01	0.154
644.21	0.154
644.41	0.154
644.61	0.154
644.81	0.154
645.01	0.154
645.21	0.154
645.41	0.153
645.61	0.153
645.81	0.153
646.01	0.152
646.21	0.153
646.40	0.153
646.60	0.153
646.80	0.153
647.00	0.153
647.20	0.152
647.40	0.152
647.60	0.152
647.80	0.152
648.00	0.152
648.20	0.152
648.40	0.152
648.60	0.151
648.80	0.151
649.00	0.151
649.20	0.151
649.39	0.150
649.59	0.149
649.79	0.149
649.99	0.149
650.19	0.148
650.39	0.148
650.59	0.148
650.79	0.147
650.99	0.147
651.19	0.146
651.39	0.146
651.58	0.146
651.78	0.146
651.98	0.145
652.18	0.145
652.38	0.145
652.58	0.145
652.78	0.145
652.98	0.144
653.18	0.145
653.38	0.145
653.57	0.144
653.77	0.144
653.97	0.144
654.17	0.144
654.37	0.143
654.57	0.143
654.77	0.143
654.97	0.142
655.16	0.142
655.36	0.142
655.56	0.141
655.76	0.141
655.96	0.141
656.16	0.140
656.36	0.140
656.56	0.140
656.75	0.140
656.95	0.140
657.15	0.140
657.35	0.140
657.55	0.139
657.75	0.140
657.95	0.140
658.14	0.140
658.34	0.141
658.54	0.140
658.74	0.139
658.94	0.139
659.14	0.139
659.34	0.138
659.53	0.137
659.73	0.137
659.93	0.136
660.13	0.136
660.33	0.135
660.53	0.135
660.72	0.136
660.92	0.135
661.12	0.135
661.32	0.135
661.52	0.134
661.72	0.134
661.91	0.134
662.11	0.134
662.31	0.134
662.51	0.134
662.71	0.133
662.90	0.133
663.10	0.132
663.30	0.133
663.50	0.132
663.70	0.132
663.90	0.132
664.09	0.132
664.29	0.131
664.49	0.131
664.69	0.130
664.89	0.130
665.08	0.130
665.28	0.130
665.48	0.130
665.68	0.129
665.88	0.129
666.07	0.129
666.27	0.129
666.47	0.128
666.67	0.129
666.87	0.129
667.06	0.128
667.26	0.128
667.46	0.127
667.66	0.128
667.85	0.128
668.05	0.128
668.25	0.128
668.45	0.128
668.65	0.128
668.84	0.128
669.04	0.128
669.24	0.127
669.44	0.126
669.63	0.126
669.83	0.126
670.03	0.125
670.23	0.125
670.42	0.125
670.62	0.124
670.82	0.124
671.02	0.124
671.22	0.123
671.41	0.122
671.61	0.123
671.81	0.123
672.01	0.123
672.20	0.122
672.40	0.122
672.60	0.122
672.80	0.122
672.99	0.122
673.19	0.121
673.39	0.121
673.58	0.121
673.78	0.121
673.98	0.121
674.18	0.121
674.37	0.120
674.57	0.120
674.77	0.120
674.97	0.120
675.16	0.120
675.36	0.120
675.56	0.119
675.75	0.119
675.95	0.118
676.15	0.119
676.35	0.118
676.54	0.118
676.74	0.118
676.94	0.118
677.13	0.117
677.33	0.116
677.53	0.117
677.73	0.116
677.92	0.116
678.12	0.116
678.32	0.116
678.51	0.116
678.71	0.116
678.91	0.115
679.11	0.115
679.30	0.115
679.50	0.115
679.70	0.114
679.89	0.114
680.09	0.115
680.29	0.114
680.48	0.114
680.68	0.113
680.88	0.113
681.07	0.113
681.27	0.113
681.47	0.113
681.66	0.113
681.86	0.112
682.06	0.112
682.25	0.112
682.45	0.112
682.65	0.112
682.84	0.111
683.04	0.111
683.24	0.111
683.43	0.112
683.63	0.111
683.83	0.111
684.02	0.111
684.22	0.111
684.42	0.110
684.61	0.110
684.81	0.110
685.01	0.110
685.20	0.109
685.40	0.109
685.60	0.109
685.79	0.109
685.99	0.109
686.19	0.108
686.38	0.108
686.58	0.109
686.77	0.109
686.97	0.108
687.17	0.108
687.36	0.108
687.56	0.108
687.76	0.107
687.95	0.107
688.15	0.107
688.34	0.107
688.54	0.106
688.74	0.106
688.93	0.106
689.13	0.106
689.33	0.105
689.52	0.105
689.72	0.105
689.91	0.105
690.11	0.104
690.31	0.104
690.50	0.104
690.70	0.105
690.89	0.104
691.09	0.104
691.29	0.104
691.48	0.103
691.68	0.103
691.87	0.103
692.07	0.103
692.27	0.103
692.46	0.103
692.66	0.102
692.85	0.102
693.05	0.102
693.25	0.102
693.44	0.101
693.64	0.101
693.83	0.101
694.03	0.101
694.22	0.100
694.42	0.100
694.62	0.100
694.81	0.100
695.01	0.100
695.20	0.100
695.40	0.100
695.59	0.100
695.79	0.099
695.99	0.100
696.18	0.100
696.38	0.100
696.57	0.100
696.77	0.100
696.96	0.100
697.16	0.100
697.36	0.099
697.55	0.099
697.75	0.099
697.94	0.098
698.14	0.098
698.33	0.098
698.53	0.097
698.72	0.097
698.92	0.097
699.11	0.096
699.31	0.096
699.51	0.097
699.70	0.096
699.90	0.096
700.09	0.096
700.29	0.096
700.48	0.096
700.68	0.096
700.87	0.096
701.07	0.096
701.26	0.095
701.46	0.095
701.65	0.095
701.85	0.095
702.04	0.095
702.24	0.094
702.43	0.095
702.63	0.094
702.82	0.094
703.02	0.094
703.21	0.094
703.41	0.094
703.60	0.093
703.80	0.093
703.99	0.093
704.19	0.093
704.38	0.093
704.58	0.092
704.77	0.092
704.97	0.092
705.16	0.093
705.36	0.093
705.55	0.092
705.75	0.092
705.94	0.093
706.14	0.093
706.33	0.093
706.53	0.093
706.72	0.093
706.92	0.092
707.11	0.092
707.31	0.092
707.50	0.092
707.70	0.092
707.89	0.092
708.09	0.092
708.28	0.092
708.48	0.092
708.67	0.092
708.86	0.092
709.06	0.092
709.25	0.092
709.45	0.091
709.64	0.091
709.84	0.091
710.03	0.090
710.23	0.090
710.42	0.090
710.62	0.090
710.81	0.090
711.00	0.090
711.20	0.089
711.39	0.089
711.59	0.089
711.78	0.089
711.98	0.089
712.17	0.090
712.37	0.089
712.56	0.089
712.75	0.090
712.95	0.090
713.14	0.090
713.34	0.090
713.53	0.090
713.73	0.090
713.92	0.089
714.11	0.090
714.31	0.090
714.50	0.089
714.70	0.089
714.89	0.089
715.08	0.089
715.28	0.089
715.47	0.088
715.67	0.089
715.86	0.089
716.06	0.089
716.25	0.089
716.44	0.088
716.64	0.088
716.83	0.088
717.03	0.087
717.22	0.087
717.41	0.087
717.61	0.087
717.80	0.087
717.99	0.087
718.19	0.087
718.38	0.087
718.58	0.086
718.77	0.086
718.96	0.086
719.16	0.086
719.35	0.086
719.55	0.086
719.74	0.086
719.93	0.085
720.13	0.085
720.32	0.085
720.51	0.085
720.71	0.085
720.90	0.085
721.10	0.085
721.29	0.085
721.48	0.085
721.68	0.084
721.87	0.085
722.06	0.085
722.26	0.085
722.45	0.085
722.64	0.085
722.84	0.085
723.03	0.085
723.22	0.085
723.42	0.085
723.61	0.085
723.80	0.085
724.00	0.085
724.19	0.085
724.38	0.085
724.58	0.085
724.77	0.085
724.96	0.085
725.16	0.085
725.35	0.085
725.54	0.085
725.74	0.085
725.93	0.085
726.12	0.085
726.32	0.085
726.51	0.085
726.70	0.084
726.90	0.085
727.09	0.084
727.28	0.085
727.48	0.085
727.67	0.084
727.86	0.085
728.06	0.085
728.25	0.085
728.44	0.085
728.64	0.085
728.83	0.085
729.02	0.085
729.21	0.085
729.41	0.085
729.60	0.085
729.79	0.084
729.99	0.084
730.18	0.084
730.37	0.084
730.56	0.084
730.76	0.083
730.95	0.084
731.14	0.083
731.34	0.083
731.53	0.084
731.72	0.084
731.91	0.084
732.11	0.084
732.30	0.084
732.49	0.084
732.69	0.085
732.88	0.084
733.07	0.084
733.26	0.084
733.46	0.084
733.65	0.084
733.84	0.084
734.03	0.084
734.23	0.084
734.42	0.084
734.61	0.083
734.80	0.084
735.00	0.084
735.19	0.084
735.38	0.084
735.57	0.084
735.77	0.084
735.96	0.084
736.15	0.084
736.34	0.083
736.54	0.084
736.73	0.084
736.92	0.083
737.11	0.083
737.31	0.083
737.50	0.083
737.69	0.084
737.88	0.084
738.07	0.084
738.27	0.084
738.46	0.084
738.65	0.084
738.84	0.084
739.04	0.085
739.23	0.084
739.42	0.084
739.61	0.084
739.80	0.084
740.00	0.084
740.19	0.084
740.38	0.084
740.57	0.084
740.76	0.084
740.96	0.083
741.15	0.083
741.34	0.083
741.53	0.084
741.72	0.083
741.92	0.083
742.11	0.083
742.30	0.083
742.49	0.083
742.68	0.083
742.88	0.083
743.07	0.083
743.26	0.083
743.45	0.083
743.64	0.083
743.84	0.082
744.03	0.082
744.22	0.082
744.41	0.082
744.60	0.082
744.79	0.082
744.99	0.081
745.18	0.081
745.37	0.081
745.56	0.081
745.75	0.081
745.94	0.081
746.14	0.081
746.33	0.081
746.52	0.082
746.71	0.081
746.90	0.081
747.09	0.081
747.28	0.081
747.48	0.081
747.67	0.081
747.86	0.081
748.05	0.081
748.24	0.080
748.43	0.080
748.62	0.080
748.82	0.080
749.01	0.080
749.20	0.079
749.39	0.079
749.58	0.079
749.77	0.079
749.96	0.079
750.16	0.079
750.35	0.079
750.54	0.079
750.73	0.080
750.92	0.079
751.11	0.080
751.30	0.080
751.49	0.080
751.68	0.080
751.88	0.080
752.07	0.079
752.26	0.080
752.45	0.079
752.64	0.079
752.83	0.079
753.02	0.079
753.21	0.079
753.40	0.078
753.60	0.078
753.79	0.078
753.98	0.078
754.17	0.078
754.36	0.078
754.55	0.078
754.74	0.078
754.93	0.078
755.12	0.078
755.31	0.078
755.50	0.078
755.70	0.078
755.89	0.078
756.08	0.078
756.27	0.078
756.46	0.078
756.65	0.078
756.84	0.078
757.03	0.078
757.22	0.077
757.41	0.077
757.60	0.077
757.79	0.078
757.98	0.077
758.17	0.077
758.36	0.077
758.56	0.077
758.75	0.077
758.94	0.077
759.13	0.077
759.32	0.077
759.51	0.077
759.70	0.077
759.89	0.076
760.08	0.077
760.27	0.077
760.46	0.077
760.65	0.077
760.84	0.076
761.03	0.076
761.22	0.076
761.41	0.077
761.60	0.077
761.79	0.076
761.98	0.076
762.17	0.076
762.36	0.076
762.55	0.076
762.74	0.075
762.93	0.075
763.12	0.075
763.31	0.075
763.50	0.075
763.69	0.075
763.88	0.075
764.07	0.075
764.26	0.075
764.45	0.075
764.64	0.075
764.83	0.075
765.02	0.075
765.21	0.075
765.40	0.075
765.59	0.075
765.78	0.075
765.97	0.076
766.16	0.075
766.35	0.075
766.54	0.075
766.73	0.075
766.92	0.075
767.11	0.075
767.30	0.075
767.49	0.075
767.68	0.074
767.87	0.074
768.06	0.074
768.25	0.074
768.44	0.074
768.63	0.073
768.82	0.074
769.01	0.074
769.20	0.073
769.39	0.074
769.58	0.074
769.77	0.074
769.96	0.074
770.15	0.074
770.34	0.074
770.53	0.074
770.72	0.074
770.91	0.074
771.10	0.074
771.29	0.074
771.47	0.073
771.66	0.073
771.85	0.073
772.04	0.073
772.23	0.072
772.42	0.072
772.61	0.072
772.80	0.072
772.99	0.072
773.18	0.072
773.37	0.073
773.56	0.073
773.75	0.073
773.94	0.073
774.13	0.072
774.31	0.072
774.50	0.072
774.69	0.072
774.88	0.072
775.07	0.072
775.26	0.072
775.45	0.071
775.64	0.072
775.83	0.072
776.02	0.072
776.21	0.072
776.40	0.072
776.58	0.072
776.77	0.072
776.96	0.072
777.15	0.072
777.34	0.072
777.53	0.073
777.72	0.072
777.91	0.072
778.10	0.072
778.28	0.072
778.47	0.072
778.66	0.071
778.85	0.071
779.04	0.071
779.23	0.071
779.42	0.071
779.61	0.071
779.79	0.070
779.98	0.070
780.17	0.070
780.36	0.070
780.55	0.070
780.74	0.070
780.93	0.069
781.12	0.070
781.30	0.070
781.49	0.070
781.68	0.070
781.87	0.070
782.06	0.070
782.25	0.070
782.44	0.070
782.62	0.070
782.81	0.071
783.00	0.071
783.19	0.071
783.38	0.070
783.57	0.070
783.75	0.070
783.94	0.070
784.13	0.070
784.32	0.070
784.51	0.070
784.70	0.070
784.88	0.070
785.07	0.069
785.26	0.069
785.45	0.069
785.64	0.069
785.83	0.069
786.01	0.069
786.20	0.069
786.39	0.069
786.58	0.069
786.77	0.069
786.95	0.069
787.14	0.069
787.33	0.069
787.52	0.069
787.71	0.070
787.90	0.069
788.08	0.069
788.27	0.069
788.46	0.069
788.65	0.069
788.84	0.069
789.02	0.069
789.21	0.069
789.40	0.069
789.59	0.069
789.77	0.069
789.96	0.069
790.15	0.069
790.34	0.069
790.53	0.069
790.71	0.068
790.90	0.069
791.09	0.068
791.28	0.069
791.46	0.069
791.65	0.069
791.84	0.069
792.03	0.069
792.22	0.068
792.40	0.068
792.59	0.068
792.78	0.069
792.97	0.069
793.15	0.069
793.34	0.068
793.53	0.068
793.72	0.068
793.90	0.068
794.09	0.068
794.28	0.068
794.47	0.068
794.65	0.068
794.84	0.068
795.03	0.067
795.22	0.067
795.40	0.067
795.59	0.068
795.78	0.068
795.97	0.068
796.15	0.069
796.34	0.069
796.53	0.069
796.71	0.069
796.90	0.069
797.09	0.069
797.28	0.069
797.46	0.069
797.65	0.068
797.84	0.068
798.02	0.068
798.21	0.067
798.40	0.067
798.59	0.067
798.77	0.067
798.96	0.066
799.15	0.066
799.33	0.066
799.52	0.066
799.71	0.066
799.90	0.066
800.08	0.066
800.27	0.066
800.46	0.066
800.64	0.066
800.83	0.066
801.02	0.066
801.20	0.066
801.39	0.066
801.58	0.066
801.76	0.066
801.95	0.066
802.14	0.066
802.32	0.066
802.51	0.066
802.70	0.066
802.88	0.066
803.07	0.066
803.26	0.066
803.44	0.065
803.63	0.066
803.82	0.065
804.00	0.065
804.19	0.066
804.38	0.066
804.56	0.066
804.75	0.066
804.94	0.066
805.12	0.066
805.31	0.066
805.50	0.066
805.68	0.066
805.87	0.066
806.06	0.066
806.24	0.066
806.43	0.066
806.62	0.066
806.80	0.066
806.99	0.066
807.17	0.066
807.36	0.066
807.55	0.066
807.73	0.066
807.92	0.066
808.11	0.066
808.29	0.066
808.48	0.065
808.66	0.065
808.85	0.065
809.04	0.065
809.22	0.065
809.41	0.065
809.59	0.065
809.78	0.065
809.97	0.065
810.15	0.065
810.34	0.065
810.53	0.065
810.71	0.065
810.90	0.065
811.08	0.065
811.27	0.065
811.45	0.065
811.64	0.065
811.83	0.065
812.01	0.065
812.20	0.065
812.38	0.065
812.57	0.065
812.76	0.065
812.94	0.065
813.13	0.065
813.31	0.065
813.50	0.065
813.68	0.066
813.87	0.065
814.06	0.065
814.24	0.065
814.43	0.065
814.61	0.065
814.80	0.065
814.98	0.065
815.17	0.065
815.36	0.065
815.54	0.065
815.73	0.065
815.91	0.064
816.10	0.065
816.28	0.064
816.47	0.064
816.65	0.064
816.84	0.064
817.03	0.065
817.21	0.065
817.40	0.065
817.58	0.065
817.77	0.064
817.95	0.064
818.14	0.065
818.32	0.065
818.51	0.065
818.69	0.065
818.88	0.065
819.06	0.065
819.25	0.065
819.43	0.065
819.62	0.065
819.80	0.065
819.99	0.065
820.18	0.065
820.36	0.065
820.55	0.065
820.73	0.065
820.92	0.065
821.10	0.065
821.29	0.065
821.47	0.065
821.66	0.065
821.84	0.065
822.03	0.065
822.21	0.065
822.40	0.065
822.58	0.065
822.77	0.065
822.95	0.065
823.14	0.065
823.32	0.065
823.50	0.066
823.69	0.066
823.87	0.066
824.06	0.066
824.24	0.067
824.43	0.066
824.61	0.066
824.80	0.067
824.98	0.067
825.17	0.067
825.35	0.067
825.54	0.067
825.72	0.066
825.91	0.066
826.09	0.066
826.28	0.066
826.46	0.067
826.64	0.067
826.83	0.067
827.01	0.067
827.20	0.067
827.38	0.067
827.57	0.067
827.75	0.067
827.94	0.068
828.12	0.068
828.31	0.067
828.49	0.068
828.67	0.068
828.86	0.068
829.04	0.068
829.23	0.068
829.41	0.068
829.60	0.068
829.78	0.069
829.96	0.069
830.15	0.069
830.33	0.069
830.52	0.069
830.70	0.069
830.88	0.069
831.07	0.070
831.25	0.070
831.44	0.070
831.62	0.069
831.81	0.069
831.99	0.069
832.17	0.070
832.36	0.070
832.54	0.070
832.73	0.070
832.91	0.070
833.09	0.070
833.28	0.070
833.46	0.070
833.65	0.071
833.83	0.071
834.01	0.071
834.20	0.071
834.38	0.071
834.56	0.071
834.75	0.071
834.93	0.071
835.12	0.071
835.30	0.071
835.48	0.071
835.67	0.071
835.85	0.071
836.03	0.071
836.22	0.071
836.40	0.071
836.59	0.071
836.77	0.071
836.95	0.071
837.14	0.071
837.32	0.071
837.50	0.071
837.69	0.071
837.87	0.071
838.05	0.071
838.24	0.071
838.42	0.071
838.60	0.071
838.79	0.072
838.97	0.071
839.15	0.072
839.34	0.072
839.52	0.072
839.70	0.073
839.89	0.073
840.07	0.073
840.25	0.073
840.44	0.072
840.62	0.072
840.80	0.072
840.99	0.072
841.17	0.072
841.35	0.072
841.54	0.072
841.72	0.072
841.90	0.072
842.09	0.072
842.27	0.072
842.45	0.073
842.64	0.073
842.82	0.073
843.00	0.073
843.19	0.073
843.37	0.072
843.55	0.073
843.73	0.072
843.92	0.072
844.10	0.072
844.28	0.072
844.47	0.072
844.65	0.072
844.83	0.072
845.01	0.072
845.20	0.072
845.38	0.072
845.56	0.072
845.75	0.072
845.93	0.072
846.11	0.072
846.29	0.073
846.48	0.073
846.66	0.073
846.84	0.072
847.02	0.072
847.21	0.072
847.39	0.072
847.57	0.072
847.76	0.072
847.94	0.072
848.12	0.072
848.30	0.072
848.49	0.072
848.67	0.072
848.85	0.072
849.03	0.073
849.22	0.073
849.40	0.073
849.58	0.073
849.76	0.073
849.95	0.073
850.13	0.073
850.31	0.073
850.49	0.073
850.67	0.074
850.86	0.074
851.04	0.073
851.22	0.073
851.40	0.073
851.59	0.073
851.77	0.073
851.95	0.073
852.13	0.073
852.31	0.072
852.50	0.073
852.68	0.073
852.86	0.072
853.04	0.073
853.23	0.073
853.41	0.073
853.59	0.072
853.77	0.073
853.95	0.073
854.14	0.073
854.32	0.073
854.50	0.073
854.68	0.073
854.86	0.073
855.04	0.073
855.23	0.073
855.41	0.073
855.59	0.074
855.77	0.074
855.95	0.074
856.14	0.074
856.32	0.074
856.50	0.074
856.68	0.074
856.86	0.074
857.04	0.074
857.23	0.074
857.41	0.074
857.59	0.074
857.77	0.074
857.95	0.074
858.13	0.073
858.32	0.074
858.50	0.074
858.68	0.073
858.86	0.074
859.04	0.074
859.22	0.074
859.41	0.074
859.59	0.074
859.77	0.074
859.95	0.073
860.13	0.074
860.31	0.074
860.49	0.074
860.68	0.074
860.86	0.074
861.04	0.074
861.22	0.074
861.40	0.074
861.58	0.074
861.76	0.074
861.94	0.074
862.13	0.074
862.31	0.074
862.49	0.074
862.67	0.074
862.85	0.074
863.03	0.074
863.21	0.075
863.39	0.075
863.57	0.075
863.76	0.075
863.94	0.075
864.12	0.075
864.30	0.075
864.48	0.075
864.66	0.075
864.84	0.075
865.02	0.076
865.20	0.075
865.38	0.075
865.57	0.075
865.75	0.075
865.93	0.076
866.11	0.075
866.29	0.076
866.47	0.076
866.65	0.076
866.83	0.076
867.01	0.075
867.19	0.075
867.37	0.075
867.55	0.076
867.73	0.076
867.92	0.075
868.10	0.076
868.28	0.075
868.46	0.075
868.64	0.075
868.82	0.075
869.00	0.076
869.18	0.076
869.36	0.076
869.54	0.076
869.72	0.076
869.90	0.076
870.08	0.076
870.26	0.076
870.44	0.076
870.62	0.076
870.80	0.075
870.98	0.076
871.16	0.076
871.34	0.075
871.53	0.076
871.71	0.076
871.89	0.076
872.07	0.076
872.25	0.076
872.43	0.076
872.61	0.077
872.79	0.076
872.97	0.076
873.15	0.077
873.33	0.077
873.51	0.077
873.69	0.077
873.87	0.077
874.05	0.077
874.23	0.077
874.41	0.077
874.59	0.077
874.77	0.077
874.95	0.076
875.13	0.077
875.31	0.076
875.49	0.076
875.67	0.076
875.85	0.076
876.03	0.077
876.21	0.077
876.39	0.077
876.57	0.077
876.75	0.077
876.93	0.077
877.11	0.077
877.29	0.077
877.47	0.077
877.65	0.077
877.82	0.077
878.00	0.078
878.18	0.078
878.36	0.077
878.54	0.078
878.72	0.078
878.90	0.078
879.08	0.078
879.26	0.078
879.44	0.078
879.62	0.078
879.80	0.078
879.98	0.078
880.16	0.078
880.34	0.077
880.52	0.078
880.70	0.078
880.88	0.078
881.06	0.078
881.24	0.078
881.42	0.078
881.59	0.078
881.77	0.078
881.95	0.078
882.13	0.078
882.31	0.078
882.49	0.078
882.67	0.079
882.85	0.078
883.03	0.078
883.21	0.078
883.39	0.078
883.57	0.078
883.75	0.078
883.92	0.078
884.10	0.078
884.28	0.078
884.46	0.079
884.64	0.078
884.82	0.078
885.00	0.078
885.18	0.079
885.36	0.079
885.54	0.079
885.71	0.079
885.89	0.080
886.07	0.079
886.25	0.079
886.43	0.079
886.61	0.079
886.79	0.079
886.97	0.079
887.15	0.079
887.32	0.079
887.50	0.080
887.68	0.079
887.86	0.079
888.04	0.080
888.22	0.079
888.40	0.079
888.57	0.080
888.75	0.080
888.93	0.080
889.11	0.080
889.29	0.080
889.47	0.080
889.65	0.080
889.82	0.080
890.00	0.081
890.18	0.080
890.36	0.081
890.54	0.081
890.72	0.081
890.90	0.081
891.07	0.081
891.25	0.080
891.43	0.080
891.61	0.080
891.79	0.080
891.97	0.080
892.14	0.080
892.32	0.080
892.50	0.080
892.68	0.080
892.86	0.080
893.03	0.080
893.21	0.080
893.39	0.081
893.57	0.081
893.75	0.081
893.93	0.081
894.10	0.081
894.28	0.081
894.46	0.081
894.64	0.081
894.82	0.081
894.99	0.081
895.17	0.081
895.35	0.081
895.53	0.081
895.71	0.081
895.88	0.082
896.06	0.082
896.24	0.082
896.42	0.082
896.59	0.082
896.77	0.082
896.95	0.082
897.13	0.082
897.31	0.082
897.48	0.082
897.66	0.082
897.84	0.082
898.02	0.082
898.19	0.082
898.37	0.082
898.55	0.082
898.73	0.082
898.91	0.082
899.08	0.082
899.26	0.082
899.44	0.082
899.62	0.082
899.79	0.083
899.97	0.083
900.15	0.083
900.33	0.082
900.50	0.083
900.68	0.082
900.86	0.083
901.04	0.083
901.21	0.083
901.39	0.083
901.57	0.083
901.74	0.083
901.92	0.083
902.10	0.083
902.28	0.083
902.45	0.083
902.63	0.083
902.81	0.083
902.99	0.084
903.16	0.084
903.34	0.084
903.52	0.084
903.69	0.084
903.87	0.084
904.05	0.084
904.22	0.085
904.40	0.084
904.58	0.084
904.76	0.084
904.93	0.084
905.11	0.084
905.29	0.085
905.46	0.085
905.64	0.085
905.82	0.085
905.99	0.084
906.17	0.084
906.35	0.084
906.53	0.085
906.70	0.085
906.88	0.085
907.06	0.084
907.23	0.084
907.41	0.085
907.59	0.085
907.76	0.085
907.94	0.085
908.12	0.085
908.29	0.085
908.47	0.086
908.65	0.086
908.82	0.086
909.00	0.086
909.18	0.086
909.35	0.086
909.53	0.086
909.71	0.085
909.88	0.086
910.06	0.086
910.23	0.086
910.41	0.086
910.59	0.086
910.76	0.086
910.94	0.086
911.12	0.086
911.29	0.086
911.47	0.087
911.65	0.087
911.82	0.087
912.00	0.087
912.17	0.087
912.35	0.088
912.53	0.088
912.70	0.088
912.88	0.088
913.06	0.089
913.23	0.089
913.41	0.089
913.58	0.089
913.76	0.089
913.94	0.089
914.11	0.089
914.29	0.089
914.46	0.089
914.64	0.089
914.82	0.089
914.99	0.089
915.17	0.089
915.34	0.089
915.52	0.089
915.70	0.089
915.87	0.089
916.05	0.089
916.22	0.089
916.40	0.089
916.57	0.090
916.75	0.090
916.93	0.090
917.10	0.090
917.28	0.090
917.45	0.090
917.63	0.090
917.80	0.090
917.98	0.090
918.16	0.090
918.33	0.091
918.51	0.091
918.68	0.091
918.86	0.091
919.03	0.091
919.21	0.091
919.39	0.092
919.56	0.092
919.74	0.093
919.91	0.092
920.09	0.093
920.26	0.093
920.44	0.093
920.61	0.093
920.79	0.094
920.96	0.094
921.14	0.094
921.31	0.094
921.49	0.095
921.67	0.095
921.84	0.095
922.02	0.095
922.19	0.095
922.37	0.095
922.54	0.095
922.72	0.095
922.89	0.096
923.07	0.096
923.24	0.096
923.42	0.096
923.59	0.097
923.77	0.097
923.94	0.098
924.12	0.098
924.29	0.098
924.47	0.099
924.64	0.099
924.82	0.099
924.99	0.100
925.17	0.100
925.34	0.100
925.52	0.101
925.69	0.101
925.87	0.101
926.04	0.101
926.22	0.102
926.39	0.102
926.57	0.102
926.74	0.102
926.91	0.102
927.09	0.103
927.26	0.102
927.44	0.103
927.61	0.103
927.79	0.103
927.96	0.104
928.14	0.104
928.31	0.105
928.49	0.105
928.66	0.105
928.84	0.106
929.01	0.106
929.18	0.107
929.36	0.107
929.53	0.108
929.71	0.108
929.88	0.109
930.06	0.109
930.23	0.110
930.41	0.110
930.58	0.110
930.75	0.111
930.93	0.111
931.10	0.111
931.28	0.112
931.45	0.113
931.63	0.113
931.80	0.113
931.97	0.113
932.15	0.114
932.32	0.115
932.50	0.115
932.67	0.115
932.84	0.116
933.02	0.117
933.19	0.117
933.37	0.117
933.54	0.118
933.71	0.118
933.89	0.119
934.06	0.119
934.24	0.120
934.41	0.120
934.58	0.121
934.76	0.121
934.93	0.122
935.11	0.122
935.28	0.122
935.45	0.123
935.63	0.124
935.80	0.125
935.98	0.125
936.15	0.125
936.32	0.126
936.50	0.126
936.67	0.126
936.84	0.126
937.02	0.128
937.19	0.128
937.36	0.128
937.54	0.129
937.71	0.129
937.89	0.130
938.06	0.130
938.23	0.131
938.41	0.132
938.58	0.132
938.75	0.133
938.93	0.133
939.10	0.133
939.27	0.134
939.45	0.135
939.62	0.135
939.79	0.136
939.97	0.136
940.14	0.137
940.31	0.137
940.49	0.138
940.66	0.138
940.83	0.139
941.01	0.140
941.18	0.140
941.35	0.141
941.53	0.141
941.70	0.142
941.87	0.142
942.05	0.143
942.22	0.143
942.39	0.145
942.57	0.145
942.74	0.146
942.91	0.146
943.08	0.147
943.26	0.148
943.43	0.148
943.60	0.149
943.78	0.150
943.95	0.151
944.12	0.151
944.29	0.152
944.47	0.152
944.64	0.153
944.81	0.154
944.99	0.155
945.16	0.155
945.33	0.156
945.50	0.157
945.68	0.158
945.85	0.158
946.02	0.160
946.20	0.160
946.37	0.161
946.54	0.162
946.71	0.163
946.89	0.164
947.06	0.164
947.23	0.165
947.40	0.167
947.58	0.166
947.75	0.168
947.92	0.168
948.09	0.169
948.27	0.170
948.44	0.171
948.61	0.172
948.78	0.173
948.96	0.174
949.13	0.175
949.30	0.176
949.47	0.177
949.65	0.178
949.82	0.180
949.99	0.180
950.16	0.182
950.33	0.183
950.51	0.184
950.68	0.186
950.85	0.187
951.02	0.188
951.20	0.189
951.37	0.190
951.54	0.191
951.71	0.192
951.88	0.194
952.06	0.195
952.23	0.195
952.40	0.197
952.57	0.198
952.74	0.200
952.92	0.201
953.09	0.202
953.26	0.204
953.43	0.205
953.60	0.206
953.77	0.207
953.95	0.207
954.12	0.209
954.29	0.210
954.46	0.212
954.63	0.213
954.81	0.214
954.98	0.214
955.15	0.216
955.32	0.218
955.49	0.218
955.66	0.220
955.84	0.221
956.01	0.221
956.18	0.224
956.35	0.225
956.52	0.225
956.69	0.227
956.87	0.227
957.04	0.228
957.21	0.230
957.38	0.230
957.55	0.231
957.72	0.232
957.89	0.233
958.07	0.233
958.24	0.236
958.41	0.237
958.58	0.237
958.75	0.238
958.92	0.239
959.09	0.239
959.26	0.240
959.44	0.241
959.61	0.242
959.78	0.243
959.95	0.245
960.12	0.245
960.29	0.247
960.46	0.246
960.63	0.247
960.81	0.247
960.98	0.248
961.15	0.248
961.32	0.249
961.49	0.248
961.66	0.250
961.83	0.250
962.00	0.250
962.17	0.251
962.34	0.250
962.52	0.251
962.69	0.253
962.86	0.252
963.03	0.253
963.20	0.254
963.37	0.253
963.54	0.253
963.71	0.253
963.88	0.253
964.05	0.254
964.22	0.255
964.39	0.254
964.56	0.254
964.74	0.255
964.91	0.255
965.08	0.255
965.25	0.255
965.42	0.256
965.59	0.257
965.76	0.257
965.93	0.258
966.10	0.256
966.27	0.257
966.44	0.257
966.61	0.258
966.78	0.257
966.95	0.256
967.12	0.258
967.29	0.259
967.46	0.258
967.63	0.258
967.80	0.259
967.97	0.258
968.14	0.258
968.32	0.258
968.49	0.258
968.66	0.258
968.83	0.259
969.00	0.258
969.17	0.258
969.34	0.260
969.51	0.261
969.68	0.259
969.85	0.260
970.02	0.261
970.19	0.260
970.36	0.261
970.53	0.261
970.70	0.260
970.87	0.260
971.04	0.260
971.21	0.260
971.38	0.260
971.55	0.261
971.72	0.261
971.89	0.261
972.06	0.261
972.23	0.261
972.40	0.261
972.57	0.260
972.74	0.260
972.91	0.261
973.07	0.261
973.24	0.260
973.41	0.260
973.58	0.259
973.75	0.271
973.92	0.259
974.09	0.259
974.26	0.259
974.43	0.258
974.60	0.259
974.77	0.260
974.94	0.259
975.11	0.260
975.28	0.261
975.45	0.259
975.62	0.260
975.79	0.262
975.96	0.260
976.13	0.259
976.30	0.261
976.47	0.259
976.64	0.259
976.80	0.260
976.97	0.260
977.14	0.259
977.31	0.259
977.48	0.260
977.65	0.259
977.82	0.259
977.99	0.261
978.16	0.260
978.33	0.260
978.50	0.260
978.67	0.259
978.83	0.259
979.00	0.259
979.17	0.259
979.34	0.258
979.51	0.257
979.68	0.258
979.85	0.257
980.02	0.257
980.19	0.255
980.36	0.256
980.52	0.258
980.69	0.256
980.86	0.256
981.03	0.256
981.20	0.255
981.37	0.256
981.54	0.256
981.71	0.255
981.88	0.256
982.04	0.256
982.21	0.255
982.38	0.257
982.55	0.256
982.72	0.255
982.89	0.256
983.06	0.254
983.22	0.253
983.39	0.254
983.56	0.253
983.73	0.252
983.90	0.252
984.07	0.253
984.24	0.251
984.40	0.251
984.57	0.250
984.74	0.252
984.91	0.253
985.08	0.251
985.25	0.248
985.41	0.249
985.58	0.249
985.75	0.250
985.92	0.250
986.09	0.248
986.26	0.248
986.42	0.247
986.59	0.246
986.76	0.247
986.93	0.247
987.10	0.248
987.27	0.246
987.43	0.244
987.60	0.246
987.77	0.246
987.94	0.245
988.11	0.246
988.27	0.247
988.44	0.246
988.61	0.245
988.78	0.243
988.95	0.244
989.11	0.245
989.28	0.243
989.45	0.242
989.62	0.242
989.79	0.242
989.95	0.240
990.12	0.241
990.29	0.241
990.46	0.239
990.62	0.237
990.79	0.238
990.96	0.239
991.13	0.239
991.30	0.237
991.46	0.237
991.63	0.235
991.80	0.235
991.97	0.235
992.13	0.235
992.30	0.236
992.47	0.234
992.64	0.234
992.80	0.234
992.97	0.235
993.14	0.233
993.31	0.230
993.47	0.233
993.64	0.230
993.81	0.230
993.98	0.231
994.14	0.229
994.31	0.229
994.48	0.230
994.64	0.230
994.81	0.228
994.98	0.228
995.15	0.227
995.31	0.227
995.48	0.226
995.65	0.228
995.82	0.225
995.98	0.225
996.15	0.226
996.32	0.228
996.48	0.226
996.65	0.226
996.82	0.224
996.99	0.224
997.15	0.224
997.32	0.225
997.49	0.224
997.65	0.225
997.82	0.225
997.99	0.222
998.15	0.222
998.32	0.223
998.49	0.222
998.65	0.222
998.82	0.221
998.99	0.219
999.15	0.219
999.32	0.218
999.49	0.218
999.65	0.218
999.82	0.215
999.99	0.216
1000.15	0.216
1000.32	0.216
1000.49	0.216
1000.65	0.214
1000.82	0.213
1000.99	0.214
1001.15	0.213
1001.32	0.213
1001.49	0.213
1001.65	0.213
1001.82	0.216
1001.99	0.212
1002.15	0.211
1002.32	0.211
1002.49	0.213
1002.65	0.212
1002.82	0.210
1002.99	0.210
1003.15	0.212
1003.32	0.211
1003.48	0.211
1003.65	0.210
1003.82	0.208
1003.98	0.206
1004.15	0.206
1004.32	0.206
1004.48	0.207
1004.65	0.207
1004.81	0.205
1004.98	0.203
1005.15	0.203
1005.31	0.202
1005.48	0.201
1005.64	0.201
1005.81	0.204
1005.98	0.201
1006.14	0.201
1006.31	0.201
1006.47	0.200
1006.64	0.199
1006.81	0.199
1006.97	0.199
1007.14	0.199
1007.30	0.200
1007.47	0.201
1007.63	0.198
1007.80	0.196
1007.97	0.196
1008.13	0.196
1008.30	0.196
1008.46	0.196
1008.63	0.194
1008.79	0.195
1008.96	0.195
1009.13	0.196
1009.29	0.193
1009.46	0.194
1009.62	0.194
1009.79	0.192
1009.95	0.192
1010.12	0.192
1010.28	0.192
1010.45	0.191
1010.62	0.191
1010.78	0.189
1010.95	0.187
1011.11	0.187
1011.28	0.187
1011.44	0.190
1011.61	0.188
1011.77	0.186
1011.94	0.186
1012.10	0.186
1012.27	0.185
1012.43	0.185
1012.60	0.184
1012.76	0.185
1012.93	0.185
1013.10	0.183
1013.26	0.180
1013.43	0.181
1013.59	0.189
1013.76	0.183
1013.92	0.181
1014.09	0.180
1014.25	0.181
1014.42	0.182
1014.58	0.181
1014.75	0.182
1014.91	0.181
1015.08	0.183
1015.24	0.178
1015.41	0.180
1015.57	0.180
1015.73	0.178
1015.90	0.176
1016.06	0.177
1016.23	0.176
1016.39	0.176
1016.56	0.176
1016.72	0.175
1016.89	0.175
1017.05	0.178
1017.22	0.173
1017.38	0.174
1017.55	0.172
1017.71	0.174
1017.88	0.173
1018.04	0.174
1018.21	0.170
1018.37	0.171
1018.53	0.171
1018.70	0.170
1018.86	0.170
1019.03	0.172
1019.19	0.171
1019.36	0.171
1019.52	0.172
1019.69	0.174
1019.85	0.173
1020.01	0.174
1020.18	0.173
1020.34	0.173
1020.51	0.172
1020.67	0.173
1020.84	0.171
1021.00	0.171
1021.16	0.169
1021.33	0.169
1021.49	0.167
1021.66	0.166
1021.82	0.164
1021.98	0.163
1022.15	0.163
1022.31	0.162
1022.48	0.161
1022.64	0.162
1022.80	0.161
1022.97	0.159
1023.13	0.159
1023.30	0.160
1023.46	0.161
1023.62	0.159
1023.79	0.161
1023.95	0.161
1024.12	0.161
1024.28	0.159
1024.44	0.159
1024.61	0.158
1024.77	0.159
1024.93	0.158
1025.10	0.159
1025.26	0.157
1025.43	0.158
1025.59	0.154
1025.75	0.157
1025.92	0.156
1026.08	0.155
1026.24	0.155
1026.41	0.156
1026.57	0.154
1026.73	0.152
1026.90	0.154
1027.06	0.152
1027.23	0.154
1027.39	0.154
1027.55	0.154
1027.72	0.153
1027.88	0.152
1028.04	0.153
1028.21	0.152
1028.37	0.146
1028.53	0.152
1028.70	0.149
1028.86	0.148
1029.02	0.146
1029.19	0.147
1029.35	0.145
1029.51	0.145
1029.67	0.145
1029.84	0.146
1030.00	0.142
1030.16	0.143
1030.33	0.145
1030.49	0.143
1030.65	0.140
1030.82	0.155
1030.98	0.143
1031.14	0.144
1031.31	0.143
1031.47	0.141
1031.63	0.143
1031.79	0.142
1031.96	0.143
1032.12	0.145
1032.28	0.142
1032.45	0.147
1032.61	0.146
1032.77	0.145
1032.93	0.143
1033.10	0.145
1033.26	0.146
1033.42	0.145
1033.58	0.146
1033.75	0.147
1033.91	0.145
1034.07	0.147
1034.24	0.144
1034.40	0.141
1034.56	0.141
1034.72	0.141
1034.89	0.141
1035.05	0.140
1035.21	0.139
1035.37	0.137
1035.54	0.140
1035.70	0.138
1035.86	0.138
1036.02	0.141
1036.19	0.139
1036.35	0.138
1036.51	0.141
1036.67	0.139
1036.83	0.138
1037.00	0.138
1037.16	0.138
1037.32	0.138
1037.48	0.137
1037.65	0.142
1037.81	0.136
1037.97	0.136
1038.13	0.136
1038.29	0.133
1038.46	0.130
1038.62	0.134
1038.78	0.132
1038.94	0.129
1039.10	0.134
1039.27	0.130
1039.43	0.130
1039.59	0.129
1039.75	0.129
1039.91	0.128
1040.08	0.129
1040.24	0.131
1040.40	0.134
1040.56	0.132
1040.72	0.126
1040.89	0.128
1041.05	0.129
1041.21	0.128
1041.37	0.126
1041.53	0.132
1041.69	0.130
1041.86	0.129
1042.02	0.126
1042.18	0.125
1042.34	0.127
1042.50	0.132
1042.66	0.129
1042.83	0.128
1042.99	0.131
1043.15	0.127
1043.31	0.128
1043.47	0.132
1043.63	0.128
1043.79	0.130
1043.96	0.131
1044.12	0.136
1044.28	0.132
1044.44	0.134
1044.60	0.128
1044.76	0.126
1044.92	0.129
1045.09	0.131
1045.25	0.127
1045.41	0.128
1045.57	0.123
1045.73	0.122
1045.89	0.123
1046.05	0.124
1046.21	0.132
1046.38	0.131
1046.54	0.125
1046.70	0.138
1046.86	0.117
>>>>>End Processed Spectral Data<<<<<
