SpectraSuite Data File
++++++++++++++++++++++++++++++++++++
Date: Mon May 20 12:11:55 CDT 2013
User: Students
Dark Spectrum Present: Yes
Reference Spectrum Present: Yes
Number of Sampled Component Spectra: 1
Spectrometers: USB4H00887
Integration Time (usec): 60000 (USB4H00887)
Spectra Averaged: 5 (USB4H00887)
Boxcar Smoothing: 5 (USB4H00887)
Correct for Electrical Dark: No (USB4H00887)
Strobe/Lamp Enabled: No (USB4H00887)
Correct for Detector Non-linearity: No (USB4H00887)
Correct for Stray Light: No (USB4H00887)
Number of Pixels in Processed Spectrum: 3648
>>>>>Begin Processed Spectral Data<<<<<
345.83	-0.039
346.05	-0.039
346.26	-0.039
346.48	-0.000
346.70	0.263
346.92	0.047
347.14	0.038
347.35	0.055
347.57	0.365
347.79	-0.238
348.01	-0.171
348.23	-0.228
348.44	-0.000
348.66	0.246
348.88	-0.353
349.10	-0.124
349.32	0.058
349.53	0.022
349.75	0.093
349.97	0.070
350.19	0.087
350.41	0.124
350.62	-0.309
350.84	0.046
351.06	0.061
351.28	0.056
351.50	-0.025
351.71	-0.016
351.93	-0.103
352.15	-0.026
352.37	-0.046
352.58	0.003
352.80	0.018
353.02	0.019
353.24	0.027
353.46	0.108
353.67	-0.114
353.89	0.053
354.11	0.047
354.33	0.061
354.54	0.107
354.76	0.181
354.98	0.322
355.20	0.310
355.41	0.125
355.63	0.280
355.85	0.121
356.07	-0.000
356.28	0.118
356.50	0.234
356.72	0.096
356.94	0.263
357.15	0.342
357.37	-0.000
357.59	0.106
357.81	0.068
358.02	0.118
358.24	0.084
358.46	0.153
358.68	0.132
358.89	0.074
359.11	-0.000
359.33	0.068
359.55	-0.380
359.76	0.093
359.98	0.076
360.20	0.110
360.42	0.093
360.63	0.130
360.85	0.109
361.07	0.770
361.29	0.084
361.50	0.200
361.72	0.078
361.94	0.494
362.15	0.140
362.37	0.089
362.59	0.071
362.81	0.113
363.02	0.186
363.24	0.285
363.46	0.182
363.68	0.237
363.89	0.171
364.11	0.222
364.33	0.240
364.54	0.171
364.76	0.219
364.98	0.246
365.20	0.241
365.41	0.137
365.63	0.177
365.85	0.116
366.06	0.359
366.28	0.416
366.50	0.246
366.71	0.095
366.93	0.144
367.15	0.133
367.37	0.117
367.58	0.140
367.80	0.174
368.02	0.393
368.23	0.124
368.45	0.138
368.67	0.101
368.88	0.104
369.10	-0.000
369.32	0.077
369.53	0.029
369.75	0.059
369.97	0.135
370.19	0.060
370.40	0.043
370.62	0.098
370.84	0.053
371.05	0.284
371.27	0.092
371.49	0.116
371.70	0.150
371.92	0.265
372.14	0.109
372.35	0.123
372.57	0.145
372.79	0.355
373.00	0.086
373.22	0.119
373.44	0.095
373.65	0.077
373.87	0.108
374.09	0.441
374.30	0.118
374.52	0.137
374.74	0.098
374.95	0.436
375.17	0.131
375.39	-0.000
375.60	0.156
375.82	0.291
376.04	0.128
376.25	0.153
376.47	0.087
376.68	0.225
376.90	0.134
377.12	0.315
377.33	0.165
377.55	0.421
377.77	0.202
377.98	0.340
378.20	0.199
378.42	0.243
378.63	0.285
378.85	-0.000
379.07	0.179
379.28	0.752
379.50	0.414
379.71	0.193
379.93	0.130
380.15	0.180
380.36	0.246
380.58	0.161
380.80	0.445
381.01	0.163
381.23	0.133
381.44	0.147
381.66	0.183
381.88	0.213
382.09	-0.096
382.31	0.143
382.53	0.140
382.74	0.740
382.96	0.190
383.17	0.158
383.39	0.196
383.61	0.227
383.82	0.156
384.04	0.177
384.25	0.217
384.47	0.194
384.69	0.196
384.90	0.196
385.12	0.414
385.33	0.272
385.55	0.211
385.77	0.303
385.98	0.169
386.20	0.237
386.41	0.194
386.63	0.226
386.85	0.195
387.06	0.257
387.28	0.387
387.49	0.265
387.71	0.185
387.93	0.160
388.14	0.534
388.36	0.216
388.57	0.203
388.79	0.243
389.01	-0.000
389.22	0.283
389.44	0.236
389.65	0.197
389.87	0.189
390.08	0.226
390.30	0.183
390.52	0.373
390.73	0.387
390.95	0.278
391.16	0.271
391.38	-0.000
391.59	0.348
391.81	0.300
392.03	0.279
392.24	0.331
392.46	0.277
392.67	0.250
392.89	0.338
393.10	0.512
393.32	0.317
393.53	0.362
393.75	0.212
393.97	0.229
394.18	0.317
394.40	0.287
394.61	0.301
394.83	0.259
395.04	0.295
395.26	0.204
395.47	0.325
395.69	0.264
395.91	0.276
396.12	0.366
396.34	0.370
396.55	0.223
396.77	0.337
396.98	-0.000
397.20	0.405
397.41	0.450
397.63	0.309
397.84	0.269
398.06	0.255
398.27	0.260
398.49	0.306
398.71	0.222
398.92	0.273
399.14	0.327
399.35	0.419
399.57	0.396
399.78	0.279
400.00	0.282
400.21	0.359
400.43	0.292
400.64	0.308
400.86	0.677
401.07	0.370
401.29	0.320
401.50	0.343
401.72	0.487
401.93	0.308
402.15	0.385
402.36	0.342
402.58	0.286
402.79	0.311
403.01	0.547
403.22	0.413
403.44	0.277
403.65	0.457
403.87	0.517
404.08	0.407
404.30	0.713
404.51	0.354
404.73	0.448
404.94	0.385
405.16	0.389
405.37	0.298
405.59	0.552
405.80	0.327
406.02	0.394
406.23	0.395
406.45	0.427
406.66	0.452
406.88	0.303
407.09	0.451
407.31	0.361
407.52	0.462
407.74	0.369
407.95	0.437
408.17	0.415
408.38	0.440
408.60	0.292
408.81	0.506
409.03	0.375
409.24	0.385
409.45	0.454
409.67	0.432
409.88	0.381
410.10	0.511
410.31	0.421
410.53	0.402
410.74	0.567
410.96	0.542
411.17	0.588
411.39	0.441
411.60	0.390
411.82	0.438
412.03	0.419
412.24	0.406
412.46	0.579
412.67	0.478
412.89	0.469
413.10	0.468
413.32	0.443
413.53	0.491
413.75	0.510
413.96	0.386
414.17	0.532
414.39	0.540
414.60	0.436
414.82	0.570
415.03	0.435
415.25	0.478
415.46	0.338
415.68	0.455
415.89	0.866
416.10	0.689
416.32	0.377
416.53	0.441
416.75	0.415
416.96	0.507
417.18	0.440
417.39	0.422
417.60	0.424
417.82	0.606
418.03	0.526
418.25	0.437
418.46	0.446
418.67	0.416
418.89	0.439
419.10	0.452
419.32	0.612
419.53	0.565
419.75	0.482
419.96	0.428
420.17	0.535
420.39	0.510
420.60	0.525
420.82	0.662
421.03	0.510
421.24	0.434
421.46	0.488
421.67	0.525
421.89	0.450
422.10	0.483
422.31	0.472
422.53	0.653
422.74	0.494
422.96	0.396
423.17	0.440
423.38	0.554
423.60	0.464
423.81	0.576
424.03	0.497
424.24	0.551
424.45	0.544
424.67	0.547
424.88	0.493
425.09	0.525
425.31	0.490
425.52	0.525
425.74	0.589
425.95	0.653
426.16	0.501
426.38	0.575
426.59	0.529
426.80	0.609
427.02	0.638
427.23	0.495
427.45	0.651
427.66	0.630
427.87	0.491
428.09	0.524
428.30	0.574
428.51	0.561
428.73	0.619
428.94	0.551
429.15	0.539
429.37	0.515
429.58	0.548
429.79	0.509
430.01	0.620
430.22	0.615
430.44	0.623
430.65	0.568
430.86	0.616
431.08	0.589
431.29	0.538
431.50	0.645
431.72	0.878
431.93	0.698
432.14	0.519
432.36	0.564
432.57	0.562
432.78	0.583
433.00	0.529
433.21	0.523
433.42	0.663
433.64	0.573
433.85	0.647
434.06	0.522
434.28	0.549
434.49	0.571
434.70	0.582
434.92	0.605
435.13	0.648
435.34	0.655
435.56	0.619
435.77	0.613
435.98	0.819
436.20	0.677
436.41	0.590
436.62	0.578
436.83	0.650
437.05	0.745
437.26	0.647
437.47	0.582
437.69	0.639
437.90	0.587
438.11	0.584
438.33	0.623
438.54	0.647
438.75	0.837
438.97	0.819
439.18	0.612
439.39	0.641
439.60	0.692
439.82	0.640
440.03	0.590
440.24	0.883
440.46	0.646
440.67	0.620
440.88	0.664
441.10	0.622
441.31	0.620
441.52	0.672
441.73	0.744
441.95	0.663
442.16	0.607
442.37	0.976
442.58	0.598
442.80	0.582
443.01	0.765
443.22	0.689
443.44	0.579
443.65	0.685
443.86	0.681
444.07	0.733
444.29	0.627
444.50	0.798
444.71	0.604
444.92	0.559
445.14	0.708
445.35	0.742
445.56	0.592
445.78	0.700
445.99	0.697
446.20	0.603
446.41	0.680
446.63	0.687
446.84	0.652
447.05	0.654
447.26	0.787
447.48	0.673
447.69	0.641
447.90	0.732
448.11	0.643
448.33	0.668
448.54	0.684
448.75	0.719
448.96	0.725
449.18	0.765
449.39	0.688
449.60	0.672
449.81	0.808
450.03	0.701
450.24	0.761
450.45	0.727
450.66	0.710
450.87	0.752
451.09	0.694
451.30	0.668
451.51	0.747
451.72	0.757
451.94	0.777
452.15	0.849
452.36	0.701
452.57	0.723
452.78	0.723
453.00	0.763
453.21	0.712
453.42	0.686
453.63	0.797
453.85	0.756
454.06	0.743
454.27	0.874
454.48	0.774
454.69	0.702
454.91	0.768
455.12	0.667
455.33	0.741
455.54	0.756
455.75	0.728
455.97	0.748
456.18	0.743
456.39	0.756
456.60	0.783
456.81	0.719
457.03	0.730
457.24	0.733
457.45	0.822
457.66	0.772
457.87	0.730
458.09	0.749
458.30	0.663
458.51	0.782
458.72	0.802
458.93	0.816
459.15	0.719
459.36	0.782
459.57	0.802
459.78	0.852
459.99	0.759
460.20	0.723
460.42	0.808
460.63	0.768
460.84	0.752
461.05	0.770
461.26	0.834
461.47	0.748
461.69	0.806
461.90	0.847
462.11	0.797
462.32	0.864
462.53	0.796
462.74	0.895
462.96	0.770
463.17	0.758
463.38	0.804
463.59	0.913
463.80	0.763
464.01	0.780
464.23	0.866
464.44	0.828
464.65	0.829
464.86	0.850
465.07	0.856
465.28	0.821
465.49	0.850
465.71	0.802
465.92	0.849
466.13	0.896
466.34	0.830
466.55	0.892
466.76	0.849
466.97	0.877
467.19	0.868
467.40	0.911
467.61	0.914
467.82	0.824
468.03	0.805
468.24	0.869
468.45	0.906
468.66	0.885
468.88	0.889
469.09	0.891
469.30	0.936
469.51	0.863
469.72	0.906
469.93	0.873
470.14	0.848
470.35	0.942
470.57	0.891
470.78	0.831
470.99	0.969
471.20	0.901
471.41	0.853
471.62	0.909
471.83	0.874
472.04	0.906
472.25	0.952
472.47	0.865
472.68	0.871
472.89	0.878
473.10	0.917
473.31	0.867
473.52	0.929
473.73	0.960
473.94	0.871
474.15	0.899
474.36	0.897
474.57	0.920
474.79	0.892
475.00	0.887
475.21	0.869
475.42	0.964
475.63	0.867
475.84	0.897
476.05	0.902
476.26	0.877
476.47	0.909
476.68	0.959
476.89	0.888
477.10	0.940
477.32	0.931
477.53	0.990
477.74	0.901
477.95	0.944
478.16	0.894
478.37	0.937
478.58	0.942
478.79	0.957
479.00	0.954
479.21	0.912
479.42	0.953
479.63	0.958
479.84	0.921
480.05	0.923
480.26	0.948
480.47	0.968
480.69	0.969
480.90	0.935
481.11	0.934
481.32	0.995
481.53	0.933
481.74	0.986
481.95	0.954
482.16	0.968
482.37	0.977
482.58	0.942
482.79	0.960
483.00	0.990
483.21	0.935
483.42	0.903
483.63	0.981
483.84	1.005
484.05	0.994
484.26	0.963
484.47	0.962
484.68	0.924
484.89	0.932
485.10	0.983
485.31	0.961
485.52	0.965
485.73	0.969
485.94	1.010
486.15	0.958
486.37	0.974
486.58	0.937
486.79	0.950
487.00	1.000
487.21	0.991
487.42	0.980
487.63	0.986
487.84	1.001
488.05	0.998
488.26	0.955
488.47	0.962
488.68	0.991
488.89	0.967
489.10	0.961
489.31	0.970
489.52	1.004
489.73	0.975
489.94	1.013
490.15	0.974
490.36	1.015
490.57	0.970
490.78	0.957
490.99	0.996
491.20	1.078
491.41	1.032
491.62	0.974
491.83	1.001
492.04	0.997
492.25	1.005
492.45	1.005
492.66	1.027
492.87	1.014
493.08	1.003
493.29	0.984
493.50	0.974
493.71	0.982
493.92	0.979
494.13	0.996
494.34	1.015
494.55	1.019
494.76	1.048
494.97	1.041
495.18	1.005
495.39	1.019
495.60	0.970
495.81	0.971
496.02	0.992
496.23	0.985
496.44	1.018
496.65	1.009
496.86	1.015
497.07	1.038
497.28	1.035
497.49	0.986
497.70	0.989
497.91	1.010
498.12	0.993
498.32	1.037
498.53	1.020
498.74	1.009
498.95	1.036
499.16	0.992
499.37	0.996
499.58	1.003
499.79	1.029
500.00	1.023
500.21	1.053
500.42	0.996
500.63	0.996
500.84	1.016
501.05	0.994
501.26	1.019
501.46	1.057
501.67	1.021
501.88	1.027
502.09	1.004
502.30	1.011
502.51	1.059
502.72	1.016
502.93	1.033
503.14	1.055
503.35	1.027
503.56	1.023
503.77	1.055
503.97	1.030
504.18	1.027
504.39	1.062
504.60	1.032
504.81	1.061
505.02	1.050
505.23	1.050
505.44	1.030
505.65	1.038
505.86	1.019
506.07	1.085
506.27	1.044
506.48	1.049
506.69	1.032
506.90	1.053
507.11	1.051
507.32	1.026
507.53	1.033
507.74	1.026
507.95	1.039
508.15	1.048
508.36	1.053
508.57	1.062
508.78	1.045
508.99	1.046
509.20	1.017
509.41	1.039
509.62	1.027
509.82	1.024
510.03	1.033
510.24	1.030
510.45	1.048
510.66	1.039
510.87	1.036
511.08	0.999
511.29	1.040
511.49	1.020
511.70	1.065
511.91	1.003
512.12	1.000
512.33	1.035
512.54	1.054
512.75	1.037
512.95	1.062
513.16	1.053
513.37	1.028
513.58	1.064
513.79	1.027
514.00	1.032
514.20	1.048
514.41	1.036
514.62	1.005
514.83	1.042
515.04	1.033
515.25	1.015
515.46	1.026
515.66	1.028
515.87	1.041
516.08	1.010
516.29	1.037
516.50	1.017
516.71	1.012
516.91	1.022
517.12	1.039
517.33	1.024
517.54	1.010
517.75	1.014
517.95	1.027
518.16	1.036
518.37	1.005
518.58	1.009
518.79	0.984
519.00	1.015
519.20	1.023
519.41	0.997
519.62	1.017
519.83	1.025
520.04	0.990
520.24	0.987
520.45	0.998
520.66	1.021
520.87	0.984
521.08	0.984
521.28	0.986
521.49	1.003
521.70	0.973
521.91	0.986
522.12	0.970
522.32	0.992
522.53	0.975
522.74	0.964
522.95	0.973
523.16	0.975
523.36	0.983
523.57	0.966
523.78	0.959
523.99	0.964
524.20	0.958
524.40	0.968
524.61	0.974
524.82	0.947
525.03	0.952
525.23	0.952
525.44	0.936
525.65	0.936
525.86	0.959
526.06	0.931
526.27	0.932
526.48	0.940
526.69	0.923
526.90	0.927
527.10	0.963
527.31	0.919
527.52	0.913
527.73	0.907
527.93	0.915
528.14	0.919
528.35	0.910
528.56	0.912
528.76	0.906
528.97	0.897
529.18	0.889
529.39	0.888
529.59	0.889
529.80	0.919
530.01	0.892
530.22	0.892
530.42	0.862
530.63	0.878
530.84	0.855
531.05	0.868
531.25	0.871
531.46	0.862
531.67	0.841
531.88	0.860
532.08	0.853
532.29	0.849
532.50	0.842
532.70	0.836
532.91	0.826
533.12	0.830
533.33	0.855
533.53	0.826
533.74	0.826
533.95	0.832
534.15	0.820
534.36	0.821
534.57	0.803
534.78	0.804
534.98	0.814
535.19	0.785
535.40	0.785
535.60	0.802
535.81	0.782
536.02	0.786
536.23	0.777
536.43	0.779
536.64	0.766
536.85	0.775
537.05	0.785
537.26	0.762
537.47	0.765
537.67	0.755
537.88	0.750
538.09	0.757
538.30	0.746
538.50	0.738
538.71	0.749
538.92	0.735
539.12	0.731
539.33	0.726
539.54	0.726
539.74	0.729
539.95	0.720
540.16	0.717
540.36	0.708
540.57	0.708
540.78	0.701
540.98	0.700
541.19	0.698
541.40	0.686
541.60	0.695
541.81	0.690
542.02	0.690
542.22	0.680
542.43	0.676
542.64	0.672
542.84	0.671
543.05	0.662
543.26	0.662
543.46	0.666
543.67	0.664
543.88	0.660
544.08	0.649
544.29	0.643
544.50	0.643
544.70	0.644
544.91	0.634
545.12	0.635
545.32	0.630
545.53	0.633
545.74	0.621
545.94	0.618
546.15	0.615
546.35	0.612
546.56	0.609
546.77	0.606
546.97	0.603
547.18	0.596
547.39	0.597
547.59	0.595
547.80	0.590
548.01	0.595
548.21	0.591
548.42	0.583
548.62	0.583
548.83	0.581
549.04	0.577
549.24	0.571
549.45	0.570
549.65	0.566
549.86	0.562
550.07	0.562
550.27	0.559
550.48	0.566
550.69	0.552
550.89	0.551
551.10	0.548
551.30	0.546
551.51	0.545
551.72	0.535
551.92	0.537
552.13	0.537
552.33	0.537
552.54	0.532
552.75	0.525
552.95	0.527
553.16	0.522
553.36	0.520
553.57	0.517
553.78	0.515
553.98	0.515
554.19	0.506
554.39	0.503
554.60	0.505
554.80	0.505
555.01	0.497
555.22	0.499
555.42	0.496
555.63	0.490
555.83	0.494
556.04	0.487
556.25	0.489
556.45	0.481
556.66	0.479
556.86	0.483
557.07	0.480
557.27	0.478
557.48	0.472
557.68	0.469
557.89	0.470
558.10	0.466
558.30	0.464
558.51	0.462
558.71	0.460
558.92	0.455
559.12	0.456
559.33	0.459
559.54	0.454
559.74	0.450
559.95	0.448
560.15	0.448
560.36	0.446
560.56	0.440
560.77	0.440
560.97	0.440
561.18	0.434
561.38	0.433
561.59	0.436
561.79	0.432
562.00	0.430
562.21	0.427
562.41	0.426
562.62	0.426
562.82	0.424
563.03	0.421
563.23	0.420
563.44	0.420
563.64	0.416
563.85	0.418
564.05	0.411
564.26	0.410
564.46	0.409
564.67	0.408
564.87	0.404
565.08	0.400
565.28	0.400
565.49	0.402
565.69	0.399
565.90	0.395
566.10	0.398
566.31	0.391
566.51	0.393
566.72	0.394
566.92	0.388
567.13	0.387
567.33	0.386
567.54	0.384
567.74	0.383
567.95	0.379
568.15	0.380
568.36	0.380
568.56	0.378
568.77	0.373
568.97	0.372
569.18	0.372
569.38	0.370
569.59	0.371
569.79	0.368
570.00	0.366
570.20	0.365
570.41	0.363
570.61	0.361
570.82	0.363
571.02	0.360
571.23	0.362
571.43	0.358
571.64	0.356
571.84	0.355
572.05	0.354
572.25	0.353
572.45	0.352
572.66	0.349
572.86	0.348
573.07	0.346
573.27	0.345
573.48	0.344
573.68	0.340
573.89	0.339
574.09	0.339
574.30	0.337
574.50	0.335
574.70	0.335
574.91	0.333
575.11	0.333
575.32	0.333
575.52	0.330
575.73	0.329
575.93	0.329
576.14	0.328
576.34	0.327
576.54	0.326
576.75	0.324
576.95	0.324
577.16	0.321
577.36	0.320
577.57	0.319
577.77	0.317
577.97	0.314
578.18	0.316
578.38	0.313
578.59	0.311
578.79	0.310
579.00	0.310
579.20	0.309
579.40	0.308
579.61	0.308
579.81	0.307
580.02	0.305
580.22	0.304
580.42	0.303
580.63	0.303
580.83	0.302
581.04	0.300
581.24	0.299
581.45	0.298
581.65	0.297
581.85	0.296
582.06	0.294
582.26	0.293
582.47	0.291
582.67	0.291
582.87	0.290
583.08	0.288
583.28	0.288
583.48	0.286
583.69	0.283
583.89	0.284
584.10	0.285
584.30	0.282
584.50	0.281
584.71	0.281
584.91	0.280
585.12	0.278
585.32	0.279
585.52	0.277
585.73	0.276
585.93	0.275
586.13	0.274
586.34	0.273
586.54	0.273
586.75	0.271
586.95	0.269
587.15	0.270
587.36	0.269
587.56	0.267
587.76	0.266
587.97	0.265
588.17	0.264
588.37	0.264
588.58	0.263
588.78	0.261
588.98	0.262
589.19	0.261
589.39	0.259
589.60	0.260
589.80	0.258
590.00	0.257
590.21	0.257
590.41	0.255
590.61	0.255
590.82	0.255
591.02	0.253
591.22	0.252
591.43	0.253
591.63	0.251
591.83	0.250
592.04	0.249
592.24	0.250
592.44	0.247
592.65	0.247
592.85	0.246
593.05	0.247
593.26	0.246
593.46	0.245
593.66	0.244
593.86	0.244
594.07	0.242
594.27	0.242
594.47	0.240
594.68	0.239
594.88	0.240
595.08	0.239
595.29	0.239
595.49	0.237
595.69	0.236
595.90	0.235
596.10	0.235
596.30	0.234
596.50	0.233
596.71	0.233
596.91	0.232
597.11	0.231
597.32	0.231
597.52	0.230
597.72	0.230
597.93	0.229
598.13	0.227
598.33	0.228
598.53	0.227
598.74	0.226
598.94	0.226
599.14	0.226
599.35	0.226
599.55	0.226
599.75	0.225
599.95	0.223
600.16	0.224
600.36	0.223
600.56	0.223
600.76	0.222
600.97	0.220
601.17	0.220
601.37	0.220
601.58	0.219
601.78	0.219
601.98	0.218
602.18	0.216
602.39	0.216
602.59	0.216
602.79	0.215
602.99	0.215
603.20	0.213
603.40	0.214
603.60	0.213
603.80	0.213
604.01	0.213
604.21	0.212
604.41	0.212
604.61	0.211
604.82	0.210
605.02	0.211
605.22	0.210
605.42	0.210
605.62	0.210
605.83	0.208
606.03	0.207
606.23	0.208
606.43	0.207
606.64	0.207
606.84	0.206
607.04	0.206
607.24	0.206
607.45	0.206
607.65	0.205
607.85	0.205
608.05	0.203
608.25	0.203
608.46	0.202
608.66	0.202
608.86	0.201
609.06	0.200
609.26	0.199
609.47	0.200
609.67	0.198
609.87	0.199
610.07	0.198
610.28	0.197
610.48	0.197
610.68	0.198
610.88	0.196
611.08	0.197
611.29	0.196
611.49	0.195
611.69	0.196
611.89	0.194
612.09	0.194
612.29	0.193
612.50	0.193
612.70	0.193
612.90	0.191
613.10	0.191
613.30	0.190
613.51	0.191
613.71	0.190
613.91	0.194
614.11	0.189
614.31	0.189
614.51	0.188
614.72	0.187
614.92	0.187
615.12	0.187
615.32	0.187
615.52	0.186
615.72	0.187
615.93	0.186
616.13	0.186
616.33	0.186
616.53	0.186
616.73	0.186
616.93	0.185
617.14	0.185
617.34	0.185
617.54	0.185
617.74	0.185
617.94	0.184
618.14	0.184
618.34	0.183
618.55	0.183
618.75	0.183
618.95	0.183
619.15	0.183
619.35	0.182
619.55	0.181
619.75	0.182
619.96	0.181
620.16	0.181
620.36	0.181
620.56	0.180
620.76	0.180
620.96	0.179
621.16	0.179
621.36	0.179
621.57	0.179
621.77	0.179
621.97	0.178
622.17	0.178
622.37	0.178
622.57	0.178
622.77	0.177
622.97	0.176
623.18	0.176
623.38	0.177
623.58	0.176
623.78	0.176
623.98	0.175
624.18	0.175
624.38	0.174
624.58	0.174
624.78	0.174
624.98	0.174
625.19	0.174
625.39	0.174
625.59	0.173
625.79	0.173
625.99	0.173
626.19	0.173
626.39	0.172
626.59	0.172
626.79	0.172
626.99	0.172
627.19	0.171
627.40	0.171
627.60	0.171
627.80	0.171
628.00	0.171
628.20	0.170
628.40	0.170
628.60	0.170
628.80	0.169
629.00	0.169
629.20	0.169
629.40	0.169
629.60	0.168
629.80	0.168
630.00	0.168
630.20	0.168
630.41	0.167
630.61	0.167
630.81	0.166
631.01	0.166
631.21	0.165
631.41	0.165
631.61	0.166
631.81	0.165
632.01	0.164
632.21	0.165
632.41	0.163
632.61	0.163
632.81	0.163
633.01	0.164
633.21	0.164
633.41	0.164
633.61	0.163
633.81	0.163
634.01	0.162
634.21	0.163
634.41	0.162
634.61	0.162
634.81	0.162
635.01	0.161
635.22	0.161
635.42	0.161
635.62	0.161
635.82	0.161
636.02	0.161
636.22	0.160
636.42	0.159
636.62	0.160
636.82	0.159
637.02	0.159
637.22	0.159
637.42	0.159
637.62	0.157
637.82	0.158
638.02	0.157
638.22	0.157
638.42	0.157
638.62	0.156
638.82	0.156
639.02	0.156
639.22	0.156
639.42	0.156
639.62	0.156
639.82	0.155
640.02	0.155
640.22	0.155
640.42	0.155
640.62	0.155
640.82	0.155
641.02	0.154
641.22	0.154
641.42	0.153
641.61	0.153
641.81	0.154
642.01	0.154
642.21	0.154
642.41	0.154
642.61	0.154
642.81	0.153
643.01	0.153
643.21	0.153
643.41	0.153
643.61	0.153
643.81	0.152
644.01	0.151
644.21	0.150
644.41	0.151
644.61	0.150
644.81	0.151
645.01	0.150
645.21	0.150
645.41	0.150
645.61	0.150
645.81	0.149
646.01	0.149
646.21	0.149
646.40	0.149
646.60	0.149
646.80	0.149
647.00	0.148
647.20	0.147
647.40	0.147
647.60	0.147
647.80	0.147
648.00	0.147
648.20	0.147
648.40	0.147
648.60	0.147
648.80	0.147
649.00	0.146
649.20	0.147
649.39	0.146
649.59	0.146
649.79	0.145
649.99	0.145
650.19	0.145
650.39	0.144
650.59	0.144
650.79	0.144
650.99	0.143
651.19	0.143
651.39	0.143
651.58	0.142
651.78	0.142
651.98	0.142
652.18	0.142
652.38	0.141
652.58	0.141
652.78	0.141
652.98	0.141
653.18	0.141
653.38	0.141
653.57	0.141
653.77	0.141
653.97	0.141
654.17	0.141
654.37	0.140
654.57	0.140
654.77	0.140
654.97	0.140
655.16	0.140
655.36	0.139
655.56	0.139
655.76	0.138
655.96	0.138
656.16	0.137
656.36	0.137
656.56	0.136
656.75	0.136
656.95	0.136
657.15	0.136
657.35	0.136
657.55	0.135
657.75	0.136
657.95	0.136
658.14	0.136
658.34	0.136
658.54	0.135
658.74	0.135
658.94	0.135
659.14	0.134
659.34	0.134
659.53	0.134
659.73	0.134
659.93	0.133
660.13	0.133
660.33	0.133
660.53	0.133
660.72	0.134
660.92	0.133
661.12	0.133
661.32	0.133
661.52	0.132
661.72	0.132
661.91	0.132
662.11	0.132
662.31	0.132
662.51	0.132
662.71	0.131
662.90	0.130
663.10	0.130
663.30	0.130
663.50	0.130
663.70	0.130
663.90	0.130
664.09	0.129
664.29	0.129
664.49	0.128
664.69	0.128
664.89	0.128
665.08	0.127
665.28	0.126
665.48	0.126
665.68	0.126
665.88	0.126
666.07	0.125
666.27	0.126
666.47	0.125
666.67	0.126
666.87	0.126
667.06	0.126
667.26	0.125
667.46	0.125
667.66	0.125
667.85	0.126
668.05	0.126
668.25	0.126
668.45	0.125
668.65	0.125
668.84	0.125
669.04	0.124
669.24	0.124
669.44	0.123
669.63	0.123
669.83	0.123
670.03	0.122
670.23	0.121
670.42	0.121
670.62	0.121
670.82	0.120
671.02	0.120
671.22	0.120
671.41	0.119
671.61	0.120
671.81	0.120
672.01	0.120
672.20	0.119
672.40	0.119
672.60	0.119
672.80	0.119
672.99	0.119
673.19	0.118
673.39	0.118
673.58	0.118
673.78	0.118
673.98	0.118
674.18	0.118
674.37	0.117
674.57	0.117
674.77	0.117
674.97	0.117
675.16	0.117
675.36	0.116
675.56	0.116
675.75	0.116
675.95	0.115
676.15	0.116
676.35	0.115
676.54	0.115
676.74	0.115
676.94	0.116
677.13	0.115
677.33	0.114
677.53	0.115
677.73	0.115
677.92	0.114
678.12	0.114
678.32	0.114
678.51	0.114
678.71	0.114
678.91	0.114
679.11	0.113
679.30	0.113
679.50	0.113
679.70	0.112
679.89	0.112
680.09	0.113
680.29	0.112
680.48	0.112
680.68	0.112
680.88	0.112
681.07	0.112
681.27	0.111
681.47	0.111
681.66	0.111
681.86	0.110
682.06	0.110
682.25	0.110
682.45	0.110
682.65	0.110
682.84	0.109
683.04	0.109
683.24	0.108
683.43	0.109
683.63	0.108
683.83	0.108
684.02	0.108
684.22	0.108
684.42	0.108
684.61	0.108
684.81	0.108
685.01	0.108
685.20	0.108
685.40	0.108
685.60	0.108
685.79	0.108
685.99	0.108
686.19	0.107
686.38	0.107
686.58	0.107
686.77	0.107
686.97	0.107
687.17	0.107
687.36	0.106
687.56	0.106
687.76	0.106
687.95	0.106
688.15	0.106
688.34	0.106
688.54	0.105
688.74	0.105
688.93	0.105
689.13	0.104
689.33	0.105
689.52	0.104
689.72	0.104
689.91	0.104
690.11	0.103
690.31	0.103
690.50	0.103
690.70	0.103
690.89	0.103
691.09	0.102
691.29	0.103
691.48	0.102
691.68	0.102
691.87	0.102
692.07	0.103
692.27	0.102
692.46	0.103
692.66	0.102
692.85	0.102
693.05	0.102
693.25	0.101
693.44	0.101
693.64	0.101
693.83	0.101
694.03	0.100
694.22	0.099
694.42	0.099
694.62	0.099
694.81	0.099
695.01	0.100
695.20	0.099
695.40	0.099
695.59	0.099
695.79	0.099
695.99	0.099
696.18	0.099
696.38	0.099
696.57	0.099
696.77	0.098
696.96	0.099
697.16	0.098
697.36	0.098
697.55	0.098
697.75	0.098
697.94	0.098
698.14	0.098
698.33	0.097
698.53	0.097
698.72	0.097
698.92	0.097
699.11	0.097
699.31	0.097
699.51	0.097
699.70	0.096
699.90	0.096
700.09	0.096
700.29	0.096
700.48	0.096
700.68	0.096
700.87	0.096
701.07	0.095
701.26	0.095
701.46	0.095
701.65	0.095
701.85	0.095
702.04	0.095
702.24	0.094
702.43	0.094
702.63	0.094
702.82	0.094
703.02	0.094
703.21	0.094
703.41	0.094
703.60	0.094
703.80	0.093
703.99	0.093
704.19	0.094
704.38	0.094
704.58	0.093
704.77	0.093
704.97	0.092
705.16	0.092
705.36	0.092
705.55	0.092
705.75	0.092
705.94	0.092
706.14	0.092
706.33	0.091
706.53	0.091
706.72	0.092
706.92	0.091
707.11	0.091
707.31	0.091
707.50	0.091
707.70	0.091
707.89	0.091
708.09	0.091
708.28	0.091
708.48	0.091
708.67	0.091
708.86	0.091
709.06	0.091
709.25	0.091
709.45	0.091
709.64	0.091
709.84	0.091
710.03	0.090
710.23	0.090
710.42	0.090
710.62	0.090
710.81	0.090
711.00	0.090
711.20	0.090
711.39	0.089
711.59	0.089
711.78	0.089
711.98	0.089
712.17	0.089
712.37	0.089
712.56	0.089
712.75	0.090
712.95	0.090
713.14	0.090
713.34	0.090
713.53	0.090
713.73	0.090
713.92	0.090
714.11	0.090
714.31	0.090
714.50	0.089
714.70	0.089
714.89	0.089
715.08	0.089
715.28	0.089
715.47	0.088
715.67	0.088
715.86	0.088
716.06	0.089
716.25	0.088
716.44	0.088
716.64	0.088
716.83	0.088
717.03	0.088
717.22	0.087
717.41	0.087
717.61	0.087
717.80	0.088
717.99	0.088
718.19	0.088
718.38	0.088
718.58	0.087
718.77	0.087
718.96	0.087
719.16	0.087
719.35	0.087
719.55	0.087
719.74	0.087
719.93	0.087
720.13	0.087
720.32	0.086
720.51	0.086
720.71	0.086
720.90	0.086
721.10	0.086
721.29	0.086
721.48	0.086
721.68	0.086
721.87	0.086
722.06	0.086
722.26	0.086
722.45	0.086
722.64	0.086
722.84	0.086
723.03	0.086
723.22	0.086
723.42	0.087
723.61	0.087
723.80	0.087
724.00	0.087
724.19	0.087
724.38	0.087
724.58	0.087
724.77	0.086
724.96	0.086
725.16	0.086
725.35	0.086
725.54	0.086
725.74	0.086
725.93	0.086
726.12	0.086
726.32	0.086
726.51	0.086
726.70	0.086
726.90	0.086
727.09	0.086
727.28	0.086
727.48	0.086
727.67	0.085
727.86	0.086
728.06	0.086
728.25	0.086
728.44	0.086
728.64	0.086
728.83	0.086
729.02	0.086
729.21	0.086
729.41	0.086
729.60	0.086
729.79	0.086
729.99	0.086
730.18	0.086
730.37	0.086
730.56	0.085
730.76	0.085
730.95	0.086
731.14	0.086
731.34	0.085
731.53	0.086
731.72	0.086
731.91	0.086
732.11	0.086
732.30	0.086
732.49	0.086
732.69	0.086
732.88	0.086
733.07	0.086
733.26	0.087
733.46	0.086
733.65	0.087
733.84	0.086
734.03	0.086
734.23	0.086
734.42	0.086
734.61	0.086
734.80	0.086
735.00	0.086
735.19	0.085
735.38	0.086
735.57	0.086
735.77	0.086
735.96	0.086
736.15	0.086
736.34	0.085
736.54	0.086
736.73	0.085
736.92	0.086
737.11	0.086
737.31	0.086
737.50	0.086
737.69	0.086
737.88	0.086
738.07	0.086
738.27	0.086
738.46	0.086
738.65	0.086
738.84	0.086
739.04	0.086
739.23	0.086
739.42	0.086
739.61	0.086
739.80	0.086
740.00	0.086
740.19	0.086
740.38	0.086
740.57	0.086
740.76	0.086
740.96	0.086
741.15	0.085
741.34	0.085
741.53	0.086
741.72	0.085
741.92	0.085
742.11	0.085
742.30	0.085
742.49	0.085
742.68	0.085
742.88	0.085
743.07	0.085
743.26	0.085
743.45	0.085
743.64	0.084
743.84	0.084
744.03	0.084
744.22	0.084
744.41	0.084
744.60	0.084
744.79	0.084
744.99	0.084
745.18	0.084
745.37	0.083
745.56	0.083
745.75	0.083
745.94	0.083
746.14	0.083
746.33	0.083
746.52	0.084
746.71	0.083
746.90	0.083
747.09	0.083
747.28	0.082
747.48	0.083
747.67	0.083
747.86	0.083
748.05	0.083
748.24	0.082
748.43	0.082
748.62	0.082
748.82	0.082
749.01	0.082
749.20	0.082
749.39	0.082
749.58	0.082
749.77	0.082
749.96	0.082
750.16	0.082
750.35	0.082
750.54	0.082
750.73	0.082
750.92	0.082
751.11	0.082
751.30	0.082
751.49	0.082
751.68	0.082
751.88	0.082
752.07	0.082
752.26	0.082
752.45	0.082
752.64	0.081
752.83	0.082
753.02	0.082
753.21	0.082
753.40	0.081
753.60	0.082
753.79	0.082
753.98	0.082
754.17	0.081
754.36	0.081
754.55	0.081
754.74	0.081
754.93	0.081
755.12	0.081
755.31	0.081
755.50	0.081
755.70	0.081
755.89	0.080
756.08	0.080
756.27	0.080
756.46	0.080
756.65	0.080
756.84	0.080
757.03	0.080
757.22	0.079
757.41	0.079
757.60	0.079
757.79	0.080
757.98	0.080
758.17	0.080
758.36	0.080
758.56	0.080
758.75	0.080
758.94	0.080
759.13	0.079
759.32	0.079
759.51	0.079
759.70	0.079
759.89	0.079
760.08	0.079
760.27	0.079
760.46	0.079
760.65	0.079
760.84	0.080
761.03	0.079
761.22	0.080
761.41	0.080
761.60	0.080
761.79	0.079
761.98	0.079
762.17	0.079
762.36	0.079
762.55	0.078
762.74	0.078
762.93	0.078
763.12	0.078
763.31	0.078
763.50	0.077
763.69	0.078
763.88	0.078
764.07	0.077
764.26	0.078
764.45	0.078
764.64	0.078
764.83	0.078
765.02	0.078
765.21	0.078
765.40	0.078
765.59	0.078
765.78	0.078
765.97	0.079
766.16	0.079
766.35	0.079
766.54	0.078
766.73	0.078
766.92	0.078
767.11	0.078
767.30	0.078
767.49	0.078
767.68	0.078
767.87	0.077
768.06	0.077
768.25	0.077
768.44	0.077
768.63	0.077
768.82	0.077
769.01	0.077
769.20	0.077
769.39	0.077
769.58	0.077
769.77	0.077
769.96	0.077
770.15	0.077
770.34	0.077
770.53	0.077
770.72	0.076
770.91	0.076
771.10	0.076
771.29	0.076
771.47	0.076
771.66	0.076
771.85	0.076
772.04	0.076
772.23	0.076
772.42	0.076
772.61	0.076
772.80	0.076
772.99	0.076
773.18	0.076
773.37	0.076
773.56	0.075
773.75	0.076
773.94	0.076
774.13	0.075
774.31	0.076
774.50	0.075
774.69	0.075
774.88	0.075
775.07	0.075
775.26	0.075
775.45	0.074
775.64	0.075
775.83	0.075
776.02	0.074
776.21	0.074
776.40	0.074
776.58	0.074
776.77	0.074
776.96	0.075
777.15	0.075
777.34	0.075
777.53	0.075
777.72	0.075
777.91	0.076
778.10	0.076
778.28	0.075
778.47	0.076
778.66	0.075
778.85	0.075
779.04	0.075
779.23	0.075
779.42	0.075
779.61	0.075
779.79	0.074
779.98	0.074
780.17	0.074
780.36	0.074
780.55	0.073
780.74	0.073
780.93	0.073
781.12	0.073
781.30	0.074
781.49	0.074
781.68	0.074
781.87	0.074
782.06	0.073
782.25	0.073
782.44	0.073
782.62	0.073
782.81	0.074
783.00	0.074
783.19	0.074
783.38	0.073
783.57	0.073
783.75	0.073
783.94	0.073
784.13	0.073
784.32	0.073
784.51	0.073
784.70	0.073
784.88	0.073
785.07	0.073
785.26	0.072
785.45	0.073
785.64	0.072
785.83	0.073
786.01	0.072
786.20	0.072
786.39	0.072
786.58	0.072
786.77	0.072
786.95	0.072
787.14	0.072
787.33	0.072
787.52	0.072
787.71	0.072
787.90	0.072
788.08	0.072
788.27	0.072
788.46	0.072
788.65	0.072
788.84	0.072
789.02	0.072
789.21	0.073
789.40	0.072
789.59	0.073
789.77	0.073
789.96	0.073
790.15	0.073
790.34	0.073
790.53	0.073
790.71	0.072
790.90	0.072
791.09	0.072
791.28	0.072
791.46	0.073
791.65	0.072
791.84	0.072
792.03	0.072
792.22	0.072
792.40	0.072
792.59	0.072
792.78	0.072
792.97	0.072
793.15	0.072
793.34	0.072
793.53	0.071
793.72	0.071
793.90	0.071
794.09	0.071
794.28	0.071
794.47	0.071
794.65	0.071
794.84	0.071
795.03	0.071
795.22	0.071
795.40	0.071
795.59	0.070
795.78	0.071
795.97	0.071
796.15	0.071
796.34	0.071
796.53	0.071
796.71	0.071
796.90	0.071
797.09	0.072
797.28	0.072
797.46	0.072
797.65	0.072
797.84	0.072
798.02	0.072
798.21	0.071
798.40	0.071
798.59	0.071
798.77	0.071
798.96	0.071
799.15	0.070
799.33	0.070
799.52	0.070
799.71	0.070
799.90	0.070
800.08	0.070
800.27	0.070
800.46	0.070
800.64	0.070
800.83	0.070
801.02	0.070
801.20	0.070
801.39	0.070
801.58	0.070
801.76	0.070
801.95	0.070
802.14	0.070
802.32	0.070
802.51	0.070
802.70	0.070
802.88	0.069
803.07	0.069
803.26	0.069
803.44	0.068
803.63	0.069
803.82	0.069
804.00	0.069
804.19	0.069
804.38	0.069
804.56	0.069
804.75	0.069
804.94	0.069
805.12	0.069
805.31	0.070
805.50	0.070
805.68	0.070
805.87	0.070
806.06	0.070
806.24	0.070
806.43	0.070
806.62	0.070
806.80	0.070
806.99	0.070
807.17	0.070
807.36	0.070
807.55	0.070
807.73	0.070
807.92	0.070
808.11	0.070
808.29	0.069
808.48	0.069
808.66	0.069
808.85	0.069
809.04	0.069
809.22	0.068
809.41	0.068
809.59	0.068
809.78	0.068
809.97	0.068
810.15	0.068
810.34	0.068
810.53	0.068
810.71	0.068
810.90	0.068
811.08	0.068
811.27	0.068
811.45	0.068
811.64	0.068
811.83	0.068
812.01	0.068
812.20	0.068
812.38	0.069
812.57	0.069
812.76	0.069
812.94	0.069
813.13	0.069
813.31	0.069
813.50	0.069
813.68	0.069
813.87	0.068
814.06	0.068
814.24	0.068
814.43	0.068
814.61	0.068
814.80	0.068
814.98	0.069
815.17	0.069
815.36	0.068
815.54	0.069
815.73	0.069
815.91	0.069
816.10	0.069
816.28	0.069
816.47	0.069
816.65	0.069
816.84	0.069
817.03	0.069
817.21	0.069
817.40	0.070
817.58	0.069
817.77	0.069
817.95	0.069
818.14	0.069
818.32	0.069
818.51	0.069
818.69	0.069
818.88	0.069
819.06	0.069
819.25	0.069
819.43	0.069
819.62	0.069
819.80	0.069
819.99	0.069
820.18	0.069
820.36	0.069
820.55	0.069
820.73	0.069
820.92	0.069
821.10	0.069
821.29	0.069
821.47	0.069
821.66	0.069
821.84	0.069
822.03	0.069
822.21	0.069
822.40	0.069
822.58	0.069
822.77	0.069
822.95	0.069
823.14	0.069
823.32	0.069
823.50	0.069
823.69	0.069
823.87	0.070
824.06	0.070
824.24	0.070
824.43	0.070
824.61	0.070
824.80	0.071
824.98	0.071
825.17	0.071
825.35	0.071
825.54	0.071
825.72	0.071
825.91	0.071
826.09	0.071
826.28	0.071
826.46	0.071
826.64	0.071
826.83	0.071
827.01	0.071
827.20	0.071
827.38	0.071
827.57	0.071
827.75	0.071
827.94	0.071
828.12	0.072
828.31	0.071
828.49	0.071
828.67	0.072
828.86	0.072
829.04	0.072
829.23	0.072
829.41	0.072
829.60	0.072
829.78	0.073
829.96	0.073
830.15	0.073
830.33	0.073
830.52	0.073
830.70	0.074
830.88	0.073
831.07	0.074
831.25	0.074
831.44	0.074
831.62	0.073
831.81	0.073
831.99	0.073
832.17	0.073
832.36	0.073
832.54	0.074
832.73	0.074
832.91	0.074
833.09	0.073
833.28	0.074
833.46	0.074
833.65	0.074
833.83	0.075
834.01	0.075
834.20	0.075
834.38	0.075
834.56	0.075
834.75	0.075
834.93	0.075
835.12	0.075
835.30	0.075
835.48	0.075
835.67	0.075
835.85	0.074
836.03	0.075
836.22	0.075
836.40	0.075
836.59	0.075
836.77	0.075
836.95	0.075
837.14	0.075
837.32	0.075
837.50	0.075
837.69	0.075
837.87	0.075
838.05	0.075
838.24	0.075
838.42	0.075
838.60	0.075
838.79	0.076
838.97	0.075
839.15	0.076
839.34	0.076
839.52	0.076
839.70	0.076
839.89	0.076
840.07	0.076
840.25	0.077
840.44	0.076
840.62	0.076
840.80	0.076
840.99	0.077
841.17	0.076
841.35	0.076
841.54	0.076
841.72	0.076
841.90	0.076
842.09	0.076
842.27	0.076
842.45	0.076
842.64	0.076
842.82	0.077
843.00	0.077
843.19	0.077
843.37	0.076
843.55	0.077
843.73	0.077
843.92	0.076
844.10	0.076
844.28	0.076
844.47	0.076
844.65	0.076
844.83	0.076
845.01	0.076
845.20	0.076
845.38	0.076
845.56	0.076
845.75	0.076
845.93	0.076
846.11	0.076
846.29	0.077
846.48	0.077
846.66	0.077
846.84	0.076
847.02	0.076
847.21	0.076
847.39	0.077
847.57	0.076
847.76	0.077
847.94	0.077
848.12	0.076
848.30	0.077
848.49	0.077
848.67	0.076
848.85	0.077
849.03	0.077
849.22	0.077
849.40	0.077
849.58	0.078
849.76	0.078
849.95	0.078
850.13	0.078
850.31	0.078
850.49	0.078
850.67	0.079
850.86	0.078
851.04	0.078
851.22	0.078
851.40	0.078
851.59	0.078
851.77	0.078
851.95	0.078
852.13	0.078
852.31	0.077
852.50	0.078
852.68	0.078
852.86	0.077
853.04	0.078
853.23	0.078
853.41	0.078
853.59	0.077
853.77	0.077
853.95	0.077
854.14	0.077
854.32	0.077
854.50	0.077
854.68	0.077
854.86	0.077
855.04	0.077
855.23	0.077
855.41	0.078
855.59	0.078
855.77	0.078
855.95	0.078
856.14	0.078
856.32	0.078
856.50	0.078
856.68	0.078
856.86	0.078
857.04	0.078
857.23	0.078
857.41	0.077
857.59	0.077
857.77	0.077
857.95	0.077
858.13	0.076
858.32	0.077
858.50	0.077
858.68	0.077
858.86	0.077
859.04	0.077
859.22	0.077
859.41	0.077
859.59	0.077
859.77	0.077
859.95	0.077
860.13	0.077
860.31	0.077
860.49	0.077
860.68	0.077
860.86	0.077
861.04	0.077
861.22	0.077
861.40	0.077
861.58	0.077
861.76	0.077
861.94	0.078
862.13	0.078
862.31	0.078
862.49	0.078
862.67	0.078
862.85	0.078
863.03	0.078
863.21	0.078
863.39	0.078
863.57	0.079
863.76	0.079
863.94	0.079
864.12	0.079
864.30	0.079
864.48	0.079
864.66	0.079
864.84	0.079
865.02	0.079
865.20	0.079
865.38	0.079
865.57	0.079
865.75	0.079
865.93	0.079
866.11	0.079
866.29	0.080
866.47	0.080
866.65	0.080
866.83	0.080
867.01	0.080
867.19	0.080
867.37	0.080
867.55	0.080
867.73	0.080
867.92	0.079
868.10	0.080
868.28	0.080
868.46	0.080
868.64	0.079
868.82	0.079
869.00	0.079
869.18	0.080
869.36	0.080
869.54	0.080
869.72	0.080
869.90	0.080
870.08	0.080
870.26	0.080
870.44	0.080
870.62	0.080
870.80	0.080
870.98	0.080
871.16	0.080
871.34	0.080
871.53	0.080
871.71	0.080
871.89	0.080
872.07	0.080
872.25	0.080
872.43	0.080
872.61	0.080
872.79	0.080
872.97	0.080
873.15	0.080
873.33	0.081
873.51	0.081
873.69	0.081
873.87	0.081
874.05	0.081
874.23	0.080
874.41	0.081
874.59	0.081
874.77	0.081
874.95	0.081
875.13	0.082
875.31	0.081
875.49	0.082
875.67	0.082
875.85	0.081
876.03	0.082
876.21	0.082
876.39	0.082
876.57	0.082
876.75	0.082
876.93	0.082
877.11	0.082
877.29	0.082
877.47	0.082
877.65	0.082
877.82	0.082
878.00	0.082
878.18	0.082
878.36	0.082
878.54	0.082
878.72	0.082
878.90	0.082
879.08	0.082
879.26	0.082
879.44	0.082
879.62	0.082
879.80	0.082
879.98	0.082
880.16	0.082
880.34	0.082
880.52	0.082
880.70	0.082
880.88	0.082
881.06	0.082
881.24	0.082
881.42	0.082
881.59	0.081
881.77	0.081
881.95	0.081
882.13	0.082
882.31	0.081
882.49	0.081
882.67	0.082
882.85	0.081
883.03	0.081
883.21	0.082
883.39	0.081
883.57	0.082
883.75	0.082
883.92	0.082
884.10	0.082
884.28	0.082
884.46	0.082
884.64	0.082
884.82	0.083
885.00	0.083
885.18	0.083
885.36	0.083
885.54	0.083
885.71	0.084
885.89	0.084
886.07	0.084
886.25	0.084
886.43	0.084
886.61	0.084
886.79	0.084
886.97	0.084
887.15	0.084
887.32	0.083
887.50	0.084
887.68	0.084
887.86	0.084
888.04	0.084
888.22	0.084
888.40	0.084
888.57	0.084
888.75	0.083
888.93	0.084
889.11	0.084
889.29	0.084
889.47	0.084
889.65	0.084
889.82	0.084
890.00	0.085
890.18	0.084
890.36	0.084
890.54	0.085
890.72	0.085
890.90	0.085
891.07	0.085
891.25	0.085
891.43	0.084
891.61	0.085
891.79	0.085
891.97	0.084
892.14	0.084
892.32	0.084
892.50	0.084
892.68	0.084
892.86	0.085
893.03	0.085
893.21	0.085
893.39	0.085
893.57	0.085
893.75	0.085
893.93	0.085
894.10	0.085
894.28	0.085
894.46	0.085
894.64	0.085
894.82	0.085
894.99	0.085
895.17	0.085
895.35	0.085
895.53	0.085
895.71	0.085
895.88	0.085
896.06	0.085
896.24	0.085
896.42	0.085
896.59	0.085
896.77	0.085
896.95	0.085
897.13	0.085
897.31	0.085
897.48	0.085
897.66	0.086
897.84	0.085
898.02	0.085
898.19	0.085
898.37	0.085
898.55	0.086
898.73	0.086
898.91	0.086
899.08	0.086
899.26	0.086
899.44	0.086
899.62	0.086
899.79	0.086
899.97	0.087
900.15	0.086
900.33	0.087
900.50	0.087
900.68	0.087
900.86	0.087
901.04	0.087
901.21	0.087
901.39	0.087
901.57	0.087
901.74	0.087
901.92	0.087
902.10	0.087
902.28	0.087
902.45	0.087
902.63	0.086
902.81	0.086
902.99	0.087
903.16	0.087
903.34	0.087
903.52	0.087
903.69	0.087
903.87	0.087
904.05	0.088
904.22	0.088
904.40	0.088
904.58	0.088
904.76	0.088
904.93	0.088
905.11	0.088
905.29	0.088
905.46	0.088
905.64	0.088
905.82	0.088
905.99	0.088
906.17	0.088
906.35	0.088
906.53	0.089
906.70	0.089
906.88	0.089
907.06	0.089
907.23	0.090
907.41	0.090
907.59	0.090
907.76	0.090
907.94	0.090
908.12	0.090
908.29	0.090
908.47	0.090
908.65	0.091
908.82	0.091
909.00	0.090
909.18	0.091
909.35	0.090
909.53	0.090
909.71	0.090
909.88	0.090
910.06	0.090
910.23	0.090
910.41	0.090
910.59	0.089
910.76	0.089
910.94	0.089
911.12	0.089
911.29	0.089
911.47	0.089
911.65	0.090
911.82	0.090
912.00	0.090
912.17	0.091
912.35	0.091
912.53	0.091
912.70	0.092
912.88	0.092
913.06	0.092
913.23	0.092
913.41	0.093
913.58	0.093
913.76	0.093
913.94	0.092
914.11	0.093
914.29	0.093
914.46	0.093
914.64	0.093
914.82	0.093
914.99	0.093
915.17	0.093
915.34	0.093
915.52	0.093
915.70	0.093
915.87	0.093
916.05	0.093
916.22	0.093
916.40	0.093
916.57	0.093
916.75	0.094
916.93	0.094
917.10	0.093
917.28	0.094
917.45	0.093
917.63	0.093
917.80	0.093
917.98	0.093
918.16	0.094
918.33	0.094
918.51	0.094
918.68	0.094
918.86	0.095
919.03	0.095
919.21	0.095
919.39	0.095
919.56	0.096
919.74	0.096
919.91	0.096
920.09	0.096
920.26	0.096
920.44	0.097
920.61	0.097
920.79	0.097
920.96	0.097
921.14	0.098
921.31	0.098
921.49	0.098
921.67	0.098
921.84	0.099
922.02	0.099
922.19	0.099
922.37	0.100
922.54	0.100
922.72	0.100
922.89	0.101
923.07	0.101
923.24	0.101
923.42	0.102
923.59	0.102
923.77	0.102
923.94	0.102
924.12	0.103
924.29	0.103
924.47	0.103
924.64	0.103
924.82	0.103
924.99	0.103
925.17	0.104
925.34	0.104
925.52	0.104
925.69	0.104
925.87	0.105
926.04	0.105
926.22	0.105
926.39	0.105
926.57	0.106
926.74	0.106
926.91	0.107
927.09	0.107
927.26	0.107
927.44	0.107
927.61	0.108
927.79	0.108
927.96	0.109
928.14	0.109
928.31	0.109
928.49	0.109
928.66	0.110
928.84	0.110
929.01	0.111
929.18	0.111
929.36	0.112
929.53	0.112
929.71	0.112
929.88	0.113
930.06	0.113
930.23	0.114
930.41	0.114
930.58	0.115
930.75	0.115
930.93	0.116
931.10	0.115
931.28	0.116
931.45	0.116
931.63	0.116
931.80	0.116
931.97	0.117
932.15	0.117
932.32	0.118
932.50	0.118
932.67	0.119
932.84	0.119
933.02	0.121
933.19	0.121
933.37	0.122
933.54	0.122
933.71	0.123
933.89	0.124
934.06	0.124
934.24	0.124
934.41	0.124
934.58	0.125
934.76	0.125
934.93	0.125
935.11	0.126
935.28	0.126
935.45	0.126
935.63	0.127
935.80	0.127
935.98	0.128
936.15	0.128
936.32	0.129
936.50	0.129
936.67	0.130
936.84	0.130
937.02	0.131
937.19	0.132
937.36	0.133
937.54	0.133
937.71	0.134
937.89	0.134
938.06	0.134
938.23	0.134
938.41	0.135
938.58	0.135
938.75	0.136
938.93	0.137
939.10	0.137
939.27	0.137
939.45	0.138
939.62	0.138
939.79	0.139
939.97	0.140
940.14	0.141
940.31	0.141
940.49	0.142
940.66	0.142
940.83	0.143
941.01	0.143
941.18	0.144
941.35	0.144
941.53	0.145
941.70	0.146
941.87	0.147
942.05	0.148
942.22	0.149
942.39	0.150
942.57	0.150
942.74	0.151
942.91	0.151
943.08	0.152
943.26	0.152
943.43	0.153
943.60	0.153
943.78	0.153
943.95	0.155
944.12	0.155
944.29	0.156
944.47	0.156
944.64	0.157
944.81	0.158
944.99	0.159
945.16	0.159
945.33	0.160
945.50	0.162
945.68	0.163
945.85	0.163
946.02	0.164
946.20	0.165
946.37	0.166
946.54	0.167
946.71	0.168
946.89	0.168
947.06	0.169
947.23	0.169
947.40	0.171
947.58	0.171
947.75	0.172
947.92	0.172
948.09	0.173
948.27	0.174
948.44	0.175
948.61	0.177
948.78	0.177
948.96	0.179
949.13	0.180
949.30	0.181
949.47	0.182
949.65	0.183
949.82	0.185
949.99	0.185
950.16	0.187
950.33	0.188
950.51	0.189
950.68	0.190
950.85	0.191
951.02	0.193
951.20	0.193
951.37	0.194
951.54	0.195
951.71	0.197
951.88	0.198
952.06	0.199
952.23	0.199
952.40	0.200
952.57	0.202
952.74	0.203
952.92	0.203
953.09	0.206
953.26	0.207
953.43	0.208
953.60	0.209
953.77	0.210
953.95	0.211
954.12	0.213
954.29	0.214
954.46	0.217
954.63	0.218
954.81	0.219
954.98	0.219
955.15	0.221
955.32	0.222
955.49	0.222
955.66	0.224
955.84	0.225
956.01	0.225
956.18	0.228
956.35	0.229
956.52	0.229
956.69	0.231
956.87	0.231
957.04	0.232
957.21	0.234
957.38	0.234
957.55	0.235
957.72	0.236
957.89	0.238
958.07	0.237
958.24	0.240
958.41	0.241
958.58	0.241
958.75	0.242
958.92	0.243
959.09	0.243
959.26	0.244
959.44	0.245
959.61	0.246
959.78	0.247
959.95	0.248
960.12	0.249
960.29	0.251
960.46	0.250
960.63	0.251
960.81	0.251
960.98	0.252
961.15	0.253
961.32	0.253
961.49	0.253
961.66	0.254
961.83	0.254
962.00	0.254
962.17	0.255
962.34	0.254
962.52	0.255
962.69	0.256
962.86	0.255
963.03	0.256
963.20	0.257
963.37	0.257
963.54	0.257
963.71	0.257
963.88	0.257
964.05	0.258
964.22	0.259
964.39	0.258
964.56	0.258
964.74	0.259
964.91	0.259
965.08	0.259
965.25	0.260
965.42	0.260
965.59	0.261
965.76	0.261
965.93	0.262
966.10	0.260
966.27	0.261
966.44	0.261
966.61	0.263
966.78	0.262
966.95	0.261
967.12	0.262
967.29	0.264
967.46	0.263
967.63	0.263
967.80	0.264
967.97	0.264
968.14	0.263
968.32	0.264
968.49	0.264
968.66	0.263
968.83	0.264
969.00	0.264
969.17	0.264
969.34	0.265
969.51	0.266
969.68	0.264
969.85	0.265
970.02	0.265
970.19	0.265
970.36	0.265
970.53	0.265
970.70	0.263
970.87	0.264
971.04	0.263
971.21	0.264
971.38	0.264
971.55	0.264
971.72	0.264
971.89	0.265
972.06	0.264
972.23	0.264
972.40	0.265
972.57	0.263
972.74	0.264
972.91	0.265
973.07	0.265
973.24	0.265
973.41	0.265
973.58	0.264
973.75	0.276
973.92	0.264
974.09	0.263
974.26	0.263
974.43	0.263
974.60	0.264
974.77	0.264
974.94	0.263
975.11	0.264
975.28	0.266
975.45	0.264
975.62	0.265
975.79	0.266
975.96	0.264
976.13	0.263
976.30	0.265
976.47	0.263
976.64	0.263
976.80	0.264
976.97	0.263
977.14	0.263
977.31	0.262
977.48	0.263
977.65	0.263
977.82	0.262
977.99	0.263
978.16	0.263
978.33	0.263
978.50	0.262
978.67	0.262
978.83	0.262
979.00	0.262
979.17	0.262
979.34	0.261
979.51	0.261
979.68	0.261
979.85	0.260
980.02	0.261
980.19	0.259
980.36	0.261
980.52	0.262
980.69	0.260
980.86	0.261
981.03	0.261
981.20	0.259
981.37	0.260
981.54	0.260
981.71	0.260
981.88	0.261
982.04	0.260
982.21	0.259
982.38	0.260
982.55	0.259
982.72	0.258
982.89	0.259
983.06	0.258
983.22	0.258
983.39	0.259
983.56	0.257
983.73	0.256
983.90	0.255
984.07	0.257
984.24	0.256
984.40	0.255
984.57	0.254
984.74	0.256
984.91	0.257
985.08	0.254
985.25	0.252
985.41	0.253
985.58	0.254
985.75	0.255
985.92	0.254
986.09	0.253
986.26	0.253
986.42	0.252
986.59	0.251
986.76	0.252
986.93	0.253
987.10	0.253
987.27	0.250
987.43	0.249
987.60	0.251
987.77	0.251
987.94	0.250
988.11	0.251
988.27	0.251
988.44	0.250
988.61	0.248
988.78	0.246
988.95	0.247
989.11	0.249
989.28	0.247
989.45	0.246
989.62	0.245
989.79	0.246
989.95	0.244
990.12	0.245
990.29	0.245
990.46	0.243
990.62	0.241
990.79	0.241
990.96	0.241
991.13	0.241
991.30	0.240
991.46	0.239
991.63	0.238
991.80	0.237
991.97	0.237
992.13	0.238
992.30	0.239
992.47	0.238
992.64	0.238
992.80	0.238
992.97	0.239
993.14	0.237
993.31	0.234
993.47	0.236
993.64	0.234
993.81	0.234
993.98	0.234
994.14	0.233
994.31	0.232
994.48	0.234
994.64	0.234
994.81	0.232
994.98	0.233
995.15	0.231
995.31	0.231
995.48	0.231
995.65	0.234
995.82	0.230
995.98	0.230
996.15	0.231
996.32	0.231
996.48	0.230
996.65	0.229
996.82	0.227
996.99	0.227
997.15	0.227
997.32	0.228
997.49	0.226
997.65	0.227
997.82	0.226
997.99	0.224
998.15	0.225
998.32	0.226
998.49	0.225
998.65	0.225
998.82	0.224
998.99	0.223
999.15	0.223
999.32	0.222
999.49	0.222
999.65	0.222
999.82	0.220
999.99	0.220
1000.15	0.220
1000.32	0.221
1000.49	0.221
1000.65	0.219
1000.82	0.218
1000.99	0.219
1001.15	0.219
1001.32	0.219
1001.49	0.219
1001.65	0.219
1001.82	0.221
1001.99	0.217
1002.15	0.216
1002.32	0.216
1002.49	0.217
1002.65	0.215
1002.82	0.213
1002.99	0.213
1003.15	0.215
1003.32	0.214
1003.48	0.214
1003.65	0.213
1003.82	0.212
1003.98	0.209
1004.15	0.210
1004.32	0.210
1004.48	0.210
1004.65	0.211
1004.81	0.209
1004.98	0.207
1005.15	0.208
1005.31	0.208
1005.48	0.206
1005.64	0.206
1005.81	0.208
1005.98	0.204
1006.14	0.204
1006.31	0.204
1006.47	0.203
1006.64	0.202
1006.81	0.202
1006.97	0.202
1007.14	0.201
1007.30	0.202
1007.47	0.202
1007.63	0.200
1007.80	0.199
1007.97	0.199
1008.13	0.200
1008.30	0.200
1008.46	0.200
1008.63	0.198
1008.79	0.199
1008.96	0.199
1009.13	0.201
1009.29	0.199
1009.46	0.200
1009.62	0.199
1009.79	0.197
1009.95	0.197
1010.12	0.197
1010.28	0.197
1010.45	0.197
1010.62	0.196
1010.78	0.194
1010.95	0.192
1011.11	0.192
1011.28	0.191
1011.44	0.192
1011.61	0.191
1011.77	0.190
1011.94	0.190
1012.10	0.189
1012.27	0.190
1012.43	0.190
1012.60	0.188
1012.76	0.189
1012.93	0.188
1013.10	0.187
1013.26	0.184
1013.43	0.187
1013.59	0.194
1013.76	0.186
1013.92	0.185
1014.09	0.184
1014.25	0.185
1014.42	0.186
1014.58	0.185
1014.75	0.188
1014.91	0.186
1015.08	0.189
1015.24	0.185
1015.41	0.186
1015.57	0.186
1015.73	0.184
1015.90	0.182
1016.06	0.185
1016.23	0.182
1016.39	0.182
1016.56	0.183
1016.72	0.182
1016.89	0.181
1017.05	0.182
1017.22	0.178
1017.38	0.180
1017.55	0.178
1017.71	0.179
1017.88	0.178
1018.04	0.179
1018.21	0.176
1018.37	0.175
1018.53	0.175
1018.70	0.173
1018.86	0.173
1019.03	0.175
1019.19	0.173
1019.36	0.173
1019.52	0.174
1019.69	0.174
1019.85	0.173
1020.01	0.173
1020.18	0.172
1020.34	0.172
1020.51	0.172
1020.67	0.174
1020.84	0.172
1021.00	0.173
1021.16	0.171
1021.33	0.172
1021.49	0.171
1021.66	0.172
1021.82	0.170
1021.98	0.170
1022.15	0.169
1022.31	0.169
1022.48	0.167
1022.64	0.169
1022.80	0.168
1022.97	0.166
1023.13	0.165
1023.30	0.165
1023.46	0.165
1023.62	0.163
1023.79	0.165
1023.95	0.166
1024.12	0.164
1024.28	0.163
1024.44	0.163
1024.61	0.162
1024.77	0.161
1024.93	0.160
1025.10	0.162
1025.26	0.159
1025.43	0.160
1025.59	0.155
1025.75	0.159
1025.92	0.158
1026.08	0.157
1026.24	0.156
1026.41	0.158
1026.57	0.156
1026.73	0.154
1026.90	0.157
1027.06	0.155
1027.23	0.156
1027.39	0.156
1027.55	0.156
1027.72	0.155
1027.88	0.154
1028.04	0.155
1028.21	0.155
1028.37	0.150
1028.53	0.155
1028.70	0.153
1028.86	0.151
1029.02	0.152
1029.19	0.154
1029.35	0.151
1029.51	0.151
1029.67	0.150
1029.84	0.151
1030.00	0.146
1030.16	0.147
1030.33	0.150
1030.49	0.147
1030.65	0.144
1030.82	0.159
1030.98	0.146
1031.14	0.146
1031.31	0.147
1031.47	0.145
1031.63	0.148
1031.79	0.147
1031.96	0.148
1032.12	0.148
1032.28	0.146
1032.45	0.150
1032.61	0.149
1032.77	0.147
1032.93	0.144
1033.10	0.146
1033.26	0.148
1033.42	0.146
1033.58	0.147
1033.75	0.148
1033.91	0.146
1034.07	0.149
1034.24	0.147
1034.40	0.144
1034.56	0.145
1034.72	0.144
1034.89	0.144
1035.05	0.142
1035.21	0.142
1035.37	0.140
1035.54	0.143
1035.70	0.140
1035.86	0.139
1036.02	0.141
1036.19	0.139
1036.35	0.138
1036.51	0.143
1036.67	0.140
1036.83	0.139
1037.00	0.139
1037.16	0.139
1037.32	0.139
1037.48	0.139
1037.65	0.143
1037.81	0.138
1037.97	0.139
1038.13	0.138
1038.29	0.135
1038.46	0.133
1038.62	0.137
1038.78	0.134
1038.94	0.131
1039.10	0.135
1039.27	0.131
1039.43	0.132
1039.59	0.133
1039.75	0.132
1039.91	0.132
1040.08	0.131
1040.24	0.135
1040.40	0.137
1040.56	0.137
1040.72	0.133
1040.89	0.136
1041.05	0.138
1041.21	0.137
1041.37	0.134
1041.53	0.140
1041.69	0.138
1041.86	0.138
1042.02	0.133
1042.18	0.133
1042.34	0.133
1042.50	0.137
1042.66	0.133
1042.83	0.132
1042.99	0.135
1043.15	0.132
1043.31	0.132
1043.47	0.136
1043.63	0.131
1043.79	0.132
1043.96	0.133
1044.12	0.137
1044.28	0.132
1044.44	0.135
1044.60	0.129
1044.76	0.127
1044.92	0.128
1045.09	0.130
1045.25	0.127
1045.41	0.129
1045.57	0.125
1045.73	0.126
1045.89	0.128
1046.05	0.131
1046.21	0.128
1046.38	0.143
1046.54	0.141
1046.70	0.134
1046.86	0.134
>>>>>End Processed Spectral Data<<<<<
