SpectraSuite Data File
++++++++++++++++++++++++++++++++++++
Date: Mon May 20 12:12:41 CDT 2013
User: Students
Dark Spectrum Present: Yes
Reference Spectrum Present: Yes
Number of Sampled Component Spectra: 1
Spectrometers: USB4H00887
Integration Time (usec): 60000 (USB4H00887)
Spectra Averaged: 5 (USB4H00887)
Boxcar Smoothing: 5 (USB4H00887)
Correct for Electrical Dark: No (USB4H00887)
Strobe/Lamp Enabled: No (USB4H00887)
Correct for Detector Non-linearity: No (USB4H00887)
Correct for Stray Light: No (USB4H00887)
Number of Pixels in Processed Spectrum: 3648
>>>>>Begin Processed Spectral Data<<<<<
345.83	1.398
346.05	1.398
346.26	1.398
346.48	-0.000
346.70	-0.078
346.92	0.006
347.14	0.037
347.35	0.061
347.57	0.536
347.79	-0.264
348.01	-0.186
348.23	-0.346
348.44	-0.000
348.66	0.365
348.88	-0.443
349.10	-0.239
349.32	0.122
349.53	-0.052
349.75	-0.075
349.97	-0.049
350.19	-0.018
350.41	-0.021
350.62	0.102
350.84	-0.010
351.06	-0.006
351.28	-0.011
351.50	-0.114
351.71	-0.037
351.93	0.104
352.15	0.036
352.37	0.219
352.58	0.057
352.80	0.058
353.02	0.102
353.24	0.110
353.46	0.525
353.67	-0.152
353.89	0.062
354.11	0.056
354.33	0.052
354.54	0.070
354.76	0.093
354.98	0.126
355.20	0.144
355.41	0.041
355.63	0.058
355.85	0.042
356.07	0.357
356.28	0.059
356.50	0.091
356.72	0.023
356.94	0.068
357.15	0.120
357.37	-0.000
357.59	0.047
357.81	0.048
358.02	0.110
358.24	0.081
358.46	0.194
358.68	0.167
358.89	0.105
359.11	-0.000
359.33	0.079
359.55	-0.518
359.76	0.129
359.98	0.175
360.20	0.145
360.42	0.123
360.63	0.142
360.85	0.096
361.07	0.453
361.29	0.076
361.50	0.269
361.72	0.107
361.94	0.397
362.15	0.171
362.37	0.100
362.59	0.110
362.81	0.174
363.02	0.316
363.24	0.472
363.46	0.232
363.68	0.268
363.89	0.166
364.11	0.239
364.33	0.318
364.54	0.180
364.76	0.211
364.98	0.212
365.20	0.260
365.41	0.152
365.63	0.198
365.85	0.137
366.06	0.488
366.28	0.593
366.50	0.360
366.71	0.130
366.93	0.166
367.15	0.151
367.37	0.139
367.58	0.154
367.80	0.172
368.02	0.499
368.23	0.170
368.45	0.174
368.67	0.137
368.88	0.117
369.10	-0.000
369.32	0.128
369.53	0.072
369.75	0.136
369.97	0.388
370.19	0.202
370.40	0.084
370.62	0.223
370.84	0.089
371.05	0.547
371.27	0.142
371.49	0.177
371.70	0.182
371.92	0.282
372.14	0.111
372.35	0.122
372.57	0.134
372.79	0.295
373.00	0.077
373.22	0.120
373.44	0.105
373.65	0.089
373.87	0.110
374.09	0.303
374.30	0.090
374.52	0.099
374.74	0.063
374.95	0.261
375.17	0.112
375.39	-0.000
375.60	0.143
375.82	0.268
376.04	0.122
376.25	0.146
376.47	0.108
376.68	0.278
376.90	0.154
377.12	0.387
377.33	0.189
377.55	0.384
377.77	0.200
377.98	0.284
378.20	0.152
378.42	0.175
378.63	0.197
378.85	-0.000
379.07	0.132
379.28	0.452
379.50	0.267
379.71	0.134
379.93	0.098
380.15	0.124
380.36	0.186
380.58	0.122
380.80	0.332
381.01	0.132
381.23	0.107
381.44	0.120
381.66	0.154
381.88	0.193
382.09	-0.085
382.31	0.130
382.53	0.128
382.74	0.645
382.96	0.181
383.17	0.149
383.39	0.185
383.61	0.259
383.82	0.180
384.04	0.204
384.25	0.260
384.47	0.250
384.69	0.254
384.90	0.257
385.12	0.567
385.33	0.356
385.55	0.271
385.77	0.453
385.98	0.210
386.20	0.290
386.41	0.258
386.63	0.289
386.85	0.236
387.06	0.281
387.28	0.395
387.49	0.252
387.71	0.199
387.93	0.169
388.14	0.523
388.36	0.223
388.57	0.207
388.79	0.221
389.01	-0.000
389.22	0.297
389.44	0.264
389.65	0.218
389.87	0.221
390.08	0.250
390.30	0.210
390.52	0.421
390.73	0.414
390.95	0.274
391.16	0.268
391.38	-0.000
391.59	0.295
391.81	0.236
392.03	0.223
392.24	0.265
392.46	0.226
392.67	0.186
392.89	0.256
393.10	0.402
393.32	0.271
393.53	0.309
393.75	0.195
393.97	0.218
394.18	0.314
394.40	0.288
394.61	0.291
394.83	0.248
395.04	0.307
395.26	0.216
395.47	0.319
395.69	0.272
395.91	0.281
396.12	0.337
396.34	0.353
396.55	0.228
396.77	0.342
396.98	-0.000
397.20	0.421
397.41	0.490
397.63	0.310
397.84	0.278
398.06	0.270
398.27	0.300
398.49	0.356
398.71	0.244
398.92	0.297
399.14	0.382
399.35	0.491
399.57	0.446
399.78	0.297
400.00	0.289
400.21	0.371
400.43	0.288
400.64	0.296
400.86	0.630
401.07	0.361
401.29	0.305
401.50	0.321
401.72	0.443
401.93	0.295
402.15	0.338
402.36	0.309
402.58	0.254
402.79	0.282
403.01	0.473
403.22	0.374
403.44	0.256
403.65	0.419
403.87	0.472
404.08	0.370
404.30	0.612
404.51	0.330
404.73	0.405
404.94	0.347
405.16	0.370
405.37	0.282
405.59	0.517
405.80	0.320
406.02	0.392
406.23	0.390
406.45	0.438
406.66	0.468
406.88	0.307
407.09	0.476
407.31	0.380
407.52	0.461
407.74	0.373
407.95	0.449
408.17	0.412
408.38	0.438
408.60	0.291
408.81	0.502
409.03	0.371
409.24	0.377
409.45	0.453
409.67	0.427
409.88	0.378
410.10	0.490
410.31	0.413
410.53	0.400
410.74	0.559
410.96	0.548
411.17	0.572
411.39	0.435
411.60	0.404
411.82	0.462
412.03	0.457
412.24	0.427
412.46	0.629
412.67	0.489
412.89	0.484
413.10	0.478
413.32	0.432
413.53	0.498
413.75	0.509
413.96	0.384
414.17	0.507
414.39	0.503
414.60	0.420
414.82	0.560
415.03	0.446
415.25	0.501
415.46	0.347
415.68	0.496
415.89	0.998
416.10	0.749
416.32	0.396
416.53	0.462
416.75	0.433
416.96	0.544
417.18	0.461
417.39	0.437
417.60	0.435
417.82	0.651
418.03	0.558
418.25	0.457
418.46	0.487
418.67	0.443
418.89	0.483
419.10	0.501
419.32	0.680
419.53	0.615
419.75	0.527
419.96	0.455
420.17	0.549
420.39	0.521
420.60	0.540
420.82	0.671
421.03	0.540
421.24	0.453
421.46	0.506
421.67	0.553
421.89	0.474
422.10	0.504
422.31	0.508
422.53	0.761
422.74	0.540
422.96	0.430
423.17	0.476
423.38	0.586
423.60	0.486
423.81	0.618
424.03	0.509
424.24	0.560
424.45	0.563
424.67	0.555
424.88	0.499
425.09	0.533
425.31	0.486
425.52	0.516
425.74	0.569
425.95	0.638
426.16	0.498
426.38	0.587
426.59	0.540
426.80	0.616
427.02	0.649
427.23	0.499
427.45	0.661
427.66	0.663
427.87	0.509
428.09	0.544
428.30	0.595
428.51	0.573
428.73	0.636
428.94	0.572
429.15	0.560
429.37	0.535
429.58	0.565
429.79	0.522
430.01	0.625
430.22	0.604
430.44	0.626
430.65	0.562
430.86	0.607
431.08	0.588
431.29	0.530
431.50	0.634
431.72	0.846
431.93	0.676
432.14	0.507
432.36	0.549
432.57	0.569
432.78	0.597
433.00	0.542
433.21	0.536
433.42	0.667
433.64	0.594
433.85	0.669
434.06	0.550
434.28	0.570
434.49	0.589
434.70	0.614
434.92	0.631
435.13	0.666
435.34	0.679
435.56	0.639
435.77	0.635
435.98	0.808
436.20	0.669
436.41	0.568
436.62	0.563
436.83	0.646
437.05	0.721
437.26	0.631
437.47	0.562
437.69	0.612
437.90	0.559
438.11	0.547
438.33	0.609
438.54	0.630
438.75	0.807
438.97	0.794
439.18	0.590
439.39	0.626
439.60	0.678
439.82	0.636
440.03	0.586
440.24	0.879
440.46	0.657
440.67	0.622
440.88	0.667
441.10	0.619
441.31	0.617
441.52	0.671
441.73	0.748
441.95	0.662
442.16	0.610
442.37	0.990
442.58	0.597
442.80	0.582
443.01	0.755
443.22	0.689
443.44	0.588
443.65	0.700
443.86	0.694
444.07	0.749
444.29	0.639
444.50	0.819
444.71	0.615
444.92	0.590
445.14	0.754
445.35	0.810
445.56	0.631
445.78	0.752
445.99	0.743
446.20	0.640
446.41	0.718
446.63	0.725
446.84	0.679
447.05	0.689
447.26	0.827
447.48	0.695
447.69	0.653
447.90	0.745
448.11	0.660
448.33	0.689
448.54	0.699
448.75	0.732
448.96	0.746
449.18	0.793
449.39	0.700
449.60	0.677
449.81	0.814
450.03	0.698
450.24	0.754
450.45	0.706
450.66	0.688
450.87	0.724
451.09	0.673
451.30	0.645
451.51	0.717
451.72	0.726
451.94	0.743
452.15	0.812
452.36	0.687
452.57	0.702
452.78	0.698
453.00	0.728
453.21	0.691
453.42	0.672
453.63	0.773
453.85	0.733
454.06	0.724
454.27	0.863
454.48	0.762
454.69	0.684
454.91	0.758
455.12	0.666
455.33	0.746
455.54	0.757
455.75	0.726
455.97	0.751
456.18	0.739
456.39	0.752
456.60	0.771
456.81	0.712
457.03	0.730
457.24	0.727
457.45	0.816
457.66	0.766
457.87	0.727
458.09	0.745
458.30	0.659
458.51	0.781
458.72	0.797
458.93	0.816
459.15	0.720
459.36	0.785
459.57	0.813
459.78	0.863
459.99	0.768
460.20	0.727
460.42	0.809
460.63	0.766
460.84	0.752
461.05	0.774
461.26	0.828
461.47	0.748
461.69	0.795
461.90	0.830
462.11	0.783
462.32	0.841
462.53	0.781
462.74	0.880
462.96	0.761
463.17	0.750
463.38	0.795
463.59	0.901
463.80	0.748
464.01	0.775
464.23	0.859
464.44	0.817
464.65	0.821
464.86	0.841
465.07	0.846
465.28	0.806
465.49	0.829
465.71	0.777
465.92	0.819
466.13	0.869
466.34	0.802
466.55	0.854
466.76	0.820
466.97	0.849
467.19	0.838
467.40	0.877
467.61	0.883
467.82	0.800
468.03	0.783
468.24	0.852
468.45	0.880
468.66	0.863
468.88	0.867
469.09	0.866
469.30	0.913
469.51	0.840
469.72	0.876
469.93	0.848
470.14	0.829
470.35	0.921
470.57	0.866
470.78	0.813
470.99	0.942
471.20	0.887
471.41	0.843
471.62	0.893
471.83	0.866
472.04	0.901
472.25	0.949
472.47	0.862
472.68	0.868
472.89	0.876
473.10	0.914
473.31	0.864
473.52	0.924
473.73	0.948
473.94	0.871
474.15	0.898
474.36	0.900
474.57	0.919
474.79	0.896
475.00	0.896
475.21	0.881
475.42	0.979
475.63	0.879
475.84	0.910
476.05	0.917
476.26	0.885
476.47	0.917
476.68	0.962
476.89	0.891
477.10	0.942
477.32	0.928
477.53	0.986
477.74	0.897
477.95	0.942
478.16	0.892
478.37	0.933
478.58	0.935
478.79	0.947
479.00	0.947
479.21	0.908
479.42	0.947
479.63	0.948
479.84	0.912
480.05	0.914
480.26	0.937
480.47	0.955
480.69	0.959
480.90	0.929
481.11	0.926
481.32	0.984
481.53	0.924
481.74	0.975
481.95	0.945
482.16	0.957
482.37	0.965
482.58	0.934
482.79	0.953
483.00	0.982
483.21	0.925
483.42	0.897
483.63	0.974
483.84	0.998
484.05	0.989
484.26	0.958
484.47	0.959
484.68	0.920
484.89	0.924
485.10	0.972
485.31	0.950
485.52	0.956
485.73	0.960
485.94	1.000
486.15	0.951
486.37	0.966
486.58	0.933
486.79	0.944
487.00	0.997
487.21	0.987
487.42	0.979
487.63	0.985
487.84	1.003
488.05	0.997
488.26	0.958
488.47	0.964
488.68	0.992
488.89	0.969
489.10	0.966
489.31	0.976
489.52	1.013
489.73	0.981
489.94	1.015
490.15	0.974
490.36	1.015
490.57	0.966
490.78	0.948
490.99	0.987
491.20	1.063
491.41	1.017
491.62	0.960
491.83	0.987
492.04	0.983
492.25	0.994
492.45	0.991
492.66	1.019
492.87	1.005
493.08	0.996
493.29	0.978
493.50	0.969
493.71	0.975
493.92	0.973
494.13	0.989
494.34	1.008
494.55	1.015
494.76	1.046
494.97	1.034
495.18	1.001
495.39	1.015
495.60	0.967
495.81	0.970
496.02	0.994
496.23	0.986
496.44	1.017
496.65	1.009
496.86	1.012
497.07	1.037
497.28	1.033
497.49	0.983
497.70	0.982
497.91	1.002
498.12	0.984
498.32	1.026
498.53	1.009
498.74	0.998
498.95	1.023
499.16	0.979
499.37	0.983
499.58	0.992
499.79	1.018
500.00	1.018
500.21	1.048
500.42	0.993
500.63	0.989
500.84	1.009
501.05	0.988
501.26	1.011
501.46	1.052
501.67	1.016
501.88	1.019
502.09	0.997
502.30	1.004
502.51	1.052
502.72	1.009
502.93	1.027
503.14	1.051
503.35	1.022
503.56	1.016
503.77	1.048
503.97	1.025
504.18	1.024
504.39	1.062
504.60	1.030
504.81	1.057
505.02	1.045
505.23	1.047
505.44	1.027
505.65	1.036
505.86	1.018
506.07	1.082
506.27	1.041
506.48	1.045
506.69	1.029
506.90	1.051
507.11	1.046
507.32	1.021
507.53	1.028
507.74	1.019
507.95	1.032
508.15	1.039
508.36	1.042
508.57	1.053
508.78	1.039
508.99	1.036
509.20	1.010
509.41	1.035
509.62	1.026
509.82	1.023
510.03	1.034
510.24	1.030
510.45	1.053
510.66	1.046
510.87	1.042
511.08	1.001
511.29	1.043
511.49	1.021
511.70	1.071
511.91	1.003
512.12	1.002
512.33	1.036
512.54	1.053
512.75	1.036
512.95	1.061
513.16	1.053
513.37	1.029
513.58	1.064
513.79	1.025
514.00	1.029
514.20	1.047
514.41	1.035
514.62	1.003
514.83	1.042
515.04	1.031
515.25	1.012
515.46	1.023
515.66	1.026
515.87	1.039
516.08	1.010
516.29	1.033
516.50	1.014
516.71	1.008
516.91	1.018
517.12	1.037
517.33	1.023
517.54	1.010
517.75	1.012
517.95	1.025
518.16	1.036
518.37	1.004
518.58	1.013
518.79	0.987
519.00	1.018
519.20	1.026
519.41	0.997
519.62	1.019
519.83	1.028
520.04	0.992
520.24	0.991
520.45	1.001
520.66	1.026
520.87	0.986
521.08	0.983
521.28	0.986
521.49	1.001
521.70	0.972
521.91	0.983
522.12	0.967
522.32	0.989
522.53	0.970
522.74	0.960
522.95	0.968
523.16	0.972
523.36	0.983
523.57	0.967
523.78	0.962
523.99	0.968
524.20	0.961
524.40	0.973
524.61	0.979
524.82	0.952
525.03	0.953
525.23	0.956
525.44	0.939
525.65	0.935
525.86	0.957
526.06	0.930
526.27	0.930
526.48	0.940
526.69	0.921
526.90	0.924
527.10	0.958
527.31	0.916
527.52	0.909
527.73	0.902
527.93	0.913
528.14	0.919
528.35	0.909
528.56	0.911
528.76	0.905
528.97	0.894
529.18	0.885
529.39	0.885
529.59	0.887
529.80	0.918
530.01	0.891
530.22	0.890
530.42	0.858
530.63	0.875
530.84	0.852
531.05	0.864
531.25	0.868
531.46	0.862
531.67	0.841
531.88	0.859
532.08	0.853
532.29	0.848
532.50	0.841
532.70	0.835
532.91	0.824
533.12	0.827
533.33	0.852
533.53	0.822
533.74	0.822
533.95	0.828
534.15	0.817
534.36	0.818
534.57	0.802
534.78	0.803
534.98	0.813
535.19	0.784
535.40	0.786
535.60	0.804
535.81	0.785
536.02	0.787
536.23	0.778
536.43	0.781
536.64	0.769
536.85	0.776
537.05	0.784
537.26	0.761
537.47	0.765
537.67	0.755
537.88	0.749
538.09	0.755
538.30	0.746
538.50	0.737
538.71	0.748
538.92	0.734
539.12	0.730
539.33	0.726
539.54	0.727
539.74	0.730
539.95	0.720
540.16	0.718
540.36	0.710
540.57	0.707
540.78	0.700
540.98	0.699
541.19	0.697
541.40	0.685
541.60	0.693
541.81	0.689
542.02	0.689
542.22	0.679
542.43	0.673
542.64	0.668
542.84	0.669
543.05	0.660
543.26	0.660
543.46	0.662
543.67	0.661
543.88	0.657
544.08	0.646
544.29	0.640
544.50	0.641
544.70	0.641
544.91	0.633
545.12	0.635
545.32	0.630
545.53	0.634
545.74	0.624
545.94	0.620
546.15	0.618
546.35	0.616
546.56	0.613
546.77	0.609
546.97	0.606
547.18	0.598
547.39	0.598
547.59	0.596
547.80	0.592
548.01	0.596
548.21	0.591
548.42	0.583
548.62	0.582
548.83	0.580
549.04	0.576
549.24	0.571
549.45	0.570
549.65	0.567
549.86	0.561
550.07	0.560
550.27	0.558
550.48	0.565
550.69	0.552
550.89	0.552
551.10	0.548
551.30	0.546
551.51	0.545
551.72	0.535
551.92	0.536
552.13	0.536
552.33	0.537
552.54	0.531
552.75	0.525
552.95	0.526
553.16	0.521
553.36	0.519
553.57	0.516
553.78	0.515
553.98	0.515
554.19	0.506
554.39	0.502
554.60	0.505
554.80	0.504
555.01	0.496
555.22	0.498
555.42	0.494
555.63	0.489
555.83	0.492
556.04	0.487
556.25	0.488
556.45	0.480
556.66	0.479
556.86	0.482
557.07	0.480
557.27	0.480
557.48	0.475
557.68	0.473
557.89	0.473
558.10	0.470
558.30	0.466
558.51	0.464
558.71	0.462
558.92	0.457
559.12	0.459
559.33	0.462
559.54	0.456
559.74	0.452
559.95	0.449
560.15	0.449
560.36	0.447
560.56	0.442
560.77	0.443
560.97	0.443
561.18	0.438
561.38	0.437
561.59	0.439
561.79	0.435
562.00	0.433
562.21	0.429
562.41	0.427
562.62	0.426
562.82	0.424
563.03	0.420
563.23	0.419
563.44	0.419
563.64	0.416
563.85	0.417
564.05	0.410
564.26	0.410
564.46	0.409
564.67	0.410
564.87	0.406
565.08	0.402
565.28	0.402
565.49	0.402
565.69	0.400
565.90	0.396
566.10	0.399
566.31	0.392
566.51	0.394
566.72	0.395
566.92	0.388
567.13	0.387
567.33	0.387
567.54	0.385
567.74	0.385
567.95	0.381
568.15	0.381
568.36	0.381
568.56	0.380
568.77	0.375
568.97	0.373
569.18	0.373
569.38	0.372
569.59	0.372
569.79	0.370
570.00	0.367
570.20	0.366
570.41	0.363
570.61	0.361
570.82	0.362
571.02	0.358
571.23	0.360
571.43	0.356
571.64	0.355
571.84	0.355
572.05	0.353
572.25	0.352
572.45	0.350
572.66	0.348
572.86	0.347
573.07	0.346
573.27	0.346
573.48	0.344
573.68	0.340
573.89	0.340
574.09	0.340
574.30	0.338
574.50	0.337
574.70	0.338
574.91	0.335
575.11	0.335
575.32	0.335
575.52	0.331
575.73	0.331
575.93	0.331
576.14	0.330
576.34	0.328
576.54	0.327
576.75	0.324
576.95	0.323
577.16	0.321
577.36	0.319
577.57	0.319
577.77	0.318
577.97	0.315
578.18	0.316
578.38	0.313
578.59	0.311
578.79	0.309
579.00	0.310
579.20	0.308
579.40	0.307
579.61	0.307
579.81	0.306
580.02	0.304
580.22	0.303
580.42	0.301
580.63	0.302
580.83	0.301
581.04	0.299
581.24	0.298
581.45	0.296
581.65	0.297
581.85	0.296
582.06	0.293
582.26	0.293
582.47	0.292
582.67	0.292
582.87	0.291
583.08	0.289
583.28	0.289
583.48	0.288
583.69	0.285
583.89	0.285
584.10	0.285
584.30	0.283
584.50	0.281
584.71	0.280
584.91	0.280
585.12	0.278
585.32	0.279
585.52	0.276
585.73	0.276
585.93	0.275
586.13	0.274
586.34	0.273
586.54	0.273
586.75	0.271
586.95	0.271
587.15	0.271
587.36	0.269
587.56	0.269
587.76	0.267
587.97	0.266
588.17	0.264
588.37	0.264
588.58	0.265
588.78	0.262
588.98	0.263
589.19	0.261
589.39	0.259
589.60	0.261
589.80	0.258
590.00	0.257
590.21	0.257
590.41	0.256
590.61	0.256
590.82	0.255
591.02	0.255
591.22	0.253
591.43	0.254
591.63	0.252
591.83	0.251
592.04	0.249
592.24	0.250
592.44	0.247
592.65	0.246
592.85	0.246
593.05	0.246
593.26	0.244
593.46	0.243
593.66	0.243
593.86	0.243
594.07	0.242
594.27	0.242
594.47	0.241
594.68	0.241
594.88	0.241
595.08	0.240
595.29	0.240
595.49	0.238
595.69	0.237
595.90	0.236
596.10	0.236
596.30	0.235
596.50	0.234
596.71	0.234
596.91	0.233
597.11	0.232
597.32	0.232
597.52	0.231
597.72	0.230
597.93	0.229
598.13	0.228
598.33	0.228
598.53	0.227
598.74	0.226
598.94	0.226
599.14	0.225
599.35	0.225
599.55	0.225
599.75	0.224
599.95	0.223
600.16	0.223
600.36	0.221
600.56	0.221
600.76	0.221
600.97	0.219
601.17	0.219
601.37	0.219
601.58	0.218
601.78	0.218
601.98	0.217
602.18	0.216
602.39	0.216
602.59	0.216
602.79	0.215
602.99	0.214
603.20	0.213
603.40	0.213
603.60	0.213
603.80	0.212
604.01	0.211
604.21	0.211
604.41	0.210
604.61	0.209
604.82	0.209
605.02	0.209
605.22	0.208
605.42	0.208
605.62	0.208
605.83	0.207
606.03	0.206
606.23	0.206
606.43	0.206
606.64	0.205
606.84	0.205
607.04	0.204
607.24	0.204
607.45	0.204
607.65	0.203
607.85	0.203
608.05	0.202
608.25	0.201
608.46	0.201
608.66	0.201
608.86	0.201
609.06	0.200
609.26	0.199
609.47	0.200
609.67	0.199
609.87	0.199
610.07	0.199
610.28	0.197
610.48	0.197
610.68	0.197
610.88	0.196
611.08	0.196
611.29	0.195
611.49	0.194
611.69	0.195
611.89	0.193
612.09	0.193
612.29	0.193
612.50	0.192
612.70	0.192
612.90	0.191
613.10	0.191
613.30	0.191
613.51	0.191
613.71	0.190
613.91	0.194
614.11	0.189
614.31	0.189
614.51	0.188
614.72	0.188
614.92	0.187
615.12	0.187
615.32	0.188
615.52	0.187
615.72	0.187
615.93	0.187
616.13	0.186
616.33	0.185
616.53	0.185
616.73	0.185
616.93	0.184
617.14	0.184
617.34	0.184
617.54	0.184
617.74	0.183
617.94	0.182
618.14	0.182
618.34	0.181
618.55	0.181
618.75	0.182
618.95	0.182
619.15	0.182
619.35	0.181
619.55	0.180
619.75	0.181
619.96	0.180
620.16	0.180
620.36	0.180
620.56	0.180
620.76	0.179
620.96	0.179
621.16	0.179
621.36	0.179
621.57	0.179
621.77	0.179
621.97	0.178
622.17	0.178
622.37	0.178
622.57	0.178
622.77	0.177
622.97	0.176
623.18	0.176
623.38	0.177
623.58	0.176
623.78	0.176
623.98	0.175
624.18	0.174
624.38	0.173
624.58	0.173
624.78	0.173
624.98	0.173
625.19	0.173
625.39	0.173
625.59	0.172
625.79	0.171
625.99	0.171
626.19	0.171
626.39	0.171
626.59	0.171
626.79	0.171
626.99	0.171
627.19	0.170
627.40	0.171
627.60	0.170
627.80	0.170
628.00	0.170
628.20	0.169
628.40	0.169
628.60	0.169
628.80	0.168
629.00	0.168
629.20	0.167
629.40	0.167
629.60	0.166
629.80	0.166
630.00	0.167
630.20	0.166
630.41	0.165
630.61	0.165
630.81	0.165
631.01	0.166
631.21	0.165
631.41	0.165
631.61	0.165
631.81	0.165
632.01	0.164
632.21	0.165
632.41	0.164
632.61	0.164
632.81	0.164
633.01	0.164
633.21	0.164
633.41	0.164
633.61	0.163
633.81	0.163
634.01	0.162
634.21	0.162
634.41	0.161
634.61	0.162
634.81	0.161
635.01	0.160
635.22	0.161
635.42	0.161
635.62	0.161
635.82	0.161
636.02	0.160
636.22	0.160
636.42	0.159
636.62	0.159
636.82	0.159
637.02	0.159
637.22	0.159
637.42	0.158
637.62	0.157
637.82	0.157
638.02	0.157
638.22	0.156
638.42	0.156
638.62	0.156
638.82	0.156
639.02	0.155
639.22	0.155
639.42	0.154
639.62	0.154
639.82	0.154
640.02	0.154
640.22	0.154
640.42	0.154
640.62	0.154
640.82	0.154
641.02	0.154
641.22	0.154
641.42	0.153
641.61	0.154
641.81	0.154
642.01	0.153
642.21	0.153
642.41	0.152
642.61	0.152
642.81	0.151
643.01	0.151
643.21	0.151
643.41	0.151
643.61	0.150
643.81	0.150
644.01	0.149
644.21	0.148
644.41	0.149
644.61	0.149
644.81	0.150
645.01	0.150
645.21	0.149
645.41	0.148
645.61	0.148
645.81	0.148
646.01	0.148
646.21	0.148
646.40	0.148
646.60	0.148
646.80	0.148
647.00	0.147
647.20	0.146
647.40	0.146
647.60	0.146
647.80	0.146
648.00	0.145
648.20	0.145
648.40	0.145
648.60	0.144
648.80	0.144
649.00	0.144
649.20	0.145
649.39	0.144
649.59	0.144
649.79	0.144
649.99	0.144
650.19	0.143
650.39	0.143
650.59	0.143
650.79	0.143
650.99	0.143
651.19	0.142
651.39	0.142
651.58	0.142
651.78	0.142
651.98	0.142
652.18	0.142
652.38	0.141
652.58	0.142
652.78	0.141
652.98	0.141
653.18	0.141
653.38	0.141
653.57	0.141
653.77	0.141
653.97	0.140
654.17	0.140
654.37	0.139
654.57	0.139
654.77	0.139
654.97	0.139
655.16	0.138
655.36	0.138
655.56	0.138
655.76	0.137
655.96	0.138
656.16	0.137
656.36	0.137
656.56	0.136
656.75	0.136
656.95	0.136
657.15	0.136
657.35	0.136
657.55	0.136
657.75	0.136
657.95	0.136
658.14	0.136
658.34	0.136
658.54	0.136
658.74	0.135
658.94	0.135
659.14	0.135
659.34	0.135
659.53	0.134
659.73	0.133
659.93	0.133
660.13	0.132
660.33	0.132
660.53	0.132
660.72	0.132
660.92	0.132
661.12	0.131
661.32	0.131
661.52	0.131
661.72	0.131
661.91	0.130
662.11	0.131
662.31	0.130
662.51	0.131
662.71	0.130
662.90	0.130
663.10	0.129
663.30	0.129
663.50	0.129
663.70	0.129
663.90	0.129
664.09	0.129
664.29	0.128
664.49	0.127
664.69	0.127
664.89	0.127
665.08	0.127
665.28	0.126
665.48	0.126
665.68	0.125
665.88	0.126
666.07	0.125
666.27	0.125
666.47	0.125
666.67	0.125
666.87	0.125
667.06	0.124
667.26	0.124
667.46	0.124
667.66	0.124
667.85	0.124
668.05	0.124
668.25	0.124
668.45	0.124
668.65	0.124
668.84	0.124
669.04	0.124
669.24	0.124
669.44	0.123
669.63	0.123
669.83	0.123
670.03	0.122
670.23	0.121
670.42	0.121
670.62	0.120
670.82	0.120
671.02	0.120
671.22	0.119
671.41	0.118
671.61	0.119
671.81	0.119
672.01	0.119
672.20	0.119
672.40	0.119
672.60	0.119
672.80	0.119
672.99	0.119
673.19	0.118
673.39	0.118
673.58	0.117
673.78	0.117
673.98	0.117
674.18	0.117
674.37	0.116
674.57	0.116
674.77	0.116
674.97	0.116
675.16	0.116
675.36	0.116
675.56	0.116
675.75	0.116
675.95	0.115
676.15	0.115
676.35	0.115
676.54	0.115
676.74	0.115
676.94	0.115
677.13	0.115
677.33	0.114
677.53	0.114
677.73	0.114
677.92	0.113
678.12	0.113
678.32	0.113
678.51	0.113
678.71	0.113
678.91	0.112
679.11	0.112
679.30	0.112
679.50	0.112
679.70	0.111
679.89	0.111
680.09	0.111
680.29	0.111
680.48	0.111
680.68	0.111
680.88	0.111
681.07	0.111
681.27	0.111
681.47	0.111
681.66	0.110
681.86	0.110
682.06	0.110
682.25	0.110
682.45	0.110
682.65	0.110
682.84	0.109
683.04	0.109
683.24	0.108
683.43	0.109
683.63	0.108
683.83	0.108
684.02	0.108
684.22	0.107
684.42	0.107
684.61	0.107
684.81	0.107
685.01	0.107
685.20	0.107
685.40	0.107
685.60	0.107
685.79	0.107
685.99	0.107
686.19	0.107
686.38	0.107
686.58	0.107
686.77	0.107
686.97	0.106
687.17	0.106
687.36	0.106
687.56	0.106
687.76	0.105
687.95	0.105
688.15	0.105
688.34	0.105
688.54	0.104
688.74	0.104
688.93	0.104
689.13	0.104
689.33	0.104
689.52	0.103
689.72	0.103
689.91	0.103
690.11	0.102
690.31	0.102
690.50	0.102
690.70	0.102
690.89	0.101
691.09	0.101
691.29	0.101
691.48	0.101
691.68	0.101
691.87	0.101
692.07	0.101
692.27	0.101
692.46	0.101
692.66	0.101
692.85	0.100
693.05	0.100
693.25	0.101
693.44	0.100
693.64	0.100
693.83	0.100
694.03	0.099
694.22	0.099
694.42	0.099
694.62	0.099
694.81	0.099
695.01	0.099
695.20	0.099
695.40	0.098
695.59	0.098
695.79	0.098
695.99	0.098
696.18	0.098
696.38	0.098
696.57	0.098
696.77	0.098
696.96	0.098
697.16	0.097
697.36	0.097
697.55	0.097
697.75	0.097
697.94	0.097
698.14	0.097
698.33	0.097
698.53	0.097
698.72	0.097
698.92	0.097
699.11	0.097
699.31	0.097
699.51	0.097
699.70	0.097
699.90	0.097
700.09	0.096
700.29	0.096
700.48	0.096
700.68	0.096
700.87	0.096
701.07	0.095
701.26	0.095
701.46	0.095
701.65	0.094
701.85	0.094
702.04	0.094
702.24	0.094
702.43	0.094
702.63	0.093
702.82	0.093
703.02	0.093
703.21	0.093
703.41	0.093
703.60	0.092
703.80	0.092
703.99	0.092
704.19	0.093
704.38	0.092
704.58	0.092
704.77	0.092
704.97	0.092
705.16	0.092
705.36	0.092
705.55	0.092
705.75	0.092
705.94	0.092
706.14	0.092
706.33	0.092
706.53	0.092
706.72	0.092
706.92	0.091
707.11	0.092
707.31	0.091
707.50	0.091
707.70	0.091
707.89	0.091
708.09	0.091
708.28	0.091
708.48	0.091
708.67	0.091
708.86	0.091
709.06	0.091
709.25	0.090
709.45	0.090
709.64	0.090
709.84	0.090
710.03	0.089
710.23	0.089
710.42	0.089
710.62	0.089
710.81	0.089
711.00	0.089
711.20	0.089
711.39	0.088
711.59	0.088
711.78	0.088
711.98	0.088
712.17	0.089
712.37	0.088
712.56	0.089
712.75	0.089
712.95	0.089
713.14	0.089
713.34	0.089
713.53	0.089
713.73	0.089
713.92	0.089
714.11	0.089
714.31	0.089
714.50	0.089
714.70	0.089
714.89	0.089
715.08	0.089
715.28	0.088
715.47	0.088
715.67	0.088
715.86	0.088
716.06	0.088
716.25	0.088
716.44	0.087
716.64	0.088
716.83	0.088
717.03	0.088
717.22	0.087
717.41	0.088
717.61	0.087
717.80	0.088
717.99	0.088
718.19	0.088
718.38	0.088
718.58	0.088
718.77	0.087
718.96	0.087
719.16	0.087
719.35	0.087
719.55	0.087
719.74	0.086
719.93	0.086
720.13	0.086
720.32	0.085
720.51	0.086
720.71	0.086
720.90	0.086
721.10	0.086
721.29	0.086
721.48	0.086
721.68	0.086
721.87	0.086
722.06	0.085
722.26	0.086
722.45	0.086
722.64	0.086
722.84	0.086
723.03	0.086
723.22	0.086
723.42	0.086
723.61	0.086
723.80	0.086
724.00	0.086
724.19	0.086
724.38	0.086
724.58	0.085
724.77	0.085
724.96	0.085
725.16	0.085
725.35	0.085
725.54	0.085
725.74	0.085
725.93	0.085
726.12	0.085
726.32	0.085
726.51	0.085
726.70	0.085
726.90	0.086
727.09	0.085
727.28	0.086
727.48	0.086
727.67	0.085
727.86	0.086
728.06	0.086
728.25	0.086
728.44	0.085
728.64	0.085
728.83	0.085
729.02	0.085
729.21	0.086
729.41	0.085
729.60	0.085
729.79	0.085
729.99	0.084
730.18	0.085
730.37	0.085
730.56	0.085
730.76	0.085
730.95	0.085
731.14	0.085
731.34	0.085
731.53	0.085
731.72	0.085
731.91	0.086
732.11	0.085
732.30	0.086
732.49	0.086
732.69	0.086
732.88	0.085
733.07	0.085
733.26	0.086
733.46	0.085
733.65	0.085
733.84	0.085
734.03	0.085
734.23	0.085
734.42	0.085
734.61	0.085
734.80	0.085
735.00	0.085
735.19	0.085
735.38	0.085
735.57	0.085
735.77	0.085
735.96	0.085
736.15	0.085
736.34	0.085
736.54	0.085
736.73	0.085
736.92	0.085
737.11	0.085
737.31	0.084
737.50	0.085
737.69	0.085
737.88	0.085
738.07	0.085
738.27	0.085
738.46	0.085
738.65	0.085
738.84	0.085
739.04	0.085
739.23	0.085
739.42	0.085
739.61	0.085
739.80	0.085
740.00	0.085
740.19	0.085
740.38	0.085
740.57	0.084
740.76	0.084
740.96	0.084
741.15	0.084
741.34	0.084
741.53	0.084
741.72	0.084
741.92	0.084
742.11	0.084
742.30	0.084
742.49	0.084
742.68	0.084
742.88	0.084
743.07	0.084
743.26	0.084
743.45	0.084
743.64	0.084
743.84	0.084
744.03	0.084
744.22	0.084
744.41	0.083
744.60	0.083
744.79	0.083
744.99	0.083
745.18	0.083
745.37	0.083
745.56	0.083
745.75	0.083
745.94	0.083
746.14	0.083
746.33	0.083
746.52	0.084
746.71	0.083
746.90	0.083
747.09	0.083
747.28	0.083
747.48	0.083
747.67	0.083
747.86	0.082
748.05	0.083
748.24	0.082
748.43	0.083
748.62	0.082
748.82	0.082
749.01	0.082
749.20	0.081
749.39	0.081
749.58	0.082
749.77	0.082
749.96	0.082
750.16	0.082
750.35	0.082
750.54	0.081
750.73	0.082
750.92	0.082
751.11	0.082
751.30	0.082
751.49	0.082
751.68	0.081
751.88	0.081
752.07	0.081
752.26	0.082
752.45	0.081
752.64	0.081
752.83	0.081
753.02	0.081
753.21	0.081
753.40	0.081
753.60	0.081
753.79	0.081
753.98	0.081
754.17	0.080
754.36	0.080
754.55	0.080
754.74	0.081
754.93	0.080
755.12	0.080
755.31	0.080
755.50	0.080
755.70	0.080
755.89	0.080
756.08	0.080
756.27	0.080
756.46	0.080
756.65	0.080
756.84	0.079
757.03	0.079
757.22	0.079
757.41	0.079
757.60	0.079
757.79	0.079
757.98	0.080
758.17	0.080
758.36	0.080
758.56	0.079
758.75	0.079
758.94	0.079
759.13	0.079
759.32	0.079
759.51	0.079
759.70	0.079
759.89	0.079
760.08	0.079
760.27	0.079
760.46	0.079
760.65	0.079
760.84	0.079
761.03	0.079
761.22	0.079
761.41	0.079
761.60	0.078
761.79	0.078
761.98	0.078
762.17	0.078
762.36	0.077
762.55	0.077
762.74	0.077
762.93	0.077
763.12	0.077
763.31	0.077
763.50	0.076
763.69	0.077
763.88	0.077
764.07	0.077
764.26	0.077
764.45	0.077
764.64	0.077
764.83	0.077
765.02	0.077
765.21	0.077
765.40	0.077
765.59	0.077
765.78	0.077
765.97	0.077
766.16	0.078
766.35	0.077
766.54	0.078
766.73	0.077
766.92	0.077
767.11	0.077
767.30	0.077
767.49	0.077
767.68	0.077
767.87	0.077
768.06	0.077
768.25	0.076
768.44	0.077
768.63	0.076
768.82	0.076
769.01	0.076
769.20	0.076
769.39	0.076
769.58	0.076
769.77	0.076
769.96	0.076
770.15	0.076
770.34	0.076
770.53	0.076
770.72	0.076
770.91	0.075
771.10	0.076
771.29	0.075
771.47	0.075
771.66	0.075
771.85	0.075
772.04	0.075
772.23	0.075
772.42	0.075
772.61	0.075
772.80	0.076
772.99	0.076
773.18	0.075
773.37	0.076
773.56	0.076
773.75	0.076
773.94	0.076
774.13	0.075
774.31	0.075
774.50	0.075
774.69	0.075
774.88	0.075
775.07	0.075
775.26	0.075
775.45	0.075
775.64	0.075
775.83	0.075
776.02	0.075
776.21	0.075
776.40	0.076
776.58	0.075
776.77	0.075
776.96	0.075
777.15	0.075
777.34	0.075
777.53	0.075
777.72	0.075
777.91	0.075
778.10	0.075
778.28	0.074
778.47	0.074
778.66	0.074
778.85	0.073
779.04	0.073
779.23	0.073
779.42	0.073
779.61	0.073
779.79	0.073
779.98	0.073
780.17	0.073
780.36	0.073
780.55	0.073
780.74	0.073
780.93	0.073
781.12	0.073
781.30	0.073
781.49	0.073
781.68	0.073
781.87	0.073
782.06	0.073
782.25	0.073
782.44	0.073
782.62	0.073
782.81	0.074
783.00	0.074
783.19	0.074
783.38	0.073
783.57	0.073
783.75	0.073
783.94	0.073
784.13	0.073
784.32	0.073
784.51	0.072
784.70	0.073
784.88	0.072
785.07	0.072
785.26	0.072
785.45	0.072
785.64	0.072
785.83	0.072
786.01	0.072
786.20	0.072
786.39	0.073
786.58	0.073
786.77	0.072
786.95	0.072
787.14	0.073
787.33	0.073
787.52	0.073
787.71	0.073
787.90	0.073
788.08	0.073
788.27	0.073
788.46	0.072
788.65	0.072
788.84	0.073
789.02	0.073
789.21	0.072
789.40	0.072
789.59	0.072
789.77	0.072
789.96	0.072
790.15	0.072
790.34	0.072
790.53	0.072
790.71	0.072
790.90	0.072
791.09	0.071
791.28	0.072
791.46	0.072
791.65	0.072
791.84	0.072
792.03	0.072
792.22	0.071
792.40	0.071
792.59	0.071
792.78	0.071
792.97	0.072
793.15	0.072
793.34	0.071
793.53	0.072
793.72	0.071
793.90	0.071
794.09	0.071
794.28	0.071
794.47	0.071
794.65	0.071
794.84	0.070
795.03	0.071
795.22	0.071
795.40	0.071
795.59	0.070
795.78	0.071
795.97	0.071
796.15	0.072
796.34	0.071
796.53	0.072
796.71	0.072
796.90	0.072
797.09	0.072
797.28	0.072
797.46	0.072
797.65	0.072
797.84	0.072
798.02	0.072
798.21	0.071
798.40	0.071
798.59	0.071
798.77	0.070
798.96	0.070
799.15	0.070
799.33	0.070
799.52	0.069
799.71	0.069
799.90	0.069
800.08	0.069
800.27	0.069
800.46	0.069
800.64	0.069
800.83	0.069
801.02	0.069
801.20	0.069
801.39	0.069
801.58	0.069
801.76	0.069
801.95	0.069
802.14	0.069
802.32	0.069
802.51	0.070
802.70	0.069
802.88	0.069
803.07	0.069
803.26	0.069
803.44	0.068
803.63	0.069
803.82	0.068
804.00	0.068
804.19	0.068
804.38	0.068
804.56	0.068
804.75	0.068
804.94	0.068
805.12	0.069
805.31	0.069
805.50	0.069
805.68	0.069
805.87	0.070
806.06	0.069
806.24	0.069
806.43	0.069
806.62	0.070
806.80	0.070
806.99	0.069
807.17	0.069
807.36	0.069
807.55	0.069
807.73	0.069
807.92	0.069
808.11	0.069
808.29	0.069
808.48	0.069
808.66	0.069
808.85	0.068
809.04	0.068
809.22	0.068
809.41	0.068
809.59	0.068
809.78	0.068
809.97	0.068
810.15	0.068
810.34	0.068
810.53	0.068
810.71	0.068
810.90	0.068
811.08	0.068
811.27	0.068
811.45	0.068
811.64	0.068
811.83	0.069
812.01	0.068
812.20	0.068
812.38	0.068
812.57	0.068
812.76	0.068
812.94	0.068
813.13	0.068
813.31	0.069
813.50	0.069
813.68	0.069
813.87	0.068
814.06	0.068
814.24	0.068
814.43	0.068
814.61	0.068
814.80	0.068
814.98	0.069
815.17	0.068
815.36	0.069
815.54	0.068
815.73	0.068
815.91	0.068
816.10	0.068
816.28	0.068
816.47	0.068
816.65	0.068
816.84	0.068
817.03	0.068
817.21	0.069
817.40	0.069
817.58	0.068
817.77	0.069
817.95	0.069
818.14	0.069
818.32	0.069
818.51	0.069
818.69	0.069
818.88	0.069
819.06	0.069
819.25	0.069
819.43	0.069
819.62	0.069
819.80	0.068
819.99	0.069
820.18	0.069
820.36	0.068
820.55	0.069
820.73	0.069
820.92	0.069
821.10	0.069
821.29	0.069
821.47	0.069
821.66	0.069
821.84	0.069
822.03	0.069
822.21	0.068
822.40	0.068
822.58	0.068
822.77	0.068
822.95	0.069
823.14	0.069
823.32	0.069
823.50	0.069
823.69	0.069
823.87	0.069
824.06	0.069
824.24	0.070
824.43	0.070
824.61	0.070
824.80	0.070
824.98	0.070
825.17	0.070
825.35	0.070
825.54	0.070
825.72	0.070
825.91	0.070
826.09	0.069
826.28	0.069
826.46	0.070
826.64	0.070
826.83	0.070
827.01	0.070
827.20	0.071
827.38	0.071
827.57	0.071
827.75	0.071
827.94	0.071
828.12	0.071
828.31	0.071
828.49	0.071
828.67	0.071
828.86	0.071
829.04	0.071
829.23	0.071
829.41	0.071
829.60	0.071
829.78	0.072
829.96	0.072
830.15	0.072
830.33	0.073
830.52	0.073
830.70	0.073
830.88	0.073
831.07	0.073
831.25	0.073
831.44	0.073
831.62	0.073
831.81	0.073
831.99	0.073
832.17	0.073
832.36	0.073
832.54	0.073
832.73	0.073
832.91	0.074
833.09	0.074
833.28	0.074
833.46	0.074
833.65	0.074
833.83	0.074
834.01	0.075
834.20	0.074
834.38	0.074
834.56	0.075
834.75	0.075
834.93	0.075
835.12	0.075
835.30	0.075
835.48	0.075
835.67	0.074
835.85	0.074
836.03	0.074
836.22	0.074
836.40	0.074
836.59	0.075
836.77	0.074
836.95	0.075
837.14	0.074
837.32	0.074
837.50	0.075
837.69	0.075
837.87	0.075
838.05	0.075
838.24	0.075
838.42	0.075
838.60	0.075
838.79	0.076
838.97	0.075
839.15	0.075
839.34	0.075
839.52	0.075
839.70	0.075
839.89	0.075
840.07	0.075
840.25	0.075
840.44	0.075
840.62	0.075
840.80	0.075
840.99	0.075
841.17	0.075
841.35	0.075
841.54	0.075
841.72	0.075
841.90	0.075
842.09	0.075
842.27	0.075
842.45	0.076
842.64	0.076
842.82	0.076
843.00	0.075
843.19	0.075
843.37	0.075
843.55	0.075
843.73	0.075
843.92	0.075
844.10	0.075
844.28	0.076
844.47	0.075
844.65	0.075
844.83	0.076
845.01	0.076
845.20	0.076
845.38	0.077
845.56	0.077
845.75	0.077
845.93	0.077
846.11	0.076
846.29	0.076
846.48	0.076
846.66	0.076
846.84	0.076
847.02	0.076
847.21	0.075
847.39	0.076
847.57	0.076
847.76	0.076
847.94	0.076
848.12	0.076
848.30	0.076
848.49	0.077
848.67	0.076
848.85	0.077
849.03	0.077
849.22	0.077
849.40	0.077
849.58	0.077
849.76	0.077
849.95	0.077
850.13	0.077
850.31	0.077
850.49	0.077
850.67	0.077
850.86	0.077
851.04	0.077
851.22	0.077
851.40	0.077
851.59	0.077
851.77	0.077
851.95	0.078
852.13	0.078
852.31	0.078
852.50	0.078
852.68	0.078
852.86	0.078
853.04	0.078
853.23	0.078
853.41	0.078
853.59	0.077
853.77	0.078
853.95	0.078
854.14	0.078
854.32	0.078
854.50	0.078
854.68	0.077
854.86	0.077
855.04	0.077
855.23	0.077
855.41	0.077
855.59	0.077
855.77	0.077
855.95	0.077
856.14	0.077
856.32	0.077
856.50	0.077
856.68	0.078
856.86	0.078
857.04	0.077
857.23	0.077
857.41	0.077
857.59	0.077
857.77	0.077
857.95	0.077
858.13	0.077
858.32	0.077
858.50	0.077
858.68	0.077
858.86	0.077
859.04	0.077
859.22	0.077
859.41	0.077
859.59	0.078
859.77	0.077
859.95	0.077
860.13	0.078
860.31	0.078
860.49	0.078
860.68	0.078
860.86	0.078
861.04	0.078
861.22	0.078
861.40	0.078
861.58	0.078
861.76	0.077
861.94	0.078
862.13	0.077
862.31	0.077
862.49	0.077
862.67	0.077
862.85	0.078
863.03	0.078
863.21	0.078
863.39	0.078
863.57	0.078
863.76	0.078
863.94	0.079
864.12	0.079
864.30	0.079
864.48	0.078
864.66	0.079
864.84	0.078
865.02	0.078
865.20	0.078
865.38	0.079
865.57	0.079
865.75	0.079
865.93	0.079
866.11	0.078
866.29	0.079
866.47	0.079
866.65	0.079
866.83	0.079
867.01	0.079
867.19	0.079
867.37	0.079
867.55	0.079
867.73	0.079
867.92	0.079
868.10	0.079
868.28	0.079
868.46	0.079
868.64	0.079
868.82	0.079
869.00	0.080
869.18	0.080
869.36	0.080
869.54	0.080
869.72	0.080
869.90	0.080
870.08	0.080
870.26	0.080
870.44	0.080
870.62	0.080
870.80	0.079
870.98	0.079
871.16	0.079
871.34	0.079
871.53	0.079
871.71	0.079
871.89	0.079
872.07	0.079
872.25	0.079
872.43	0.079
872.61	0.079
872.79	0.080
872.97	0.080
873.15	0.080
873.33	0.080
873.51	0.080
873.69	0.081
873.87	0.081
874.05	0.081
874.23	0.081
874.41	0.081
874.59	0.081
874.77	0.081
874.95	0.080
875.13	0.081
875.31	0.081
875.49	0.081
875.67	0.081
875.85	0.080
876.03	0.081
876.21	0.081
876.39	0.081
876.57	0.080
876.75	0.081
876.93	0.081
877.11	0.081
877.29	0.080
877.47	0.080
877.65	0.081
877.82	0.081
878.00	0.081
878.18	0.081
878.36	0.081
878.54	0.081
878.72	0.081
878.90	0.081
879.08	0.081
879.26	0.081
879.44	0.082
879.62	0.082
879.80	0.081
879.98	0.082
880.16	0.081
880.34	0.081
880.52	0.081
880.70	0.081
880.88	0.081
881.06	0.081
881.24	0.081
881.42	0.081
881.59	0.081
881.77	0.081
881.95	0.081
882.13	0.081
882.31	0.081
882.49	0.081
882.67	0.082
882.85	0.082
883.03	0.082
883.21	0.082
883.39	0.082
883.57	0.082
883.75	0.083
883.92	0.083
884.10	0.083
884.28	0.083
884.46	0.083
884.64	0.083
884.82	0.083
885.00	0.083
885.18	0.083
885.36	0.083
885.54	0.082
885.71	0.083
885.89	0.083
886.07	0.083
886.25	0.083
886.43	0.083
886.61	0.083
886.79	0.083
886.97	0.083
887.15	0.083
887.32	0.083
887.50	0.083
887.68	0.083
887.86	0.083
888.04	0.083
888.22	0.083
888.40	0.083
888.57	0.083
888.75	0.083
888.93	0.083
889.11	0.083
889.29	0.083
889.47	0.083
889.65	0.083
889.82	0.083
890.00	0.084
890.18	0.084
890.36	0.084
890.54	0.084
890.72	0.085
890.90	0.085
891.07	0.084
891.25	0.084
891.43	0.084
891.61	0.084
891.79	0.084
891.97	0.084
892.14	0.084
892.32	0.084
892.50	0.084
892.68	0.084
892.86	0.084
893.03	0.084
893.21	0.084
893.39	0.084
893.57	0.084
893.75	0.084
893.93	0.084
894.10	0.084
894.28	0.084
894.46	0.084
894.64	0.084
894.82	0.085
894.99	0.085
895.17	0.085
895.35	0.085
895.53	0.085
895.71	0.085
895.88	0.085
896.06	0.085
896.24	0.085
896.42	0.085
896.59	0.085
896.77	0.086
896.95	0.085
897.13	0.085
897.31	0.085
897.48	0.085
897.66	0.086
897.84	0.085
898.02	0.086
898.19	0.086
898.37	0.086
898.55	0.086
898.73	0.086
898.91	0.086
899.08	0.086
899.26	0.086
899.44	0.086
899.62	0.086
899.79	0.087
899.97	0.087
900.15	0.086
900.33	0.086
900.50	0.086
900.68	0.086
900.86	0.086
901.04	0.086
901.21	0.086
901.39	0.086
901.57	0.086
901.74	0.086
901.92	0.086
902.10	0.087
902.28	0.086
902.45	0.087
902.63	0.086
902.81	0.087
902.99	0.087
903.16	0.087
903.34	0.087
903.52	0.088
903.69	0.088
903.87	0.088
904.05	0.088
904.22	0.088
904.40	0.089
904.58	0.089
904.76	0.089
904.93	0.089
905.11	0.089
905.29	0.089
905.46	0.089
905.64	0.089
905.82	0.089
905.99	0.089
906.17	0.089
906.35	0.088
906.53	0.088
906.70	0.088
906.88	0.088
907.06	0.088
907.23	0.088
907.41	0.089
907.59	0.088
907.76	0.089
907.94	0.089
908.12	0.089
908.29	0.089
908.47	0.089
908.65	0.089
908.82	0.089
909.00	0.089
909.18	0.089
909.35	0.089
909.53	0.089
909.71	0.089
909.88	0.090
910.06	0.090
910.23	0.090
910.41	0.090
910.59	0.090
910.76	0.089
910.94	0.089
911.12	0.089
911.29	0.089
911.47	0.090
911.65	0.090
911.82	0.090
912.00	0.090
912.17	0.090
912.35	0.090
912.53	0.091
912.70	0.091
912.88	0.091
913.06	0.092
913.23	0.092
913.41	0.091
913.58	0.091
913.76	0.092
913.94	0.092
914.11	0.092
914.29	0.092
914.46	0.092
914.64	0.092
914.82	0.092
914.99	0.092
915.17	0.092
915.34	0.092
915.52	0.092
915.70	0.092
915.87	0.092
916.05	0.093
916.22	0.092
916.40	0.092
916.57	0.093
916.75	0.093
916.93	0.093
917.10	0.093
917.28	0.093
917.45	0.093
917.63	0.093
917.80	0.093
917.98	0.094
918.16	0.094
918.33	0.095
918.51	0.095
918.68	0.095
918.86	0.095
919.03	0.095
919.21	0.095
919.39	0.096
919.56	0.096
919.74	0.097
919.91	0.097
920.09	0.097
920.26	0.097
920.44	0.097
920.61	0.097
920.79	0.097
920.96	0.097
921.14	0.098
921.31	0.098
921.49	0.098
921.67	0.098
921.84	0.098
922.02	0.098
922.19	0.098
922.37	0.099
922.54	0.099
922.72	0.099
922.89	0.100
923.07	0.100
923.24	0.100
923.42	0.100
923.59	0.101
923.77	0.101
923.94	0.102
924.12	0.102
924.29	0.102
924.47	0.102
924.64	0.102
924.82	0.102
924.99	0.103
925.17	0.103
925.34	0.103
925.52	0.104
925.69	0.104
925.87	0.104
926.04	0.104
926.22	0.105
926.39	0.105
926.57	0.105
926.74	0.105
926.91	0.106
927.09	0.106
927.26	0.106
927.44	0.106
927.61	0.107
927.79	0.107
927.96	0.108
928.14	0.108
928.31	0.108
928.49	0.108
928.66	0.109
928.84	0.110
929.01	0.110
929.18	0.111
929.36	0.111
929.53	0.111
929.71	0.112
929.88	0.112
930.06	0.113
930.23	0.113
930.41	0.114
930.58	0.114
930.75	0.114
930.93	0.115
931.10	0.115
931.28	0.115
931.45	0.115
931.63	0.116
931.80	0.116
931.97	0.116
932.15	0.117
932.32	0.117
932.50	0.117
932.67	0.118
932.84	0.119
933.02	0.119
933.19	0.119
933.37	0.120
933.54	0.121
933.71	0.121
933.89	0.123
934.06	0.122
934.24	0.123
934.41	0.124
934.58	0.124
934.76	0.125
934.93	0.125
935.11	0.126
935.28	0.126
935.45	0.126
935.63	0.127
935.80	0.127
935.98	0.128
936.15	0.128
936.32	0.129
936.50	0.129
936.67	0.129
936.84	0.129
937.02	0.131
937.19	0.131
937.36	0.132
937.54	0.132
937.71	0.133
937.89	0.133
938.06	0.133
938.23	0.134
938.41	0.135
938.58	0.136
938.75	0.136
938.93	0.137
939.10	0.137
939.27	0.137
939.45	0.137
939.62	0.138
939.79	0.139
939.97	0.139
940.14	0.140
940.31	0.141
940.49	0.141
940.66	0.141
940.83	0.142
941.01	0.143
941.18	0.144
941.35	0.144
941.53	0.145
941.70	0.146
941.87	0.146
942.05	0.147
942.22	0.147
942.39	0.149
942.57	0.149
942.74	0.150
942.91	0.150
943.08	0.151
943.26	0.151
943.43	0.152
943.60	0.153
943.78	0.154
943.95	0.154
944.12	0.155
944.29	0.156
944.47	0.156
944.64	0.157
944.81	0.158
944.99	0.159
945.16	0.159
945.33	0.160
945.50	0.161
945.68	0.162
945.85	0.162
946.02	0.164
946.20	0.165
946.37	0.166
946.54	0.166
946.71	0.167
946.89	0.167
947.06	0.168
947.23	0.169
947.40	0.170
947.58	0.170
947.75	0.172
947.92	0.172
948.09	0.172
948.27	0.174
948.44	0.175
948.61	0.176
948.78	0.177
948.96	0.178
949.13	0.179
949.30	0.180
949.47	0.181
949.65	0.183
949.82	0.184
949.99	0.185
950.16	0.187
950.33	0.187
950.51	0.188
950.68	0.190
950.85	0.191
951.02	0.192
951.20	0.193
951.37	0.194
951.54	0.195
951.71	0.196
951.88	0.197
952.06	0.198
952.23	0.199
952.40	0.201
952.57	0.202
952.74	0.203
952.92	0.204
953.09	0.205
953.26	0.206
953.43	0.207
953.60	0.208
953.77	0.209
953.95	0.210
954.12	0.213
954.29	0.213
954.46	0.216
954.63	0.217
954.81	0.218
954.98	0.218
955.15	0.221
955.32	0.222
955.49	0.222
955.66	0.224
955.84	0.225
956.01	0.225
956.18	0.228
956.35	0.229
956.52	0.229
956.69	0.231
956.87	0.231
957.04	0.232
957.21	0.234
957.38	0.235
957.55	0.236
957.72	0.237
957.89	0.238
958.07	0.237
958.24	0.239
958.41	0.241
958.58	0.241
958.75	0.242
958.92	0.243
959.09	0.243
959.26	0.244
959.44	0.244
959.61	0.246
959.78	0.246
959.95	0.248
960.12	0.249
960.29	0.251
960.46	0.250
960.63	0.250
960.81	0.251
960.98	0.252
961.15	0.252
961.32	0.253
961.49	0.252
961.66	0.254
961.83	0.253
962.00	0.253
962.17	0.254
962.34	0.254
962.52	0.255
962.69	0.256
962.86	0.255
963.03	0.256
963.20	0.256
963.37	0.256
963.54	0.257
963.71	0.256
963.88	0.256
964.05	0.257
964.22	0.259
964.39	0.258
964.56	0.258
964.74	0.259
964.91	0.259
965.08	0.259
965.25	0.260
965.42	0.260
965.59	0.261
965.76	0.261
965.93	0.262
966.10	0.260
966.27	0.261
966.44	0.261
966.61	0.262
966.78	0.262
966.95	0.261
967.12	0.263
967.29	0.264
967.46	0.263
967.63	0.263
967.80	0.263
967.97	0.263
968.14	0.262
968.32	0.263
968.49	0.263
968.66	0.262
968.83	0.262
969.00	0.262
969.17	0.262
969.34	0.264
969.51	0.265
969.68	0.264
969.85	0.265
970.02	0.265
970.19	0.265
970.36	0.266
970.53	0.266
970.70	0.264
970.87	0.265
971.04	0.264
971.21	0.264
971.38	0.264
971.55	0.264
971.72	0.264
971.89	0.265
972.06	0.264
972.23	0.264
972.40	0.264
972.57	0.263
972.74	0.263
972.91	0.264
973.07	0.264
973.24	0.263
973.41	0.264
973.58	0.262
973.75	0.275
973.92	0.263
974.09	0.263
974.26	0.263
974.43	0.262
974.60	0.263
974.77	0.264
974.94	0.263
975.11	0.264
975.28	0.265
975.45	0.263
975.62	0.264
975.79	0.265
975.96	0.264
976.13	0.263
976.30	0.264
976.47	0.262
976.64	0.263
976.80	0.263
976.97	0.263
977.14	0.262
977.31	0.263
977.48	0.263
977.65	0.262
977.82	0.261
977.99	0.262
978.16	0.262
978.33	0.262
978.50	0.261
978.67	0.262
978.83	0.261
979.00	0.261
979.17	0.261
979.34	0.261
979.51	0.261
979.68	0.262
979.85	0.261
980.02	0.262
980.19	0.260
980.36	0.262
980.52	0.263
980.69	0.261
980.86	0.262
981.03	0.261
981.20	0.259
981.37	0.260
981.54	0.260
981.71	0.259
981.88	0.259
982.04	0.258
982.21	0.258
982.38	0.259
982.55	0.258
982.72	0.257
982.89	0.257
983.06	0.256
983.22	0.256
983.39	0.256
983.56	0.256
983.73	0.255
983.90	0.254
984.07	0.256
984.24	0.254
984.40	0.254
984.57	0.253
984.74	0.255
984.91	0.256
985.08	0.254
985.25	0.252
985.41	0.253
985.58	0.253
985.75	0.255
985.92	0.254
986.09	0.252
986.26	0.252
986.42	0.251
986.59	0.250
986.76	0.251
986.93	0.251
987.10	0.251
987.27	0.248
987.43	0.247
987.60	0.248
987.77	0.248
987.94	0.246
988.11	0.247
988.27	0.247
988.44	0.247
988.61	0.246
988.78	0.244
988.95	0.245
989.11	0.246
989.28	0.245
989.45	0.243
989.62	0.243
989.79	0.244
989.95	0.242
990.12	0.243
990.29	0.243
990.46	0.241
990.62	0.240
990.79	0.240
990.96	0.241
991.13	0.241
991.30	0.241
991.46	0.240
991.63	0.239
991.80	0.238
991.97	0.239
992.13	0.239
992.30	0.240
992.47	0.239
992.64	0.239
992.80	0.239
992.97	0.240
993.14	0.237
993.31	0.235
993.47	0.237
993.64	0.235
993.81	0.235
993.98	0.235
994.14	0.233
994.31	0.232
994.48	0.233
994.64	0.233
994.81	0.231
994.98	0.232
995.15	0.230
995.31	0.230
995.48	0.229
995.65	0.231
995.82	0.228
995.98	0.228
996.15	0.229
996.32	0.230
996.48	0.229
996.65	0.229
996.82	0.227
996.99	0.227
997.15	0.227
997.32	0.228
997.49	0.227
997.65	0.228
997.82	0.227
997.99	0.226
998.15	0.226
998.32	0.227
998.49	0.226
998.65	0.226
998.82	0.225
998.99	0.223
999.15	0.223
999.32	0.222
999.49	0.221
999.65	0.221
999.82	0.218
999.99	0.219
1000.15	0.218
1000.32	0.218
1000.49	0.218
1000.65	0.216
1000.82	0.216
1000.99	0.217
1001.15	0.216
1001.32	0.216
1001.49	0.216
1001.65	0.216
1001.82	0.219
1001.99	0.216
1002.15	0.215
1002.32	0.215
1002.49	0.216
1002.65	0.214
1002.82	0.212
1002.99	0.212
1003.15	0.214
1003.32	0.213
1003.48	0.213
1003.65	0.213
1003.82	0.212
1003.98	0.210
1004.15	0.210
1004.32	0.210
1004.48	0.211
1004.65	0.212
1004.81	0.210
1004.98	0.208
1005.15	0.209
1005.31	0.209
1005.48	0.207
1005.64	0.207
1005.81	0.209
1005.98	0.206
1006.14	0.206
1006.31	0.205
1006.47	0.204
1006.64	0.203
1006.81	0.203
1006.97	0.203
1007.14	0.202
1007.30	0.203
1007.47	0.203
1007.63	0.200
1007.80	0.199
1007.97	0.199
1008.13	0.200
1008.30	0.199
1008.46	0.200
1008.63	0.198
1008.79	0.198
1008.96	0.198
1009.13	0.199
1009.29	0.197
1009.46	0.196
1009.62	0.196
1009.79	0.194
1009.95	0.193
1010.12	0.194
1010.28	0.194
1010.45	0.193
1010.62	0.193
1010.78	0.192
1010.95	0.190
1011.11	0.191
1011.28	0.191
1011.44	0.193
1011.61	0.192
1011.77	0.191
1011.94	0.190
1012.10	0.189
1012.27	0.189
1012.43	0.190
1012.60	0.188
1012.76	0.189
1012.93	0.188
1013.10	0.185
1013.26	0.182
1013.43	0.184
1013.59	0.191
1013.76	0.183
1013.92	0.183
1014.09	0.182
1014.25	0.183
1014.42	0.183
1014.58	0.183
1014.75	0.186
1014.91	0.185
1015.08	0.187
1015.24	0.184
1015.41	0.185
1015.57	0.186
1015.73	0.184
1015.90	0.182
1016.06	0.184
1016.23	0.182
1016.39	0.182
1016.56	0.183
1016.72	0.182
1016.89	0.182
1017.05	0.184
1017.22	0.180
1017.38	0.181
1017.55	0.179
1017.71	0.180
1017.88	0.179
1018.04	0.180
1018.21	0.177
1018.37	0.177
1018.53	0.176
1018.70	0.174
1018.86	0.174
1019.03	0.176
1019.19	0.174
1019.36	0.174
1019.52	0.175
1019.69	0.176
1019.85	0.175
1020.01	0.175
1020.18	0.173
1020.34	0.173
1020.51	0.173
1020.67	0.173
1020.84	0.172
1021.00	0.173
1021.16	0.170
1021.33	0.171
1021.49	0.169
1021.66	0.170
1021.82	0.168
1021.98	0.169
1022.15	0.169
1022.31	0.168
1022.48	0.168
1022.64	0.169
1022.80	0.167
1022.97	0.165
1023.13	0.165
1023.30	0.165
1023.46	0.166
1023.62	0.164
1023.79	0.166
1023.95	0.166
1024.12	0.166
1024.28	0.163
1024.44	0.163
1024.61	0.162
1024.77	0.162
1024.93	0.162
1025.10	0.162
1025.26	0.160
1025.43	0.160
1025.59	0.155
1025.75	0.159
1025.92	0.158
1026.08	0.158
1026.24	0.157
1026.41	0.157
1026.57	0.155
1026.73	0.152
1026.90	0.155
1027.06	0.153
1027.23	0.155
1027.39	0.154
1027.55	0.154
1027.72	0.152
1027.88	0.152
1028.04	0.152
1028.21	0.154
1028.37	0.149
1028.53	0.154
1028.70	0.152
1028.86	0.150
1029.02	0.150
1029.19	0.152
1029.35	0.150
1029.51	0.149
1029.67	0.148
1029.84	0.150
1030.00	0.145
1030.16	0.145
1030.33	0.148
1030.49	0.145
1030.65	0.143
1030.82	0.158
1030.98	0.145
1031.14	0.145
1031.31	0.147
1031.47	0.144
1031.63	0.146
1031.79	0.145
1031.96	0.147
1032.12	0.149
1032.28	0.145
1032.45	0.150
1032.61	0.148
1032.77	0.147
1032.93	0.144
1033.10	0.145
1033.26	0.147
1033.42	0.144
1033.58	0.145
1033.75	0.146
1033.91	0.144
1034.07	0.148
1034.24	0.146
1034.40	0.144
1034.56	0.144
1034.72	0.145
1034.89	0.146
1035.05	0.143
1035.21	0.144
1035.37	0.142
1035.54	0.143
1035.70	0.141
1035.86	0.140
1036.02	0.141
1036.19	0.138
1036.35	0.136
1036.51	0.140
1036.67	0.138
1036.83	0.137
1037.00	0.136
1037.16	0.137
1037.32	0.139
1037.48	0.138
1037.65	0.142
1037.81	0.137
1037.97	0.139
1038.13	0.139
1038.29	0.138
1038.46	0.136
1038.62	0.143
1038.78	0.140
1038.94	0.136
1039.10	0.139
1039.27	0.135
1039.43	0.137
1039.59	0.137
1039.75	0.136
1039.91	0.135
1040.08	0.134
1040.24	0.136
1040.40	0.136
1040.56	0.134
1040.72	0.129
1040.89	0.132
1041.05	0.134
1041.21	0.132
1041.37	0.130
1041.53	0.136
1041.69	0.133
1041.86	0.132
1042.02	0.128
1042.18	0.128
1042.34	0.131
1042.50	0.136
1042.66	0.131
1042.83	0.129
1042.99	0.133
1043.15	0.129
1043.31	0.129
1043.47	0.134
1043.63	0.132
1043.79	0.131
1043.96	0.133
1044.12	0.136
1044.28	0.132
1044.44	0.135
1044.60	0.129
1044.76	0.128
1044.92	0.129
1045.09	0.131
1045.25	0.127
1045.41	0.128
1045.57	0.124
1045.73	0.125
1045.89	0.126
1046.05	0.127
1046.21	0.134
1046.38	0.124
1046.54	0.138
1046.70	0.139
1046.86	0.117
>>>>>End Processed Spectral Data<<<<<
