SpectraSuite Data File
++++++++++++++++++++++++++++++++++++
Date: Mon May 20 12:11:40 CDT 2013
User: Students
Dark Spectrum Present: Yes
Reference Spectrum Present: Yes
Number of Sampled Component Spectra: 1
Spectrometers: USB4H00887
Integration Time (usec): 60000 (USB4H00887)
Spectra Averaged: 5 (USB4H00887)
Boxcar Smoothing: 5 (USB4H00887)
Correct for Electrical Dark: No (USB4H00887)
Strobe/Lamp Enabled: No (USB4H00887)
Correct for Detector Non-linearity: No (USB4H00887)
Correct for Stray Light: No (USB4H00887)
Number of Pixels in Processed Spectrum: 3648
>>>>>Begin Processed Spectral Data<<<<<
345.83	-0.138
346.05	-0.138
346.26	-0.138
346.48	-0.000
346.70	-0.000
346.92	0.029
347.14	0.040
347.35	0.039
347.57	0.161
347.79	-0.216
348.01	-0.171
348.23	-0.255
348.44	-0.000
348.66	0.259
348.88	-0.378
349.10	-0.214
349.32	0.118
349.53	-0.027
349.75	-0.010
349.97	-0.040
350.19	-0.010
350.41	-0.046
350.62	0.303
350.84	-0.016
351.06	-0.018
351.28	-0.049
351.50	-0.242
351.71	-0.197
351.93	-0.153
352.15	-0.042
352.37	-0.093
352.58	-0.021
352.80	0.008
353.02	0.023
353.24	0.026
353.46	0.154
353.67	-0.067
353.89	0.039
354.11	0.055
354.33	0.050
354.54	0.084
354.76	0.127
354.98	0.280
355.20	0.245
355.41	0.095
355.63	0.251
355.85	0.106
356.07	-0.000
356.28	0.117
356.50	0.178
356.72	0.079
356.94	0.254
357.15	0.442
357.37	-0.000
357.59	0.159
357.81	0.151
358.02	0.199
358.24	0.144
358.46	0.322
358.68	0.314
358.89	0.152
359.11	-0.000
359.33	0.133
359.55	-0.686
359.76	0.192
359.98	0.222
360.20	0.191
360.42	0.183
360.63	0.219
360.85	0.159
361.07	-0.000
361.29	0.147
361.50	0.460
361.72	0.155
361.94	0.747
362.15	0.226
362.37	0.129
362.59	0.124
362.81	0.163
363.02	0.256
363.24	0.378
363.46	0.205
363.68	0.253
363.89	0.148
364.11	0.183
364.33	0.209
364.54	0.131
364.76	0.153
364.98	0.183
365.20	0.203
365.41	0.112
365.63	0.132
365.85	0.086
366.06	0.301
366.28	0.279
366.50	0.164
366.71	0.067
366.93	0.088
367.15	0.087
367.37	0.073
367.58	0.118
367.80	0.150
368.02	0.437
368.23	0.134
368.45	0.114
368.67	0.120
368.88	0.123
369.10	-0.000
369.32	0.129
369.53	0.073
369.75	0.115
369.97	0.196
370.19	0.134
370.40	0.062
370.62	0.175
370.84	0.090
371.05	0.492
371.27	0.142
371.49	0.165
371.70	0.186
371.92	0.305
372.14	0.114
372.35	0.133
372.57	0.140
372.79	0.347
373.00	0.094
373.22	0.153
373.44	0.144
373.65	0.105
373.87	0.152
374.09	0.615
374.30	0.123
374.52	0.130
374.74	0.105
374.95	0.496
375.17	0.122
375.39	-0.000
375.60	0.111
375.82	0.187
376.04	0.092
376.25	0.113
376.47	0.075
376.68	0.191
376.90	0.139
377.12	0.269
377.33	0.138
377.55	0.372
377.77	0.193
377.98	0.309
378.20	0.165
378.42	0.187
378.63	0.228
378.85	-0.000
379.07	0.151
379.28	0.546
379.50	0.303
379.71	0.167
379.93	0.120
380.15	0.167
380.36	0.242
380.58	0.185
380.80	0.594
381.01	0.182
381.23	0.150
381.44	0.153
381.66	0.169
381.88	0.214
382.09	-0.092
382.31	0.135
382.53	0.136
382.74	0.677
382.96	0.170
383.17	0.156
383.39	0.189
383.61	0.236
383.82	0.172
384.04	0.217
384.25	0.252
384.47	0.231
384.69	0.246
384.90	0.236
385.12	0.500
385.33	0.336
385.55	0.237
385.77	0.396
385.98	0.209
386.20	0.316
386.41	0.279
386.63	0.338
386.85	0.268
387.06	0.326
387.28	0.529
387.49	0.362
387.71	0.249
387.93	0.228
388.14	0.907
388.36	0.277
388.57	0.229
388.79	0.237
389.01	-0.000
389.22	0.322
389.44	0.270
389.65	0.220
389.87	0.208
390.08	0.248
390.30	0.176
390.52	0.353
390.73	0.386
390.95	0.278
391.16	0.282
391.38	-0.000
391.59	0.327
391.81	0.280
392.03	0.253
392.24	0.302
392.46	0.247
392.67	0.235
392.89	0.322
393.10	0.482
393.32	0.305
393.53	0.367
393.75	0.239
393.97	0.255
394.18	0.352
394.40	0.308
394.61	0.320
394.83	0.270
395.04	0.313
395.26	0.204
395.47	0.316
395.69	0.274
395.91	0.284
396.12	0.338
396.34	0.355
396.55	0.227
396.77	0.358
396.98	-0.000
397.20	0.437
397.41	0.498
397.63	0.341
397.84	0.305
398.06	0.286
398.27	0.295
398.49	0.355
398.71	0.239
398.92	0.284
399.14	0.365
399.35	0.463
399.57	0.443
399.78	0.292
400.00	0.299
400.21	0.362
400.43	0.286
400.64	0.298
400.86	0.674
401.07	0.394
401.29	0.333
401.50	0.366
401.72	0.548
401.93	0.331
402.15	0.419
402.36	0.370
402.58	0.299
402.79	0.328
403.01	0.570
403.22	0.421
403.44	0.273
403.65	0.447
403.87	0.473
404.08	0.368
404.30	0.615
404.51	0.329
404.73	0.400
404.94	0.348
405.16	0.364
405.37	0.285
405.59	0.518
405.80	0.325
406.02	0.424
406.23	0.423
406.45	0.474
406.66	0.504
406.88	0.321
407.09	0.496
407.31	0.395
407.52	0.498
407.74	0.393
407.95	0.476
408.17	0.421
408.38	0.415
408.60	0.281
408.81	0.468
409.03	0.349
409.24	0.354
409.45	0.408
409.67	0.390
409.88	0.348
410.10	0.453
410.31	0.377
410.53	0.369
410.74	0.544
410.96	0.528
411.17	0.541
411.39	0.413
411.60	0.387
411.82	0.453
412.03	0.444
412.24	0.431
412.46	0.616
412.67	0.498
412.89	0.501
413.10	0.498
413.32	0.449
413.53	0.535
413.75	0.569
413.96	0.409
414.17	0.562
414.39	0.556
414.60	0.439
414.82	0.584
415.03	0.447
415.25	0.490
415.46	0.335
415.68	0.471
415.89	0.869
416.10	0.675
416.32	0.370
416.53	0.436
416.75	0.414
416.96	0.515
417.18	0.451
417.39	0.427
417.60	0.426
417.82	0.630
418.03	0.555
418.25	0.469
418.46	0.497
418.67	0.453
418.89	0.485
419.10	0.517
419.32	0.684
419.53	0.615
419.75	0.532
419.96	0.470
420.17	0.590
420.39	0.551
420.60	0.564
420.82	0.682
421.03	0.540
421.24	0.442
421.46	0.483
421.67	0.540
421.89	0.467
422.10	0.494
422.31	0.492
422.53	0.694
422.74	0.504
422.96	0.401
423.17	0.448
423.38	0.556
423.60	0.482
423.81	0.612
424.03	0.516
424.24	0.575
424.45	0.598
424.67	0.596
424.88	0.527
425.09	0.569
425.31	0.527
425.52	0.563
425.74	0.637
425.95	0.682
426.16	0.513
426.38	0.601
426.59	0.547
426.80	0.607
427.02	0.621
427.23	0.491
427.45	0.655
427.66	0.637
427.87	0.490
428.09	0.518
428.30	0.581
428.51	0.569
428.73	0.624
428.94	0.557
429.15	0.550
429.37	0.533
429.58	0.560
429.79	0.516
430.01	0.630
430.22	0.628
430.44	0.642
430.65	0.567
430.86	0.616
431.08	0.596
431.29	0.548
431.50	0.650
431.72	0.886
431.93	0.698
432.14	0.518
432.36	0.569
432.57	0.581
432.78	0.607
433.00	0.563
433.21	0.551
433.42	0.692
433.64	0.589
433.85	0.667
434.06	0.539
434.28	0.566
434.49	0.586
434.70	0.594
434.92	0.606
435.13	0.653
435.34	0.655
435.56	0.627
435.77	0.623
435.98	0.815
436.20	0.683
436.41	0.582
436.62	0.577
436.83	0.648
437.05	0.739
437.26	0.641
437.47	0.567
437.69	0.621
437.90	0.566
438.11	0.560
438.33	0.613
438.54	0.630
438.75	0.811
438.97	0.793
439.18	0.602
439.39	0.629
439.60	0.694
439.82	0.647
440.03	0.596
440.24	0.891
440.46	0.653
440.67	0.624
440.88	0.663
441.10	0.616
441.31	0.613
441.52	0.662
441.73	0.748
441.95	0.656
442.16	0.605
442.37	0.964
442.58	0.597
442.80	0.585
443.01	0.755
443.22	0.697
443.44	0.592
443.65	0.710
443.86	0.708
444.07	0.763
444.29	0.656
444.50	0.855
444.71	0.638
444.92	0.597
445.14	0.763
445.35	0.816
445.56	0.634
445.78	0.754
445.99	0.747
446.20	0.640
446.41	0.720
446.63	0.723
446.84	0.687
447.05	0.693
447.26	0.844
447.48	0.705
447.69	0.673
447.90	0.777
448.11	0.681
448.33	0.709
448.54	0.723
448.75	0.753
448.96	0.770
449.18	0.800
449.39	0.702
449.60	0.677
449.81	0.815
450.03	0.704
450.24	0.767
450.45	0.725
450.66	0.704
450.87	0.739
451.09	0.697
451.30	0.665
451.51	0.746
451.72	0.770
451.94	0.795
452.15	0.891
452.36	0.726
452.57	0.736
452.78	0.739
453.00	0.774
453.21	0.727
453.42	0.691
453.63	0.795
453.85	0.757
454.06	0.746
454.27	0.881
454.48	0.772
454.69	0.705
454.91	0.781
455.12	0.679
455.33	0.764
455.54	0.786
455.75	0.760
455.97	0.789
456.18	0.775
456.39	0.776
456.60	0.801
456.81	0.740
457.03	0.746
457.24	0.749
457.45	0.847
457.66	0.787
457.87	0.740
458.09	0.759
458.30	0.671
458.51	0.799
458.72	0.830
458.93	0.849
459.15	0.741
459.36	0.809
459.57	0.829
459.78	0.871
459.99	0.781
460.20	0.741
460.42	0.829
460.63	0.782
460.84	0.763
461.05	0.779
461.26	0.837
461.47	0.754
461.69	0.807
461.90	0.847
462.11	0.802
462.32	0.857
462.53	0.793
462.74	0.896
462.96	0.772
463.17	0.764
463.38	0.816
463.59	0.936
463.80	0.772
464.01	0.795
464.23	0.883
464.44	0.841
464.65	0.847
464.86	0.873
465.07	0.876
465.28	0.833
465.49	0.848
465.71	0.798
465.92	0.835
466.13	0.884
466.34	0.819
466.55	0.879
466.76	0.841
466.97	0.869
467.19	0.854
467.40	0.891
467.61	0.903
467.82	0.819
468.03	0.795
468.24	0.868
468.45	0.901
468.66	0.885
468.88	0.891
469.09	0.898
469.30	0.948
469.51	0.872
469.72	0.921
469.93	0.888
470.14	0.870
470.35	0.970
470.57	0.914
470.78	0.846
470.99	0.983
471.20	0.913
471.41	0.864
471.62	0.919
471.83	0.889
472.04	0.920
472.25	0.959
472.47	0.873
472.68	0.882
472.89	0.888
473.10	0.936
473.31	0.886
473.52	0.954
473.73	0.974
473.94	0.890
474.15	0.913
474.36	0.914
474.57	0.943
474.79	0.910
475.00	0.908
475.21	0.892
475.42	0.989
475.63	0.886
475.84	0.915
476.05	0.923
476.26	0.892
476.47	0.923
476.68	0.970
476.89	0.897
477.10	0.949
477.32	0.937
477.53	0.994
477.74	0.911
477.95	0.954
478.16	0.902
478.37	0.948
478.58	0.952
478.79	0.973
479.00	0.976
479.21	0.932
479.42	0.973
479.63	0.978
479.84	0.941
480.05	0.937
480.26	0.964
480.47	0.984
480.69	0.983
480.90	0.944
481.11	0.938
481.32	0.997
481.53	0.932
481.74	0.986
481.95	0.952
482.16	0.973
482.37	0.980
482.58	0.948
482.79	0.966
483.00	0.998
483.21	0.942
483.42	0.915
483.63	0.996
483.84	1.026
484.05	1.014
484.26	0.984
484.47	0.978
484.68	0.940
484.89	0.948
485.10	0.995
485.31	0.974
485.52	0.980
485.73	0.981
485.94	1.022
486.15	0.968
486.37	0.985
486.58	0.949
486.79	0.961
487.00	1.012
487.21	1.001
487.42	1.000
487.63	1.002
487.84	1.022
488.05	1.017
488.26	0.973
488.47	0.981
488.68	1.014
488.89	0.991
489.10	0.986
489.31	0.995
489.52	1.031
489.73	0.997
489.94	1.034
490.15	0.989
490.36	1.031
490.57	0.985
490.78	0.967
490.99	1.002
491.20	1.079
491.41	1.033
491.62	0.976
491.83	1.006
492.04	0.999
492.25	1.009
492.45	1.010
492.66	1.037
492.87	1.023
493.08	1.010
493.29	0.996
493.50	0.987
493.71	0.996
493.92	0.995
494.13	1.009
494.34	1.035
494.55	1.040
494.76	1.070
494.97	1.062
495.18	1.027
495.39	1.044
495.60	0.990
495.81	0.990
496.02	1.013
496.23	1.003
496.44	1.038
496.65	1.026
496.86	1.031
497.07	1.058
497.28	1.053
497.49	1.000
497.70	1.001
497.91	1.026
498.12	1.008
498.32	1.050
498.53	1.032
498.74	1.025
498.95	1.052
499.16	1.007
499.37	1.010
499.58	1.018
499.79	1.051
500.00	1.046
500.21	1.076
500.42	1.019
500.63	1.020
500.84	1.043
501.05	1.016
501.26	1.042
501.46	1.082
501.67	1.043
501.88	1.047
502.09	1.018
502.30	1.026
502.51	1.075
502.72	1.026
502.93	1.041
503.14	1.063
503.35	1.035
503.56	1.031
503.77	1.060
503.97	1.038
504.18	1.037
504.39	1.074
504.60	1.047
504.81	1.078
505.02	1.066
505.23	1.068
505.44	1.049
505.65	1.055
505.86	1.037
506.07	1.110
506.27	1.062
506.48	1.068
506.69	1.051
506.90	1.070
507.11	1.065
507.32	1.039
507.53	1.050
507.74	1.040
507.95	1.052
508.15	1.056
508.36	1.061
508.57	1.074
508.78	1.057
508.99	1.053
509.20	1.026
509.41	1.051
509.62	1.040
509.82	1.036
510.03	1.046
510.24	1.048
510.45	1.072
510.66	1.066
510.87	1.062
511.08	1.019
511.29	1.066
511.49	1.045
511.70	1.097
511.91	1.029
512.12	1.028
512.33	1.065
512.54	1.082
512.75	1.061
512.95	1.086
513.16	1.073
513.37	1.052
513.58	1.089
513.79	1.049
514.00	1.052
514.20	1.072
514.41	1.059
514.62	1.026
514.83	1.069
515.04	1.060
515.25	1.040
515.46	1.052
515.66	1.052
515.87	1.068
516.08	1.035
516.29	1.060
516.50	1.037
516.71	1.031
516.91	1.038
517.12	1.054
517.33	1.040
517.54	1.027
517.75	1.033
517.95	1.045
518.16	1.057
518.37	1.022
518.58	1.029
518.79	1.002
519.00	1.033
519.20	1.044
519.41	1.018
519.62	1.039
519.83	1.047
520.04	1.010
520.24	1.009
520.45	1.017
520.66	1.043
520.87	1.004
521.08	1.001
521.28	1.007
521.49	1.022
521.70	0.991
521.91	1.004
522.12	0.985
522.32	1.009
522.53	0.990
522.74	0.980
522.95	0.988
523.16	0.992
523.36	1.003
523.57	0.984
523.78	0.980
523.99	0.984
524.20	0.975
524.40	0.988
524.61	0.993
524.82	0.965
525.03	0.970
525.23	0.971
525.44	0.952
525.65	0.951
525.86	0.972
526.06	0.944
526.27	0.946
526.48	0.957
526.69	0.938
526.90	0.941
527.10	0.977
527.31	0.931
527.52	0.925
527.73	0.917
527.93	0.927
528.14	0.933
528.35	0.921
528.56	0.923
528.76	0.913
528.97	0.906
529.18	0.898
529.39	0.899
529.59	0.902
529.80	0.934
530.01	0.908
530.22	0.907
530.42	0.876
530.63	0.893
530.84	0.870
531.05	0.885
531.25	0.889
531.46	0.881
531.67	0.858
531.88	0.876
532.08	0.869
532.29	0.863
532.50	0.854
532.70	0.847
532.91	0.838
533.12	0.841
533.33	0.867
533.53	0.834
533.74	0.834
533.95	0.841
534.15	0.829
534.36	0.830
534.57	0.813
534.78	0.816
534.98	0.826
535.19	0.796
535.40	0.796
535.60	0.814
535.81	0.793
536.02	0.794
536.23	0.786
536.43	0.789
536.64	0.776
536.85	0.783
537.05	0.791
537.26	0.768
537.47	0.772
537.67	0.761
537.88	0.755
538.09	0.764
538.30	0.755
538.50	0.746
538.71	0.757
538.92	0.743
539.12	0.739
539.33	0.735
539.54	0.735
539.74	0.740
539.95	0.730
540.16	0.727
540.36	0.717
540.57	0.716
540.78	0.708
540.98	0.707
541.19	0.704
541.40	0.691
541.60	0.701
541.81	0.696
542.02	0.695
542.22	0.685
542.43	0.680
542.64	0.675
542.84	0.675
543.05	0.666
543.26	0.666
543.46	0.669
543.67	0.668
543.88	0.663
544.08	0.653
544.29	0.647
544.50	0.648
544.70	0.648
544.91	0.640
545.12	0.641
545.32	0.637
545.53	0.641
545.74	0.628
545.94	0.625
546.15	0.623
546.35	0.621
546.56	0.618
546.77	0.615
546.97	0.612
547.18	0.604
547.39	0.605
547.59	0.603
547.80	0.599
548.01	0.603
548.21	0.598
548.42	0.590
548.62	0.589
548.83	0.586
549.04	0.582
549.24	0.575
549.45	0.574
549.65	0.570
549.86	0.565
550.07	0.564
550.27	0.561
550.48	0.569
550.69	0.554
550.89	0.554
551.10	0.550
551.30	0.549
551.51	0.548
551.72	0.538
551.92	0.539
552.13	0.539
552.33	0.539
552.54	0.534
552.75	0.527
552.95	0.529
553.16	0.524
553.36	0.522
553.57	0.518
553.78	0.516
553.98	0.517
554.19	0.508
554.39	0.505
554.60	0.508
554.80	0.508
555.01	0.499
555.22	0.501
555.42	0.497
555.63	0.491
555.83	0.495
556.04	0.488
556.25	0.490
556.45	0.481
556.66	0.480
556.86	0.484
557.07	0.481
557.27	0.480
557.48	0.474
557.68	0.472
557.89	0.473
558.10	0.470
558.30	0.467
558.51	0.465
558.71	0.462
558.92	0.457
559.12	0.458
559.33	0.461
559.54	0.456
559.74	0.451
559.95	0.449
560.15	0.448
560.36	0.445
560.56	0.440
560.77	0.440
560.97	0.440
561.18	0.435
561.38	0.434
561.59	0.437
561.79	0.433
562.00	0.431
562.21	0.428
562.41	0.427
562.62	0.426
562.82	0.424
563.03	0.421
563.23	0.420
563.44	0.419
563.64	0.416
563.85	0.417
564.05	0.410
564.26	0.409
564.46	0.408
564.67	0.409
564.87	0.405
565.08	0.402
565.28	0.402
565.49	0.403
565.69	0.400
565.90	0.397
566.10	0.399
566.31	0.393
566.51	0.394
566.72	0.395
566.92	0.389
567.13	0.389
567.33	0.387
567.54	0.386
567.74	0.385
567.95	0.381
568.15	0.382
568.36	0.381
568.56	0.380
568.77	0.375
568.97	0.373
569.18	0.373
569.38	0.370
569.59	0.371
569.79	0.368
570.00	0.366
570.20	0.365
570.41	0.363
570.61	0.361
570.82	0.362
571.02	0.358
571.23	0.360
571.43	0.356
571.64	0.355
571.84	0.354
572.05	0.353
572.25	0.352
572.45	0.349
572.66	0.347
572.86	0.346
573.07	0.344
573.27	0.345
573.48	0.344
573.68	0.340
573.89	0.339
574.09	0.340
574.30	0.338
574.50	0.336
574.70	0.336
574.91	0.334
575.11	0.334
575.32	0.333
575.52	0.329
575.73	0.329
575.93	0.329
576.14	0.327
576.34	0.326
576.54	0.324
576.75	0.323
576.95	0.322
577.16	0.320
577.36	0.319
577.57	0.319
577.77	0.317
577.97	0.314
578.18	0.315
578.38	0.312
578.59	0.311
578.79	0.309
579.00	0.310
579.20	0.307
579.40	0.306
579.61	0.306
579.81	0.305
580.02	0.303
580.22	0.302
580.42	0.301
580.63	0.301
580.83	0.300
581.04	0.298
581.24	0.298
581.45	0.297
581.65	0.297
581.85	0.296
582.06	0.294
582.26	0.293
582.47	0.292
582.67	0.292
582.87	0.291
583.08	0.288
583.28	0.289
583.48	0.286
583.69	0.283
583.89	0.283
584.10	0.284
584.30	0.281
584.50	0.279
584.71	0.279
584.91	0.278
585.12	0.276
585.32	0.278
585.52	0.275
585.73	0.274
585.93	0.273
586.13	0.273
586.34	0.271
586.54	0.271
586.75	0.270
586.95	0.268
587.15	0.268
587.36	0.266
587.56	0.265
587.76	0.264
587.97	0.263
588.17	0.262
588.37	0.262
588.58	0.263
588.78	0.260
588.98	0.260
589.19	0.259
589.39	0.257
589.60	0.259
589.80	0.257
590.00	0.256
590.21	0.257
590.41	0.255
590.61	0.255
590.82	0.254
591.02	0.254
591.22	0.252
591.43	0.253
591.63	0.251
591.83	0.250
592.04	0.248
592.24	0.249
592.44	0.246
592.65	0.244
592.85	0.244
593.05	0.244
593.26	0.243
593.46	0.242
593.66	0.242
593.86	0.241
594.07	0.239
594.27	0.239
594.47	0.237
594.68	0.237
594.88	0.237
595.08	0.236
595.29	0.237
595.49	0.234
595.69	0.234
595.90	0.233
596.10	0.233
596.30	0.233
596.50	0.232
596.71	0.232
596.91	0.231
597.11	0.231
597.32	0.230
597.52	0.229
597.72	0.229
597.93	0.228
598.13	0.226
598.33	0.226
598.53	0.225
598.74	0.225
598.94	0.224
599.14	0.223
599.35	0.223
599.55	0.223
599.75	0.222
599.95	0.221
600.16	0.222
600.36	0.220
600.56	0.220
600.76	0.219
600.97	0.218
601.17	0.217
601.37	0.218
601.58	0.216
601.78	0.216
601.98	0.215
602.18	0.215
602.39	0.214
602.59	0.215
602.79	0.213
602.99	0.213
603.20	0.212
603.40	0.212
603.60	0.212
603.80	0.212
604.01	0.211
604.21	0.210
604.41	0.210
604.61	0.209
604.82	0.208
605.02	0.208
605.22	0.208
605.42	0.207
605.62	0.207
605.83	0.206
606.03	0.205
606.23	0.205
606.43	0.205
606.64	0.204
606.84	0.203
607.04	0.203
607.24	0.203
607.45	0.203
607.65	0.202
607.85	0.202
608.05	0.201
608.25	0.201
608.46	0.200
608.66	0.200
608.86	0.200
609.06	0.199
609.26	0.198
609.47	0.198
609.67	0.197
609.87	0.197
610.07	0.197
610.28	0.195
610.48	0.195
610.68	0.195
610.88	0.194
611.08	0.194
611.29	0.193
611.49	0.192
611.69	0.193
611.89	0.191
612.09	0.191
612.29	0.190
612.50	0.190
612.70	0.190
612.90	0.189
613.10	0.189
613.30	0.189
613.51	0.189
613.71	0.188
613.91	0.192
614.11	0.188
614.31	0.187
614.51	0.187
614.72	0.186
614.92	0.186
615.12	0.186
615.32	0.186
615.52	0.186
615.72	0.186
615.93	0.186
616.13	0.185
616.33	0.185
616.53	0.185
616.73	0.185
616.93	0.184
617.14	0.185
617.34	0.185
617.54	0.184
617.74	0.184
617.94	0.183
618.14	0.182
618.34	0.182
618.55	0.181
618.75	0.182
618.95	0.181
619.15	0.181
619.35	0.180
619.55	0.179
619.75	0.180
619.96	0.179
620.16	0.179
620.36	0.179
620.56	0.178
620.76	0.178
620.96	0.178
621.16	0.177
621.36	0.177
621.57	0.177
621.77	0.177
621.97	0.176
622.17	0.176
622.37	0.176
622.57	0.176
622.77	0.175
622.97	0.174
623.18	0.174
623.38	0.174
623.58	0.173
623.78	0.173
623.98	0.172
624.18	0.171
624.38	0.171
624.58	0.171
624.78	0.172
624.98	0.172
625.19	0.171
625.39	0.171
625.59	0.171
625.79	0.171
625.99	0.170
626.19	0.171
626.39	0.170
626.59	0.170
626.79	0.170
626.99	0.170
627.19	0.170
627.40	0.170
627.60	0.170
627.80	0.169
628.00	0.169
628.20	0.168
628.40	0.168
628.60	0.168
628.80	0.167
629.00	0.167
629.20	0.166
629.40	0.166
629.60	0.165
629.80	0.165
630.00	0.165
630.20	0.165
630.41	0.164
630.61	0.164
630.81	0.163
631.01	0.164
631.21	0.163
631.41	0.163
631.61	0.163
631.81	0.163
632.01	0.163
632.21	0.163
632.41	0.162
632.61	0.161
632.81	0.162
633.01	0.162
633.21	0.162
633.41	0.163
633.61	0.162
633.81	0.161
634.01	0.161
634.21	0.161
634.41	0.160
634.61	0.161
634.81	0.160
635.01	0.159
635.22	0.159
635.42	0.159
635.62	0.159
635.82	0.159
636.02	0.159
636.22	0.158
636.42	0.158
636.62	0.158
636.82	0.158
637.02	0.157
637.22	0.158
637.42	0.157
637.62	0.156
637.82	0.156
638.02	0.155
638.22	0.155
638.42	0.155
638.62	0.154
638.82	0.154
639.02	0.154
639.22	0.154
639.42	0.153
639.62	0.154
639.82	0.153
640.02	0.154
640.22	0.154
640.42	0.153
640.62	0.153
640.82	0.154
641.02	0.153
641.22	0.153
641.42	0.153
641.61	0.153
641.81	0.153
642.01	0.153
642.21	0.153
642.41	0.152
642.61	0.152
642.81	0.151
643.01	0.151
643.21	0.150
643.41	0.150
643.61	0.149
643.81	0.149
644.01	0.148
644.21	0.148
644.41	0.148
644.61	0.148
644.81	0.148
645.01	0.148
645.21	0.147
645.41	0.147
645.61	0.147
645.81	0.147
646.01	0.146
646.21	0.147
646.40	0.146
646.60	0.146
646.80	0.147
647.00	0.146
647.20	0.145
647.40	0.145
647.60	0.145
647.80	0.145
648.00	0.145
648.20	0.145
648.40	0.145
648.60	0.144
648.80	0.144
649.00	0.145
649.20	0.145
649.39	0.144
649.59	0.144
649.79	0.144
649.99	0.144
650.19	0.143
650.39	0.143
650.59	0.143
650.79	0.142
650.99	0.142
651.19	0.141
651.39	0.141
651.58	0.141
651.78	0.141
651.98	0.140
652.18	0.140
652.38	0.139
652.58	0.140
652.78	0.139
652.98	0.139
653.18	0.139
653.38	0.139
653.57	0.139
653.77	0.139
653.97	0.138
654.17	0.138
654.37	0.137
654.57	0.138
654.77	0.137
654.97	0.137
655.16	0.137
655.36	0.137
655.56	0.136
655.76	0.136
655.96	0.136
656.16	0.135
656.36	0.135
656.56	0.135
656.75	0.135
656.95	0.135
657.15	0.135
657.35	0.135
657.55	0.134
657.75	0.135
657.95	0.135
658.14	0.134
658.34	0.134
658.54	0.134
658.74	0.134
658.94	0.134
659.14	0.134
659.34	0.133
659.53	0.133
659.73	0.132
659.93	0.132
660.13	0.131
660.33	0.131
660.53	0.131
660.72	0.132
660.92	0.131
661.12	0.131
661.32	0.130
661.52	0.130
661.72	0.130
661.91	0.130
662.11	0.130
662.31	0.130
662.51	0.130
662.71	0.130
662.90	0.129
663.10	0.129
663.30	0.129
663.50	0.129
663.70	0.128
663.90	0.128
664.09	0.127
664.29	0.127
664.49	0.126
664.69	0.126
664.89	0.126
665.08	0.126
665.28	0.125
665.48	0.125
665.68	0.124
665.88	0.124
666.07	0.124
666.27	0.124
666.47	0.124
666.67	0.124
666.87	0.124
667.06	0.123
667.26	0.123
667.46	0.123
667.66	0.123
667.85	0.123
668.05	0.123
668.25	0.123
668.45	0.123
668.65	0.123
668.84	0.123
669.04	0.123
669.24	0.123
669.44	0.122
669.63	0.122
669.83	0.122
670.03	0.121
670.23	0.120
670.42	0.120
670.62	0.119
670.82	0.119
671.02	0.119
671.22	0.118
671.41	0.118
671.61	0.118
671.81	0.119
672.01	0.119
672.20	0.118
672.40	0.118
672.60	0.118
672.80	0.118
672.99	0.118
673.19	0.117
673.39	0.117
673.58	0.117
673.78	0.116
673.98	0.116
674.18	0.116
674.37	0.115
674.57	0.115
674.77	0.115
674.97	0.115
675.16	0.115
675.36	0.115
675.56	0.114
675.75	0.114
675.95	0.113
676.15	0.114
676.35	0.114
676.54	0.114
676.74	0.114
676.94	0.114
677.13	0.114
677.33	0.113
677.53	0.113
677.73	0.113
677.92	0.113
678.12	0.113
678.32	0.113
678.51	0.113
678.71	0.113
678.91	0.112
679.11	0.111
679.30	0.112
679.50	0.111
679.70	0.111
679.89	0.111
680.09	0.112
680.29	0.111
680.48	0.111
680.68	0.110
680.88	0.111
681.07	0.110
681.27	0.110
681.47	0.110
681.66	0.110
681.86	0.110
682.06	0.110
682.25	0.109
682.45	0.109
682.65	0.109
682.84	0.108
683.04	0.108
683.24	0.107
683.43	0.107
683.63	0.107
683.83	0.107
684.02	0.106
684.22	0.106
684.42	0.106
684.61	0.106
684.81	0.106
685.01	0.106
685.20	0.106
685.40	0.106
685.60	0.106
685.79	0.106
685.99	0.106
686.19	0.105
686.38	0.105
686.58	0.106
686.77	0.106
686.97	0.105
687.17	0.105
687.36	0.105
687.56	0.104
687.76	0.103
687.95	0.103
688.15	0.104
688.34	0.104
688.54	0.103
688.74	0.103
688.93	0.102
689.13	0.102
689.33	0.102
689.52	0.102
689.72	0.103
689.91	0.102
690.11	0.102
690.31	0.101
690.50	0.101
690.70	0.102
690.89	0.102
691.09	0.101
691.29	0.101
691.48	0.101
691.68	0.100
691.87	0.100
692.07	0.101
692.27	0.101
692.46	0.101
692.66	0.100
692.85	0.100
693.05	0.100
693.25	0.100
693.44	0.099
693.64	0.099
693.83	0.100
694.03	0.099
694.22	0.098
694.42	0.098
694.62	0.098
694.81	0.098
695.01	0.099
695.20	0.099
695.40	0.098
695.59	0.098
695.79	0.098
695.99	0.098
696.18	0.098
696.38	0.098
696.57	0.098
696.77	0.097
696.96	0.098
697.16	0.097
697.36	0.097
697.55	0.097
697.75	0.097
697.94	0.096
698.14	0.096
698.33	0.096
698.53	0.096
698.72	0.096
698.92	0.096
699.11	0.096
699.31	0.095
699.51	0.095
699.70	0.095
699.90	0.095
700.09	0.095
700.29	0.094
700.48	0.094
700.68	0.094
700.87	0.094
701.07	0.093
701.26	0.093
701.46	0.093
701.65	0.093
701.85	0.093
702.04	0.092
702.24	0.092
702.43	0.092
702.63	0.092
702.82	0.093
703.02	0.092
703.21	0.092
703.41	0.092
703.60	0.092
703.80	0.092
703.99	0.092
704.19	0.092
704.38	0.092
704.58	0.091
704.77	0.091
704.97	0.091
705.16	0.091
705.36	0.091
705.55	0.091
705.75	0.091
705.94	0.091
706.14	0.090
706.33	0.090
706.53	0.091
706.72	0.091
706.92	0.091
707.11	0.091
707.31	0.091
707.50	0.091
707.70	0.091
707.89	0.091
708.09	0.091
708.28	0.091
708.48	0.091
708.67	0.090
708.86	0.090
709.06	0.090
709.25	0.090
709.45	0.090
709.64	0.089
709.84	0.089
710.03	0.088
710.23	0.088
710.42	0.088
710.62	0.088
710.81	0.088
711.00	0.088
711.20	0.088
711.39	0.087
711.59	0.087
711.78	0.088
711.98	0.088
712.17	0.088
712.37	0.088
712.56	0.088
712.75	0.088
712.95	0.088
713.14	0.088
713.34	0.089
713.53	0.089
713.73	0.089
713.92	0.089
714.11	0.089
714.31	0.089
714.50	0.089
714.70	0.089
714.89	0.088
715.08	0.088
715.28	0.088
715.47	0.088
715.67	0.088
715.86	0.088
716.06	0.088
716.25	0.087
716.44	0.087
716.64	0.087
716.83	0.086
717.03	0.086
717.22	0.086
717.41	0.086
717.61	0.086
717.80	0.086
717.99	0.087
718.19	0.086
718.38	0.086
718.58	0.086
718.77	0.086
718.96	0.086
719.16	0.086
719.35	0.086
719.55	0.085
719.74	0.085
719.93	0.085
720.13	0.085
720.32	0.084
720.51	0.084
720.71	0.084
720.90	0.084
721.10	0.084
721.29	0.084
721.48	0.084
721.68	0.084
721.87	0.084
722.06	0.084
722.26	0.085
722.45	0.085
722.64	0.085
722.84	0.085
723.03	0.085
723.22	0.085
723.42	0.085
723.61	0.085
723.80	0.085
724.00	0.085
724.19	0.085
724.38	0.085
724.58	0.084
724.77	0.084
724.96	0.084
725.16	0.084
725.35	0.084
725.54	0.085
725.74	0.084
725.93	0.084
726.12	0.084
726.32	0.084
726.51	0.085
726.70	0.084
726.90	0.085
727.09	0.084
727.28	0.084
727.48	0.085
727.67	0.084
727.86	0.084
728.06	0.085
728.25	0.085
728.44	0.085
728.64	0.084
728.83	0.085
729.02	0.084
729.21	0.084
729.41	0.084
729.60	0.083
729.79	0.084
729.99	0.083
730.18	0.084
730.37	0.083
730.56	0.083
730.76	0.083
730.95	0.084
731.14	0.084
731.34	0.084
731.53	0.084
731.72	0.084
731.91	0.084
732.11	0.084
732.30	0.084
732.49	0.085
732.69	0.085
732.88	0.085
733.07	0.085
733.26	0.085
733.46	0.085
733.65	0.085
733.84	0.085
734.03	0.085
734.23	0.085
734.42	0.085
734.61	0.085
734.80	0.085
735.00	0.085
735.19	0.085
735.38	0.085
735.57	0.085
735.77	0.085
735.96	0.085
736.15	0.084
736.34	0.084
736.54	0.085
736.73	0.085
736.92	0.085
737.11	0.085
737.31	0.085
737.50	0.085
737.69	0.085
737.88	0.085
738.07	0.085
738.27	0.085
738.46	0.085
738.65	0.085
738.84	0.085
739.04	0.085
739.23	0.085
739.42	0.084
739.61	0.084
739.80	0.084
740.00	0.085
740.19	0.085
740.38	0.084
740.57	0.084
740.76	0.084
740.96	0.084
741.15	0.084
741.34	0.084
741.53	0.084
741.72	0.084
741.92	0.084
742.11	0.083
742.30	0.083
742.49	0.084
742.68	0.084
742.88	0.084
743.07	0.084
743.26	0.084
743.45	0.084
743.64	0.083
743.84	0.083
744.03	0.083
744.22	0.083
744.41	0.083
744.60	0.083
744.79	0.083
744.99	0.083
745.18	0.083
745.37	0.082
745.56	0.082
745.75	0.083
745.94	0.082
746.14	0.082
746.33	0.082
746.52	0.083
746.71	0.082
746.90	0.082
747.09	0.083
747.28	0.082
747.48	0.082
747.67	0.082
747.86	0.082
748.05	0.082
748.24	0.082
748.43	0.082
748.62	0.081
748.82	0.081
749.01	0.081
749.20	0.081
749.39	0.081
749.58	0.081
749.77	0.081
749.96	0.081
750.16	0.081
750.35	0.081
750.54	0.081
750.73	0.081
750.92	0.081
751.11	0.081
751.30	0.081
751.49	0.081
751.68	0.081
751.88	0.081
752.07	0.081
752.26	0.081
752.45	0.080
752.64	0.080
752.83	0.081
753.02	0.081
753.21	0.080
753.40	0.080
753.60	0.080
753.79	0.080
753.98	0.080
754.17	0.080
754.36	0.080
754.55	0.080
754.74	0.080
754.93	0.079
755.12	0.079
755.31	0.079
755.50	0.079
755.70	0.079
755.89	0.079
756.08	0.079
756.27	0.079
756.46	0.079
756.65	0.079
756.84	0.079
757.03	0.079
757.22	0.079
757.41	0.079
757.60	0.078
757.79	0.078
757.98	0.079
758.17	0.079
758.36	0.079
758.56	0.078
758.75	0.078
758.94	0.079
759.13	0.079
759.32	0.078
759.51	0.079
759.70	0.079
759.89	0.079
760.08	0.079
760.27	0.078
760.46	0.078
760.65	0.078
760.84	0.078
761.03	0.078
761.22	0.078
761.41	0.078
761.60	0.078
761.79	0.078
761.98	0.078
762.17	0.077
762.36	0.077
762.55	0.077
762.74	0.077
762.93	0.077
763.12	0.077
763.31	0.077
763.50	0.077
763.69	0.077
763.88	0.076
764.07	0.076
764.26	0.076
764.45	0.076
764.64	0.077
764.83	0.076
765.02	0.077
765.21	0.076
765.40	0.076
765.59	0.076
765.78	0.077
765.97	0.077
766.16	0.077
766.35	0.077
766.54	0.077
766.73	0.077
766.92	0.077
767.11	0.076
767.30	0.077
767.49	0.077
767.68	0.077
767.87	0.076
768.06	0.076
768.25	0.075
768.44	0.076
768.63	0.075
768.82	0.075
769.01	0.075
769.20	0.075
769.39	0.075
769.58	0.075
769.77	0.075
769.96	0.075
770.15	0.075
770.34	0.075
770.53	0.075
770.72	0.075
770.91	0.075
771.10	0.075
771.29	0.075
771.47	0.075
771.66	0.075
771.85	0.075
772.04	0.075
772.23	0.075
772.42	0.075
772.61	0.075
772.80	0.075
772.99	0.075
773.18	0.075
773.37	0.075
773.56	0.075
773.75	0.075
773.94	0.075
774.13	0.074
774.31	0.074
774.50	0.074
774.69	0.074
774.88	0.074
775.07	0.074
775.26	0.074
775.45	0.073
775.64	0.074
775.83	0.074
776.02	0.073
776.21	0.073
776.40	0.074
776.58	0.074
776.77	0.074
776.96	0.074
777.15	0.074
777.34	0.074
777.53	0.074
777.72	0.074
777.91	0.074
778.10	0.074
778.28	0.074
778.47	0.074
778.66	0.073
778.85	0.073
779.04	0.073
779.23	0.073
779.42	0.073
779.61	0.073
779.79	0.073
779.98	0.073
780.17	0.073
780.36	0.073
780.55	0.073
780.74	0.073
780.93	0.072
781.12	0.073
781.30	0.073
781.49	0.073
781.68	0.073
781.87	0.073
782.06	0.073
782.25	0.073
782.44	0.073
782.62	0.073
782.81	0.073
783.00	0.073
783.19	0.072
783.38	0.072
783.57	0.072
783.75	0.072
783.94	0.072
784.13	0.072
784.32	0.072
784.51	0.071
784.70	0.072
784.88	0.071
785.07	0.071
785.26	0.071
785.45	0.071
785.64	0.071
785.83	0.071
786.01	0.071
786.20	0.071
786.39	0.071
786.58	0.071
786.77	0.071
786.95	0.071
787.14	0.071
787.33	0.072
787.52	0.071
787.71	0.071
787.90	0.071
788.08	0.071
788.27	0.071
788.46	0.071
788.65	0.072
788.84	0.072
789.02	0.072
789.21	0.072
789.40	0.072
789.59	0.072
789.77	0.072
789.96	0.072
790.15	0.072
790.34	0.072
790.53	0.072
790.71	0.071
790.90	0.071
791.09	0.071
791.28	0.071
791.46	0.072
791.65	0.071
791.84	0.071
792.03	0.071
792.22	0.071
792.40	0.071
792.59	0.071
792.78	0.072
792.97	0.072
793.15	0.072
793.34	0.071
793.53	0.071
793.72	0.071
793.90	0.071
794.09	0.071
794.28	0.071
794.47	0.071
794.65	0.070
794.84	0.070
795.03	0.070
795.22	0.070
795.40	0.070
795.59	0.070
795.78	0.070
795.97	0.070
796.15	0.070
796.34	0.070
796.53	0.070
796.71	0.070
796.90	0.070
797.09	0.071
797.28	0.071
797.46	0.070
797.65	0.070
797.84	0.070
798.02	0.071
798.21	0.070
798.40	0.070
798.59	0.070
798.77	0.070
798.96	0.069
799.15	0.069
799.33	0.069
799.52	0.069
799.71	0.069
799.90	0.069
800.08	0.069
800.27	0.069
800.46	0.069
800.64	0.069
800.83	0.069
801.02	0.069
801.20	0.069
801.39	0.069
801.58	0.069
801.76	0.069
801.95	0.069
802.14	0.068
802.32	0.069
802.51	0.068
802.70	0.068
802.88	0.068
803.07	0.068
803.26	0.068
803.44	0.068
803.63	0.068
803.82	0.068
804.00	0.068
804.19	0.068
804.38	0.068
804.56	0.068
804.75	0.068
804.94	0.068
805.12	0.069
805.31	0.069
805.50	0.069
805.68	0.069
805.87	0.069
806.06	0.069
806.24	0.069
806.43	0.069
806.62	0.069
806.80	0.069
806.99	0.069
807.17	0.069
807.36	0.069
807.55	0.069
807.73	0.069
807.92	0.069
808.11	0.069
808.29	0.069
808.48	0.069
808.66	0.069
808.85	0.069
809.04	0.069
809.22	0.069
809.41	0.069
809.59	0.068
809.78	0.068
809.97	0.068
810.15	0.068
810.34	0.068
810.53	0.068
810.71	0.068
810.90	0.068
811.08	0.068
811.27	0.067
811.45	0.067
811.64	0.067
811.83	0.068
812.01	0.067
812.20	0.067
812.38	0.067
812.57	0.068
812.76	0.068
812.94	0.068
813.13	0.068
813.31	0.067
813.50	0.068
813.68	0.068
813.87	0.067
814.06	0.068
814.24	0.067
814.43	0.068
814.61	0.068
814.80	0.067
814.98	0.068
815.17	0.067
815.36	0.067
815.54	0.067
815.73	0.067
815.91	0.067
816.10	0.067
816.28	0.067
816.47	0.067
816.65	0.067
816.84	0.067
817.03	0.068
817.21	0.068
817.40	0.068
817.58	0.068
817.77	0.068
817.95	0.068
818.14	0.069
818.32	0.068
818.51	0.069
818.69	0.068
818.88	0.068
819.06	0.068
819.25	0.068
819.43	0.068
819.62	0.068
819.80	0.068
819.99	0.068
820.18	0.068
820.36	0.068
820.55	0.068
820.73	0.068
820.92	0.068
821.10	0.068
821.29	0.068
821.47	0.068
821.66	0.068
821.84	0.068
822.03	0.068
822.21	0.068
822.40	0.068
822.58	0.068
822.77	0.068
822.95	0.068
823.14	0.068
823.32	0.069
823.50	0.069
823.69	0.069
823.87	0.069
824.06	0.069
824.24	0.069
824.43	0.069
824.61	0.069
824.80	0.070
824.98	0.070
825.17	0.070
825.35	0.070
825.54	0.070
825.72	0.070
825.91	0.070
826.09	0.070
826.28	0.070
826.46	0.070
826.64	0.070
826.83	0.070
827.01	0.070
827.20	0.070
827.38	0.070
827.57	0.071
827.75	0.070
827.94	0.071
828.12	0.071
828.31	0.071
828.49	0.071
828.67	0.071
828.86	0.071
829.04	0.071
829.23	0.071
829.41	0.071
829.60	0.071
829.78	0.071
829.96	0.072
830.15	0.072
830.33	0.072
830.52	0.073
830.70	0.073
830.88	0.072
831.07	0.073
831.25	0.073
831.44	0.073
831.62	0.073
831.81	0.073
831.99	0.073
832.17	0.073
832.36	0.073
832.54	0.073
832.73	0.073
832.91	0.073
833.09	0.073
833.28	0.073
833.46	0.074
833.65	0.074
833.83	0.074
834.01	0.074
834.20	0.074
834.38	0.074
834.56	0.074
834.75	0.074
834.93	0.074
835.12	0.074
835.30	0.073
835.48	0.074
835.67	0.073
835.85	0.073
836.03	0.073
836.22	0.073
836.40	0.073
836.59	0.073
836.77	0.073
836.95	0.074
837.14	0.074
837.32	0.074
837.50	0.074
837.69	0.074
837.87	0.074
838.05	0.074
838.24	0.074
838.42	0.074
838.60	0.074
838.79	0.075
838.97	0.074
839.15	0.074
839.34	0.075
839.52	0.075
839.70	0.075
839.89	0.075
840.07	0.075
840.25	0.076
840.44	0.076
840.62	0.075
840.80	0.075
840.99	0.075
841.17	0.075
841.35	0.075
841.54	0.075
841.72	0.075
841.90	0.075
842.09	0.075
842.27	0.075
842.45	0.075
842.64	0.075
842.82	0.075
843.00	0.075
843.19	0.075
843.37	0.075
843.55	0.075
843.73	0.075
843.92	0.075
844.10	0.075
844.28	0.075
844.47	0.075
844.65	0.075
844.83	0.076
845.01	0.076
845.20	0.076
845.38	0.076
845.56	0.076
845.75	0.076
845.93	0.076
846.11	0.076
846.29	0.077
846.48	0.076
846.66	0.076
846.84	0.076
847.02	0.076
847.21	0.075
847.39	0.076
847.57	0.076
847.76	0.076
847.94	0.075
848.12	0.075
848.30	0.076
848.49	0.076
848.67	0.076
848.85	0.076
849.03	0.077
849.22	0.077
849.40	0.077
849.58	0.077
849.76	0.077
849.95	0.077
850.13	0.077
850.31	0.077
850.49	0.077
850.67	0.077
850.86	0.077
851.04	0.077
851.22	0.076
851.40	0.077
851.59	0.077
851.77	0.076
851.95	0.077
852.13	0.077
852.31	0.077
852.50	0.077
852.68	0.077
852.86	0.077
853.04	0.077
853.23	0.077
853.41	0.077
853.59	0.077
853.77	0.077
853.95	0.077
854.14	0.077
854.32	0.077
854.50	0.077
854.68	0.077
854.86	0.077
855.04	0.077
855.23	0.077
855.41	0.077
855.59	0.077
855.77	0.077
855.95	0.077
856.14	0.077
856.32	0.077
856.50	0.077
856.68	0.077
856.86	0.077
857.04	0.077
857.23	0.077
857.41	0.077
857.59	0.077
857.77	0.076
857.95	0.076
858.13	0.076
858.32	0.075
858.50	0.076
858.68	0.075
858.86	0.076
859.04	0.076
859.22	0.076
859.41	0.076
859.59	0.076
859.77	0.076
859.95	0.076
860.13	0.077
860.31	0.077
860.49	0.076
860.68	0.076
860.86	0.077
861.04	0.077
861.22	0.077
861.40	0.077
861.58	0.077
861.76	0.077
861.94	0.077
862.13	0.077
862.31	0.077
862.49	0.077
862.67	0.077
862.85	0.077
863.03	0.077
863.21	0.077
863.39	0.077
863.57	0.077
863.76	0.077
863.94	0.078
864.12	0.078
864.30	0.078
864.48	0.078
864.66	0.078
864.84	0.078
865.02	0.078
865.20	0.078
865.38	0.078
865.57	0.078
865.75	0.078
865.93	0.078
866.11	0.078
866.29	0.078
866.47	0.078
866.65	0.078
866.83	0.078
867.01	0.078
867.19	0.077
867.37	0.077
867.55	0.078
867.73	0.078
867.92	0.078
868.10	0.078
868.28	0.078
868.46	0.078
868.64	0.078
868.82	0.078
869.00	0.078
869.18	0.079
869.36	0.078
869.54	0.078
869.72	0.078
869.90	0.078
870.08	0.078
870.26	0.078
870.44	0.079
870.62	0.079
870.80	0.079
870.98	0.078
871.16	0.078
871.34	0.078
871.53	0.078
871.71	0.078
871.89	0.079
872.07	0.079
872.25	0.078
872.43	0.078
872.61	0.079
872.79	0.079
872.97	0.079
873.15	0.079
873.33	0.079
873.51	0.079
873.69	0.080
873.87	0.079
874.05	0.079
874.23	0.080
874.41	0.080
874.59	0.080
874.77	0.080
874.95	0.080
875.13	0.080
875.31	0.080
875.49	0.080
875.67	0.080
875.85	0.080
876.03	0.080
876.21	0.081
876.39	0.081
876.57	0.081
876.75	0.081
876.93	0.081
877.11	0.081
877.29	0.080
877.47	0.080
877.65	0.081
877.82	0.081
878.00	0.081
878.18	0.081
878.36	0.080
878.54	0.080
878.72	0.080
878.90	0.080
879.08	0.081
879.26	0.081
879.44	0.081
879.62	0.081
879.80	0.081
879.98	0.081
880.16	0.081
880.34	0.080
880.52	0.081
880.70	0.081
880.88	0.080
881.06	0.081
881.24	0.080
881.42	0.080
881.59	0.080
881.77	0.080
881.95	0.080
882.13	0.080
882.31	0.081
882.49	0.081
882.67	0.081
882.85	0.081
883.03	0.081
883.21	0.081
883.39	0.081
883.57	0.081
883.75	0.081
883.92	0.081
884.10	0.082
884.28	0.081
884.46	0.082
884.64	0.082
884.82	0.082
885.00	0.081
885.18	0.082
885.36	0.082
885.54	0.082
885.71	0.082
885.89	0.083
886.07	0.083
886.25	0.083
886.43	0.083
886.61	0.083
886.79	0.083
886.97	0.083
887.15	0.083
887.32	0.083
887.50	0.083
887.68	0.083
887.86	0.083
888.04	0.083
888.22	0.083
888.40	0.082
888.57	0.082
888.75	0.082
888.93	0.083
889.11	0.083
889.29	0.083
889.47	0.083
889.65	0.083
889.82	0.083
890.00	0.083
890.18	0.083
890.36	0.083
890.54	0.083
890.72	0.083
890.90	0.083
891.07	0.083
891.25	0.083
891.43	0.083
891.61	0.083
891.79	0.083
891.97	0.083
892.14	0.083
892.32	0.083
892.50	0.083
892.68	0.083
892.86	0.083
893.03	0.083
893.21	0.084
893.39	0.084
893.57	0.085
893.75	0.085
893.93	0.085
894.10	0.085
894.28	0.085
894.46	0.085
894.64	0.085
894.82	0.084
894.99	0.085
895.17	0.084
895.35	0.084
895.53	0.084
895.71	0.084
895.88	0.084
896.06	0.084
896.24	0.084
896.42	0.084
896.59	0.084
896.77	0.084
896.95	0.084
897.13	0.084
897.31	0.084
897.48	0.084
897.66	0.085
897.84	0.084
898.02	0.085
898.19	0.085
898.37	0.085
898.55	0.085
898.73	0.085
898.91	0.085
899.08	0.085
899.26	0.085
899.44	0.085
899.62	0.085
899.79	0.086
899.97	0.086
900.15	0.085
900.33	0.086
900.50	0.086
900.68	0.085
900.86	0.086
901.04	0.086
901.21	0.086
901.39	0.086
901.57	0.086
901.74	0.086
901.92	0.086
902.10	0.086
902.28	0.086
902.45	0.086
902.63	0.086
902.81	0.086
902.99	0.087
903.16	0.087
903.34	0.087
903.52	0.087
903.69	0.087
903.87	0.087
904.05	0.087
904.22	0.087
904.40	0.087
904.58	0.087
904.76	0.088
904.93	0.088
905.11	0.088
905.29	0.088
905.46	0.088
905.64	0.088
905.82	0.089
905.99	0.088
906.17	0.088
906.35	0.088
906.53	0.088
906.70	0.088
906.88	0.088
907.06	0.088
907.23	0.088
907.41	0.088
907.59	0.087
907.76	0.088
907.94	0.088
908.12	0.088
908.29	0.088
908.47	0.088
908.65	0.089
908.82	0.088
909.00	0.088
909.18	0.089
909.35	0.089
909.53	0.089
909.71	0.089
909.88	0.089
910.06	0.089
910.23	0.089
910.41	0.089
910.59	0.089
910.76	0.089
910.94	0.089
911.12	0.089
911.29	0.089
911.47	0.089
911.65	0.090
911.82	0.090
912.00	0.090
912.17	0.090
912.35	0.091
912.53	0.091
912.70	0.091
912.88	0.091
913.06	0.091
913.23	0.091
913.41	0.091
913.58	0.091
913.76	0.091
913.94	0.091
914.11	0.091
914.29	0.091
914.46	0.092
914.64	0.091
914.82	0.091
914.99	0.092
915.17	0.092
915.34	0.092
915.52	0.092
915.70	0.092
915.87	0.092
916.05	0.093
916.22	0.093
916.40	0.093
916.57	0.093
916.75	0.093
916.93	0.093
917.10	0.093
917.28	0.093
917.45	0.093
917.63	0.093
917.80	0.093
917.98	0.093
918.16	0.093
918.33	0.093
918.51	0.093
918.68	0.093
918.86	0.094
919.03	0.094
919.21	0.095
919.39	0.095
919.56	0.095
919.74	0.096
919.91	0.096
920.09	0.096
920.26	0.096
920.44	0.096
920.61	0.096
920.79	0.096
920.96	0.096
921.14	0.097
921.31	0.097
921.49	0.097
921.67	0.097
921.84	0.098
922.02	0.098
922.19	0.098
922.37	0.098
922.54	0.099
922.72	0.099
922.89	0.099
923.07	0.100
923.24	0.100
923.42	0.100
923.59	0.100
923.77	0.101
923.94	0.101
924.12	0.101
924.29	0.102
924.47	0.102
924.64	0.102
924.82	0.102
924.99	0.103
925.17	0.103
925.34	0.103
925.52	0.104
925.69	0.104
925.87	0.104
926.04	0.105
926.22	0.105
926.39	0.105
926.57	0.105
926.74	0.106
926.91	0.106
927.09	0.106
927.26	0.106
927.44	0.107
927.61	0.107
927.79	0.107
927.96	0.108
928.14	0.108
928.31	0.109
928.49	0.109
928.66	0.109
928.84	0.110
929.01	0.110
929.18	0.111
929.36	0.111
929.53	0.112
929.71	0.112
929.88	0.113
930.06	0.113
930.23	0.114
930.41	0.114
930.58	0.115
930.75	0.115
930.93	0.116
931.10	0.116
931.28	0.116
931.45	0.116
931.63	0.117
931.80	0.116
931.97	0.117
932.15	0.118
932.32	0.117
932.50	0.117
932.67	0.118
932.84	0.119
933.02	0.119
933.19	0.120
933.37	0.120
933.54	0.121
933.71	0.121
933.89	0.122
934.06	0.122
934.24	0.123
934.41	0.123
934.58	0.124
934.76	0.124
934.93	0.125
935.11	0.125
935.28	0.125
935.45	0.126
935.63	0.126
935.80	0.126
935.98	0.127
936.15	0.127
936.32	0.128
936.50	0.128
936.67	0.129
936.84	0.129
937.02	0.130
937.19	0.131
937.36	0.131
937.54	0.132
937.71	0.133
937.89	0.133
938.06	0.134
938.23	0.134
938.41	0.135
938.58	0.135
938.75	0.136
938.93	0.137
939.10	0.137
939.27	0.137
939.45	0.138
939.62	0.139
939.79	0.140
939.97	0.140
940.14	0.140
940.31	0.141
940.49	0.141
940.66	0.141
940.83	0.142
941.01	0.143
941.18	0.143
941.35	0.144
941.53	0.144
941.70	0.145
941.87	0.145
942.05	0.146
942.22	0.147
942.39	0.148
942.57	0.148
942.74	0.149
942.91	0.150
943.08	0.150
943.26	0.151
943.43	0.151
943.60	0.152
943.78	0.153
943.95	0.154
944.12	0.154
944.29	0.155
944.47	0.155
944.64	0.156
944.81	0.157
944.99	0.158
945.16	0.159
945.33	0.159
945.50	0.160
945.68	0.161
945.85	0.161
946.02	0.163
946.20	0.164
946.37	0.165
946.54	0.166
946.71	0.166
946.89	0.167
947.06	0.167
947.23	0.168
947.40	0.169
947.58	0.170
947.75	0.171
947.92	0.171
948.09	0.172
948.27	0.173
948.44	0.174
948.61	0.175
948.78	0.176
948.96	0.178
949.13	0.178
949.30	0.179
949.47	0.180
949.65	0.181
949.82	0.184
949.99	0.184
950.16	0.186
950.33	0.187
950.51	0.188
950.68	0.189
950.85	0.190
951.02	0.191
951.20	0.192
951.37	0.194
951.54	0.194
951.71	0.195
951.88	0.196
952.06	0.197
952.23	0.198
952.40	0.200
952.57	0.201
952.74	0.202
952.92	0.203
953.09	0.205
953.26	0.206
953.43	0.207
953.60	0.207
953.77	0.208
953.95	0.209
954.12	0.211
954.29	0.211
954.46	0.214
954.63	0.215
954.81	0.216
954.98	0.217
955.15	0.219
955.32	0.220
955.49	0.221
955.66	0.222
955.84	0.224
956.01	0.224
956.18	0.226
956.35	0.228
956.52	0.228
956.69	0.230
956.87	0.230
957.04	0.231
957.21	0.234
957.38	0.234
957.55	0.235
957.72	0.236
957.89	0.237
958.07	0.237
958.24	0.239
958.41	0.241
958.58	0.240
958.75	0.241
958.92	0.242
959.09	0.243
959.26	0.244
959.44	0.244
959.61	0.246
959.78	0.246
959.95	0.248
960.12	0.248
960.29	0.250
960.46	0.249
960.63	0.250
960.81	0.250
960.98	0.251
961.15	0.251
961.32	0.251
961.49	0.251
961.66	0.252
961.83	0.252
962.00	0.252
962.17	0.253
962.34	0.253
962.52	0.254
962.69	0.254
962.86	0.254
963.03	0.255
963.20	0.255
963.37	0.255
963.54	0.256
963.71	0.256
963.88	0.256
964.05	0.256
964.22	0.258
964.39	0.256
964.56	0.257
964.74	0.258
964.91	0.258
965.08	0.258
965.25	0.258
965.42	0.259
965.59	0.260
965.76	0.259
965.93	0.260
966.10	0.259
966.27	0.260
966.44	0.259
966.61	0.260
966.78	0.260
966.95	0.259
967.12	0.261
967.29	0.263
967.46	0.262
967.63	0.262
967.80	0.263
967.97	0.262
968.14	0.262
968.32	0.263
968.49	0.262
968.66	0.261
968.83	0.262
969.00	0.262
969.17	0.262
969.34	0.263
969.51	0.264
969.68	0.263
969.85	0.263
970.02	0.264
970.19	0.263
970.36	0.264
970.53	0.265
970.70	0.263
970.87	0.264
971.04	0.263
971.21	0.264
971.38	0.263
971.55	0.264
971.72	0.263
971.89	0.265
972.06	0.264
972.23	0.264
972.40	0.264
972.57	0.262
972.74	0.263
972.91	0.264
973.07	0.264
973.24	0.263
973.41	0.264
973.58	0.262
973.75	0.274
973.92	0.262
974.09	0.262
974.26	0.262
974.43	0.261
974.60	0.262
974.77	0.263
974.94	0.262
975.11	0.263
975.28	0.264
975.45	0.262
975.62	0.263
975.79	0.265
975.96	0.263
976.13	0.262
976.30	0.264
976.47	0.262
976.64	0.262
976.80	0.263
976.97	0.262
977.14	0.262
977.31	0.261
977.48	0.262
977.65	0.261
977.82	0.260
977.99	0.262
978.16	0.261
978.33	0.261
978.50	0.260
978.67	0.260
978.83	0.260
979.00	0.262
979.17	0.261
979.34	0.260
979.51	0.260
979.68	0.260
979.85	0.259
980.02	0.259
980.19	0.258
980.36	0.259
980.52	0.260
980.69	0.258
980.86	0.258
981.03	0.258
981.20	0.257
981.37	0.257
981.54	0.258
981.71	0.257
981.88	0.258
982.04	0.258
982.21	0.257
982.38	0.259
982.55	0.257
982.72	0.256
982.89	0.257
983.06	0.255
983.22	0.255
983.39	0.255
983.56	0.255
983.73	0.255
983.90	0.253
984.07	0.255
984.24	0.254
984.40	0.253
984.57	0.251
984.74	0.254
984.91	0.255
985.08	0.253
985.25	0.251
985.41	0.252
985.58	0.251
985.75	0.253
985.92	0.252
986.09	0.251
986.26	0.251
986.42	0.251
986.59	0.250
986.76	0.251
986.93	0.252
987.10	0.252
987.27	0.249
987.43	0.248
987.60	0.249
987.77	0.249
987.94	0.247
988.11	0.248
988.27	0.248
988.44	0.247
988.61	0.246
988.78	0.245
988.95	0.245
989.11	0.247
989.28	0.246
989.45	0.245
989.62	0.245
989.79	0.245
989.95	0.244
990.12	0.246
990.29	0.246
990.46	0.244
990.62	0.242
990.79	0.242
990.96	0.243
991.13	0.242
991.30	0.241
991.46	0.241
991.63	0.239
991.80	0.238
991.97	0.238
992.13	0.239
992.30	0.240
992.47	0.239
992.64	0.239
992.80	0.239
992.97	0.239
993.14	0.237
993.31	0.234
993.47	0.237
993.64	0.235
993.81	0.234
993.98	0.234
994.14	0.233
994.31	0.232
994.48	0.233
994.64	0.232
994.81	0.231
994.98	0.231
995.15	0.230
995.31	0.229
995.48	0.228
995.65	0.230
995.82	0.228
995.98	0.227
996.15	0.228
996.32	0.229
996.48	0.227
996.65	0.227
996.82	0.225
996.99	0.225
997.15	0.226
997.32	0.227
997.49	0.225
997.65	0.226
997.82	0.226
997.99	0.224
998.15	0.225
998.32	0.226
998.49	0.225
998.65	0.226
998.82	0.224
998.99	0.222
999.15	0.222
999.32	0.221
999.49	0.220
999.65	0.220
999.82	0.217
999.99	0.217
1000.15	0.217
1000.32	0.217
1000.49	0.217
1000.65	0.215
1000.82	0.214
1000.99	0.215
1001.15	0.215
1001.32	0.214
1001.49	0.214
1001.65	0.214
1001.82	0.216
1001.99	0.213
1002.15	0.213
1002.32	0.213
1002.49	0.214
1002.65	0.212
1002.82	0.211
1002.99	0.210
1003.15	0.213
1003.32	0.211
1003.48	0.212
1003.65	0.212
1003.82	0.211
1003.98	0.208
1004.15	0.209
1004.32	0.210
1004.48	0.210
1004.65	0.211
1004.81	0.210
1004.98	0.208
1005.15	0.210
1005.31	0.209
1005.48	0.207
1005.64	0.207
1005.81	0.210
1005.98	0.206
1006.14	0.205
1006.31	0.205
1006.47	0.204
1006.64	0.203
1006.81	0.203
1006.97	0.202
1007.14	0.202
1007.30	0.203
1007.47	0.203
1007.63	0.201
1007.80	0.200
1007.97	0.199
1008.13	0.200
1008.30	0.198
1008.46	0.198
1008.63	0.197
1008.79	0.198
1008.96	0.197
1009.13	0.198
1009.29	0.195
1009.46	0.195
1009.62	0.195
1009.79	0.194
1009.95	0.194
1010.12	0.195
1010.28	0.196
1010.45	0.195
1010.62	0.194
1010.78	0.193
1010.95	0.191
1011.11	0.192
1011.28	0.191
1011.44	0.193
1011.61	0.191
1011.77	0.190
1011.94	0.190
1012.10	0.189
1012.27	0.189
1012.43	0.189
1012.60	0.187
1012.76	0.188
1012.93	0.188
1013.10	0.186
1013.26	0.184
1013.43	0.185
1013.59	0.193
1013.76	0.185
1013.92	0.184
1014.09	0.183
1014.25	0.183
1014.42	0.184
1014.58	0.184
1014.75	0.186
1014.91	0.184
1015.08	0.186
1015.24	0.182
1015.41	0.183
1015.57	0.184
1015.73	0.182
1015.90	0.180
1016.06	0.182
1016.23	0.180
1016.39	0.180
1016.56	0.179
1016.72	0.179
1016.89	0.180
1017.05	0.182
1017.22	0.178
1017.38	0.179
1017.55	0.177
1017.71	0.179
1017.88	0.178
1018.04	0.179
1018.21	0.176
1018.37	0.177
1018.53	0.176
1018.70	0.174
1018.86	0.173
1019.03	0.175
1019.19	0.173
1019.36	0.173
1019.52	0.174
1019.69	0.175
1019.85	0.174
1020.01	0.175
1020.18	0.172
1020.34	0.173
1020.51	0.172
1020.67	0.173
1020.84	0.171
1021.00	0.172
1021.16	0.170
1021.33	0.171
1021.49	0.169
1021.66	0.170
1021.82	0.168
1021.98	0.169
1022.15	0.169
1022.31	0.168
1022.48	0.167
1022.64	0.168
1022.80	0.167
1022.97	0.165
1023.13	0.164
1023.30	0.165
1023.46	0.165
1023.62	0.162
1023.79	0.163
1023.95	0.163
1024.12	0.163
1024.28	0.161
1024.44	0.162
1024.61	0.161
1024.77	0.161
1024.93	0.161
1025.10	0.162
1025.26	0.159
1025.43	0.160
1025.59	0.156
1025.75	0.160
1025.92	0.159
1026.08	0.158
1026.24	0.158
1026.41	0.159
1026.57	0.157
1026.73	0.154
1026.90	0.155
1027.06	0.154
1027.23	0.155
1027.39	0.155
1027.55	0.156
1027.72	0.154
1027.88	0.153
1028.04	0.154
1028.21	0.154
1028.37	0.148
1028.53	0.154
1028.70	0.153
1028.86	0.151
1029.02	0.150
1029.19	0.151
1029.35	0.150
1029.51	0.150
1029.67	0.150
1029.84	0.150
1030.00	0.146
1030.16	0.147
1030.33	0.149
1030.49	0.146
1030.65	0.144
1030.82	0.161
1030.98	0.148
1031.14	0.146
1031.31	0.146
1031.47	0.143
1031.63	0.146
1031.79	0.144
1031.96	0.146
1032.12	0.147
1032.28	0.144
1032.45	0.148
1032.61	0.146
1032.77	0.144
1032.93	0.143
1033.10	0.144
1033.26	0.146
1033.42	0.144
1033.58	0.145
1033.75	0.146
1033.91	0.144
1034.07	0.146
1034.24	0.145
1034.40	0.142
1034.56	0.142
1034.72	0.143
1034.89	0.143
1035.05	0.141
1035.21	0.141
1035.37	0.140
1035.54	0.142
1035.70	0.141
1035.86	0.140
1036.02	0.142
1036.19	0.140
1036.35	0.138
1036.51	0.142
1036.67	0.139
1036.83	0.138
1037.00	0.137
1037.16	0.138
1037.32	0.139
1037.48	0.137
1037.65	0.142
1037.81	0.138
1037.97	0.138
1038.13	0.138
1038.29	0.136
1038.46	0.133
1038.62	0.137
1038.78	0.136
1038.94	0.132
1039.10	0.137
1039.27	0.132
1039.43	0.134
1039.59	0.134
1039.75	0.132
1039.91	0.132
1040.08	0.132
1040.24	0.135
1040.40	0.137
1040.56	0.135
1040.72	0.129
1040.89	0.132
1041.05	0.134
1041.21	0.133
1041.37	0.131
1041.53	0.138
1041.69	0.135
1041.86	0.133
1042.02	0.129
1042.18	0.129
1042.34	0.130
1042.50	0.135
1042.66	0.130
1042.83	0.129
1042.99	0.132
1043.15	0.127
1043.31	0.128
1043.47	0.132
1043.63	0.130
1043.79	0.130
1043.96	0.132
1044.12	0.135
1044.28	0.131
1044.44	0.134
1044.60	0.128
1044.76	0.126
1044.92	0.128
1045.09	0.129
1045.25	0.126
1045.41	0.126
1045.57	0.122
1045.73	0.122
1045.89	0.123
1046.05	0.125
1046.21	0.124
1046.38	0.128
1046.54	0.128
1046.70	0.136
1046.86	0.125
>>>>>End Processed Spectral Data<<<<<
