SpectraSuite Data File
++++++++++++++++++++++++++++++++++++
Date: Mon May 20 12:10:33 CDT 2013
User: Students
Dark Spectrum Present: Yes
Reference Spectrum Present: Yes
Number of Sampled Component Spectra: 1
Spectrometers: USB4H00887
Integration Time (usec): 60000 (USB4H00887)
Spectra Averaged: 5 (USB4H00887)
Boxcar Smoothing: 5 (USB4H00887)
Correct for Electrical Dark: No (USB4H00887)
Strobe/Lamp Enabled: No (USB4H00887)
Correct for Detector Non-linearity: No (USB4H00887)
Correct for Stray Light: No (USB4H00887)
Number of Pixels in Processed Spectrum: 3648
>>>>>Begin Processed Spectral Data<<<<<
345.83	0.012
346.05	0.012
346.26	0.012
346.48	-0.000
346.70	-0.073
346.92	0.089
347.14	0.085
347.35	0.096
347.57	1.344
347.79	-0.308
348.01	-0.176
348.23	-0.295
348.44	-0.000
348.66	0.287
348.88	-0.354
349.10	-0.181
349.32	0.065
349.53	0.011
349.75	0.043
349.97	0.042
350.19	0.088
350.41	0.024
350.62	-0.034
350.84	0.002
351.06	0.007
351.28	-0.046
351.50	-0.180
351.71	-0.134
351.93	-0.130
352.15	-0.027
352.37	-0.118
352.58	-0.026
352.80	0.008
353.02	0.044
353.24	0.075
353.46	0.469
353.67	-0.249
353.89	0.079
354.11	0.066
354.33	0.092
354.54	0.135
354.76	0.314
354.98	0.787
355.20	0.465
355.41	0.161
355.63	0.374
355.85	0.143
356.07	-0.000
356.28	0.122
356.50	0.188
356.72	0.062
356.94	0.183
357.15	0.234
357.37	-0.000
357.59	0.086
357.81	0.036
358.02	0.071
358.24	0.063
358.46	0.152
358.68	0.147
358.89	0.104
359.11	-0.000
359.33	0.083
359.55	-0.449
359.76	0.068
359.98	0.087
360.20	0.075
360.42	0.064
360.63	0.058
360.85	0.010
361.07	0.110
361.29	0.011
361.50	0.099
361.72	0.068
361.94	0.351
362.15	0.172
362.37	0.095
362.59	0.097
362.81	0.153
363.02	0.250
363.24	0.480
363.46	0.237
363.68	0.289
363.89	0.154
364.11	0.181
364.33	0.189
364.54	0.119
364.76	0.144
364.98	0.131
365.20	0.133
365.41	0.101
365.63	0.099
365.85	0.053
366.06	0.120
366.28	0.149
366.50	0.113
366.71	0.053
366.93	0.075
367.15	0.090
367.37	0.108
367.58	0.149
367.80	0.143
368.02	0.435
368.23	0.154
368.45	0.173
368.67	0.137
368.88	0.124
369.10	-0.000
369.32	0.111
369.53	0.068
369.75	0.121
369.97	0.301
370.19	0.199
370.40	0.077
370.62	0.248
370.84	0.107
371.05	0.731
371.27	0.165
371.49	0.196
371.70	0.260
371.92	0.401
372.14	0.151
372.35	0.173
372.57	0.178
372.79	0.596
373.00	0.123
373.22	0.210
373.44	0.189
373.65	0.148
373.87	0.220
374.09	1.406
374.30	0.143
374.52	0.155
374.74	0.090
374.95	0.464
375.17	0.129
375.39	-0.000
375.60	0.128
375.82	0.245
376.04	0.105
376.25	0.119
376.47	0.095
376.68	0.269
376.90	0.160
377.12	0.435
377.33	0.208
377.55	0.513
377.77	0.236
377.98	0.375
378.20	0.194
378.42	0.240
378.63	0.289
378.85	-0.000
379.07	0.186
379.28	0.944
379.50	0.441
379.71	0.209
379.93	0.159
380.15	0.212
380.36	0.372
380.58	0.241
380.80	0.839
381.01	0.203
381.23	0.157
381.44	0.171
381.66	0.194
381.88	0.224
382.09	-0.094
382.31	0.144
382.53	0.152
382.74	0.763
382.96	0.202
383.17	0.167
383.39	0.240
383.61	0.332
383.82	0.221
384.04	0.257
384.25	0.324
384.47	0.314
384.69	0.305
384.90	0.301
385.12	0.760
385.33	0.415
385.55	0.277
385.77	0.454
385.98	0.205
386.20	0.304
386.41	0.247
386.63	0.281
386.85	0.223
387.06	0.270
387.28	0.387
387.49	0.249
387.71	0.190
387.93	0.179
388.14	0.501
388.36	0.203
388.57	0.185
388.79	0.210
389.01	-0.000
389.22	0.281
389.44	0.241
389.65	0.210
389.87	0.220
390.08	0.244
390.30	0.189
390.52	0.391
390.73	0.416
390.95	0.259
391.16	0.266
391.38	-0.000
391.59	0.294
391.81	0.256
392.03	0.230
392.24	0.267
392.46	0.232
392.67	0.215
392.89	0.294
393.10	0.457
393.32	0.319
393.53	0.353
393.75	0.217
393.97	0.264
394.18	0.355
394.40	0.309
394.61	0.318
394.83	0.278
395.04	0.311
395.26	0.210
395.47	0.317
395.69	0.252
395.91	0.274
396.12	0.333
396.34	0.343
396.55	0.225
396.77	0.332
396.98	-0.000
397.20	0.390
397.41	0.479
397.63	0.340
397.84	0.312
398.06	0.310
398.27	0.320
398.49	0.360
398.71	0.251
398.92	0.311
399.14	0.404
399.35	0.501
399.57	0.483
399.78	0.307
400.00	0.285
400.21	0.352
400.43	0.271
400.64	0.284
400.86	0.617
401.07	0.344
401.29	0.289
401.50	0.327
401.72	0.471
401.93	0.297
402.15	0.366
402.36	0.329
402.58	0.274
402.79	0.329
403.01	0.550
403.22	0.435
403.44	0.287
403.65	0.476
403.87	0.518
404.08	0.410
404.30	0.697
404.51	0.353
404.73	0.441
404.94	0.377
405.16	0.366
405.37	0.297
405.59	0.535
405.80	0.344
406.02	0.410
406.23	0.410
406.45	0.458
406.66	0.482
406.88	0.316
407.09	0.495
407.31	0.381
407.52	0.488
407.74	0.384
407.95	0.458
408.17	0.410
408.38	0.442
408.60	0.285
408.81	0.478
409.03	0.370
409.24	0.376
409.45	0.439
409.67	0.425
409.88	0.383
410.10	0.492
410.31	0.408
410.53	0.384
410.74	0.561
410.96	0.541
411.17	0.579
411.39	0.439
411.60	0.403
411.82	0.471
412.03	0.475
412.24	0.443
412.46	0.673
412.67	0.532
412.89	0.543
413.10	0.516
413.32	0.480
413.53	0.556
413.75	0.577
413.96	0.417
414.17	0.580
414.39	0.559
414.60	0.452
414.82	0.615
415.03	0.472
415.25	0.524
415.46	0.365
415.68	0.513
415.89	1.045
416.10	0.763
416.32	0.408
416.53	0.471
416.75	0.445
416.96	0.543
417.18	0.462
417.39	0.447
417.60	0.447
417.82	0.662
418.03	0.579
418.25	0.473
418.46	0.494
418.67	0.444
418.89	0.478
419.10	0.502
419.32	0.695
419.53	0.629
419.75	0.520
419.96	0.455
420.17	0.554
420.39	0.514
420.60	0.528
420.82	0.655
421.03	0.524
421.24	0.439
421.46	0.490
421.67	0.532
421.89	0.451
422.10	0.487
422.31	0.482
422.53	0.694
422.74	0.515
422.96	0.417
423.17	0.463
423.38	0.575
423.60	0.490
423.81	0.601
424.03	0.504
424.24	0.572
424.45	0.574
424.67	0.566
424.88	0.512
425.09	0.556
425.31	0.507
425.52	0.542
425.74	0.619
425.95	0.661
426.16	0.521
426.38	0.625
426.59	0.562
426.80	0.640
427.02	0.685
427.23	0.517
427.45	0.678
427.66	0.663
427.87	0.507
428.09	0.541
428.30	0.611
428.51	0.590
428.73	0.655
428.94	0.587
429.15	0.576
429.37	0.540
429.58	0.581
429.79	0.547
430.01	0.671
430.22	0.671
430.44	0.686
430.65	0.613
430.86	0.664
431.08	0.632
431.29	0.564
431.50	0.684
431.72	0.972
431.93	0.746
432.14	0.539
432.36	0.598
432.57	0.604
432.78	0.636
433.00	0.574
433.21	0.573
433.42	0.723
433.64	0.628
433.85	0.706
434.06	0.569
434.28	0.602
434.49	0.620
434.70	0.626
434.92	0.639
435.13	0.667
435.34	0.681
435.56	0.634
435.77	0.633
435.98	0.814
436.20	0.679
436.41	0.578
436.62	0.564
436.83	0.637
437.05	0.720
437.26	0.636
437.47	0.569
437.69	0.619
437.90	0.570
438.11	0.559
438.33	0.620
438.54	0.641
438.75	0.823
438.97	0.808
439.18	0.602
439.39	0.634
439.60	0.688
439.82	0.643
440.03	0.590
440.24	0.873
440.46	0.651
440.67	0.627
440.88	0.671
441.10	0.622
441.31	0.621
441.52	0.683
441.73	0.771
441.95	0.669
442.16	0.620
442.37	1.007
442.58	0.611
442.80	0.598
443.01	0.769
443.22	0.705
443.44	0.600
443.65	0.713
443.86	0.708
444.07	0.747
444.29	0.653
444.50	0.834
444.71	0.637
444.92	0.593
445.14	0.752
445.35	0.799
445.56	0.619
445.78	0.729
445.99	0.731
446.20	0.628
446.41	0.716
446.63	0.712
446.84	0.662
447.05	0.656
447.26	0.790
447.48	0.682
447.69	0.651
447.90	0.755
448.11	0.669
448.33	0.692
448.54	0.717
448.75	0.754
448.96	0.770
449.18	0.826
449.39	0.730
449.60	0.712
449.81	0.865
450.03	0.739
450.24	0.794
450.45	0.750
450.66	0.731
450.87	0.763
451.09	0.714
451.30	0.687
451.51	0.771
451.72	0.787
451.94	0.803
452.15	0.875
452.36	0.723
452.57	0.747
452.78	0.745
453.00	0.785
453.21	0.731
453.42	0.696
453.63	0.805
453.85	0.760
454.06	0.753
454.27	0.880
454.48	0.776
454.69	0.702
454.91	0.778
455.12	0.677
455.33	0.756
455.54	0.776
455.75	0.747
455.97	0.773
456.18	0.764
456.39	0.771
456.60	0.801
456.81	0.741
457.03	0.753
457.24	0.746
457.45	0.840
457.66	0.784
457.87	0.738
458.09	0.757
458.30	0.673
458.51	0.801
458.72	0.827
458.93	0.843
459.15	0.737
459.36	0.804
459.57	0.833
459.78	0.882
459.99	0.782
460.20	0.746
460.42	0.834
460.63	0.782
460.84	0.763
461.05	0.779
461.26	0.842
461.47	0.756
461.69	0.813
461.90	0.847
462.11	0.802
462.32	0.870
462.53	0.801
462.74	0.903
462.96	0.780
463.17	0.768
463.38	0.820
463.59	0.945
463.80	0.780
464.01	0.804
464.23	0.903
464.44	0.854
464.65	0.858
464.86	0.883
465.07	0.889
465.28	0.845
465.49	0.873
465.71	0.820
465.92	0.860
466.13	0.911
466.34	0.838
466.55	0.894
466.76	0.858
466.97	0.885
467.19	0.874
467.40	0.919
467.61	0.924
467.82	0.836
468.03	0.817
468.24	0.892
468.45	0.932
468.66	0.913
468.88	0.928
469.09	0.928
469.30	0.981
469.51	0.888
469.72	0.930
469.93	0.899
470.14	0.870
470.35	0.966
470.57	0.911
470.78	0.841
470.99	0.978
471.20	0.905
471.41	0.864
471.62	0.920
471.83	0.894
472.04	0.928
472.25	0.973
472.47	0.890
472.68	0.898
472.89	0.905
473.10	0.949
473.31	0.895
473.52	0.958
473.73	0.982
473.94	0.895
474.15	0.926
474.36	0.927
474.57	0.956
474.79	0.919
475.00	0.919
475.21	0.901
475.42	1.003
475.63	0.897
475.84	0.935
476.05	0.939
476.26	0.904
476.47	0.936
476.68	0.987
476.89	0.912
477.10	0.968
477.32	0.958
477.53	1.019
477.74	0.933
477.95	0.974
478.16	0.913
478.37	0.961
478.58	0.969
478.79	0.983
479.00	0.984
479.21	0.938
479.42	0.977
479.63	0.981
479.84	0.940
480.05	0.939
480.26	0.974
480.47	0.999
480.69	1.000
480.90	0.961
481.11	0.962
481.32	1.022
481.53	0.954
481.74	1.017
481.95	0.979
482.16	0.997
482.37	1.004
482.58	0.967
482.79	0.989
483.00	1.020
483.21	0.958
483.42	0.927
483.63	1.014
483.84	1.048
484.05	1.037
484.26	1.003
484.47	1.004
484.68	0.963
484.89	0.970
485.10	1.023
485.31	0.999
485.52	1.006
485.73	1.008
485.94	1.051
486.15	0.991
486.37	1.006
486.58	0.970
486.79	0.984
487.00	1.039
487.21	1.027
487.42	1.020
487.63	1.026
487.84	1.047
488.05	1.039
488.26	0.995
488.47	0.999
488.68	1.030
488.89	1.003
489.10	0.997
489.31	1.007
489.52	1.046
489.73	1.010
489.94	1.048
490.15	1.001
490.36	1.045
490.57	0.994
490.78	0.981
490.99	1.023
491.20	1.111
491.41	1.058
491.62	0.996
491.83	1.027
492.04	1.022
492.25	1.033
492.45	1.032
492.66	1.056
492.87	1.044
493.08	1.028
493.29	1.010
493.50	0.998
493.71	1.010
493.92	1.004
494.13	1.022
494.34	1.045
494.55	1.052
494.76	1.089
494.97	1.086
495.18	1.049
495.39	1.065
495.60	1.008
495.81	1.011
496.02	1.031
496.23	1.025
496.44	1.059
496.65	1.051
496.86	1.056
497.07	1.082
497.28	1.071
497.49	1.013
497.70	1.015
497.91	1.040
498.12	1.020
498.32	1.066
498.53	1.048
498.74	1.036
498.95	1.060
499.16	1.014
499.37	1.022
499.58	1.033
499.79	1.065
500.00	1.060
500.21	1.089
500.42	1.028
500.63	1.030
500.84	1.049
501.05	1.029
501.26	1.060
501.46	1.100
501.67	1.054
501.88	1.057
502.09	1.032
502.30	1.043
502.51	1.097
502.72	1.050
502.93	1.067
503.14	1.095
503.35	1.060
503.56	1.052
503.77	1.089
503.97	1.064
504.18	1.062
504.39	1.101
504.60	1.068
504.81	1.100
505.02	1.083
505.23	1.085
505.44	1.065
505.65	1.076
505.86	1.055
506.07	1.125
506.27	1.076
506.48	1.084
506.69	1.066
506.90	1.088
507.11	1.087
507.32	1.063
507.53	1.072
507.74	1.064
507.95	1.078
508.15	1.085
508.36	1.093
508.57	1.106
508.78	1.089
508.99	1.088
509.20	1.059
509.41	1.083
509.62	1.068
509.82	1.066
510.03	1.077
510.24	1.077
510.45	1.101
510.66	1.093
510.87	1.091
511.08	1.046
511.29	1.092
511.49	1.065
511.70	1.117
511.91	1.045
512.12	1.044
512.33	1.081
512.54	1.095
512.75	1.077
512.95	1.103
513.16	1.089
513.37	1.066
513.58	1.107
513.79	1.068
514.00	1.076
514.20	1.096
514.41	1.083
514.62	1.048
514.83	1.094
515.04	1.081
515.25	1.059
515.46	1.075
515.66	1.074
515.87	1.088
516.08	1.054
516.29	1.081
516.50	1.061
516.71	1.052
516.91	1.061
517.12	1.080
517.33	1.068
517.54	1.054
517.75	1.057
517.95	1.072
518.16	1.082
518.37	1.047
518.58	1.052
518.79	1.023
519.00	1.057
519.20	1.068
519.41	1.039
519.62	1.058
519.83	1.069
520.04	1.028
520.24	1.025
520.45	1.037
520.66	1.062
520.87	1.019
521.08	1.016
521.28	1.020
521.49	1.038
521.70	1.007
521.91	1.020
522.12	1.001
522.32	1.027
522.53	1.007
522.74	0.994
522.95	1.006
523.16	1.008
523.36	1.021
523.57	1.001
523.78	0.996
523.99	1.002
524.20	0.995
524.40	1.008
524.61	1.015
524.82	0.988
525.03	0.995
525.23	0.995
525.44	0.979
525.65	0.975
525.86	1.000
526.06	0.967
526.27	0.966
526.48	0.977
526.69	0.957
526.90	0.959
527.10	0.996
527.31	0.947
527.52	0.939
527.73	0.933
527.93	0.945
528.14	0.950
528.35	0.941
528.56	0.943
528.76	0.935
528.97	0.927
529.18	0.918
529.39	0.918
529.59	0.923
529.80	0.958
530.01	0.928
530.22	0.926
530.42	0.894
530.63	0.912
530.84	0.889
531.05	0.904
531.25	0.907
531.46	0.898
531.67	0.875
531.88	0.893
532.08	0.885
532.29	0.881
532.50	0.873
532.70	0.865
532.91	0.853
533.12	0.856
533.33	0.881
533.53	0.850
533.74	0.850
533.95	0.857
534.15	0.847
534.36	0.847
534.57	0.828
534.78	0.830
534.98	0.840
535.19	0.809
535.40	0.811
535.60	0.830
535.81	0.809
536.02	0.811
536.23	0.801
536.43	0.802
536.64	0.788
536.85	0.797
537.05	0.805
537.26	0.781
537.47	0.784
537.67	0.772
537.88	0.767
538.09	0.774
538.30	0.764
538.50	0.756
538.71	0.768
538.92	0.755
539.12	0.749
539.33	0.746
539.54	0.747
539.74	0.752
539.95	0.741
540.16	0.739
540.36	0.728
540.57	0.729
540.78	0.720
540.98	0.717
541.19	0.715
541.40	0.704
541.60	0.713
541.81	0.707
542.02	0.705
542.22	0.695
542.43	0.690
542.64	0.685
542.84	0.685
543.05	0.677
543.26	0.677
543.46	0.680
543.67	0.678
543.88	0.673
544.08	0.662
544.29	0.657
544.50	0.658
544.70	0.658
544.91	0.649
545.12	0.649
545.32	0.643
545.53	0.647
545.74	0.635
545.94	0.632
546.15	0.630
546.35	0.628
546.56	0.624
546.77	0.620
546.97	0.618
547.18	0.609
547.39	0.610
547.59	0.608
547.80	0.603
548.01	0.607
548.21	0.602
548.42	0.594
548.62	0.592
548.83	0.590
549.04	0.586
549.24	0.579
549.45	0.578
549.65	0.574
549.86	0.570
550.07	0.569
550.27	0.567
550.48	0.574
550.69	0.560
550.89	0.560
551.10	0.555
551.30	0.553
551.51	0.553
551.72	0.542
551.92	0.544
552.13	0.542
552.33	0.542
552.54	0.537
552.75	0.529
552.95	0.530
553.16	0.525
553.36	0.523
553.57	0.521
553.78	0.518
553.98	0.518
554.19	0.509
554.39	0.507
554.60	0.509
554.80	0.509
555.01	0.501
555.22	0.503
555.42	0.499
555.63	0.493
555.83	0.496
556.04	0.490
556.25	0.492
556.45	0.483
556.66	0.481
556.86	0.484
557.07	0.482
557.27	0.481
557.48	0.475
557.68	0.473
557.89	0.474
558.10	0.470
558.30	0.467
558.51	0.465
558.71	0.463
558.92	0.458
559.12	0.459
559.33	0.462
559.54	0.457
559.74	0.454
559.95	0.451
560.15	0.450
560.36	0.448
560.56	0.443
560.77	0.442
560.97	0.442
561.18	0.436
561.38	0.435
561.59	0.438
561.79	0.433
562.00	0.431
562.21	0.427
562.41	0.426
562.62	0.425
562.82	0.423
563.03	0.419
563.23	0.419
563.44	0.419
563.64	0.415
563.85	0.416
564.05	0.409
564.26	0.408
564.46	0.407
564.67	0.408
564.87	0.403
565.08	0.400
565.28	0.400
565.49	0.400
565.69	0.397
565.90	0.394
566.10	0.396
566.31	0.390
566.51	0.392
566.72	0.393
566.92	0.387
567.13	0.386
567.33	0.385
567.54	0.384
567.74	0.382
567.95	0.378
568.15	0.379
568.36	0.379
568.56	0.377
568.77	0.372
568.97	0.371
569.18	0.371
569.38	0.369
569.59	0.370
569.79	0.367
570.00	0.364
570.20	0.363
570.41	0.361
570.61	0.359
570.82	0.360
571.02	0.357
571.23	0.359
571.43	0.354
571.64	0.353
571.84	0.352
572.05	0.350
572.25	0.350
572.45	0.348
572.66	0.345
572.86	0.344
573.07	0.342
573.27	0.342
573.48	0.340
573.68	0.336
573.89	0.336
574.09	0.337
574.30	0.335
574.50	0.333
574.70	0.334
574.91	0.331
575.11	0.331
575.32	0.331
575.52	0.328
575.73	0.328
575.93	0.327
576.14	0.326
576.34	0.324
576.54	0.323
576.75	0.320
576.95	0.319
577.16	0.318
577.36	0.317
577.57	0.317
577.77	0.315
577.97	0.312
578.18	0.314
578.38	0.311
578.59	0.310
578.79	0.309
579.00	0.310
579.20	0.308
579.40	0.307
579.61	0.307
579.81	0.306
580.02	0.303
580.22	0.302
580.42	0.301
580.63	0.301
580.83	0.299
581.04	0.297
581.24	0.296
581.45	0.295
581.65	0.294
581.85	0.293
582.06	0.291
582.26	0.291
582.47	0.290
582.67	0.289
582.87	0.288
583.08	0.285
583.28	0.285
583.48	0.283
583.69	0.280
583.89	0.280
584.10	0.281
584.30	0.279
584.50	0.277
584.71	0.276
584.91	0.276
585.12	0.274
585.32	0.275
585.52	0.273
585.73	0.272
585.93	0.271
586.13	0.271
586.34	0.270
586.54	0.269
586.75	0.267
586.95	0.267
587.15	0.267
587.36	0.266
587.56	0.265
587.76	0.264
587.97	0.263
588.17	0.262
588.37	0.262
588.58	0.262
588.78	0.259
588.98	0.259
589.19	0.258
589.39	0.256
589.60	0.257
589.80	0.255
590.00	0.255
590.21	0.255
590.41	0.252
590.61	0.252
590.82	0.252
591.02	0.252
591.22	0.250
591.43	0.251
591.63	0.249
591.83	0.248
592.04	0.246
592.24	0.247
592.44	0.244
592.65	0.243
592.85	0.243
593.05	0.243
593.26	0.241
593.46	0.241
593.66	0.240
593.86	0.240
594.07	0.238
594.27	0.239
594.47	0.238
594.68	0.237
594.88	0.238
595.08	0.237
595.29	0.237
595.49	0.235
595.69	0.235
595.90	0.234
596.10	0.234
596.30	0.233
596.50	0.232
596.71	0.231
596.91	0.231
597.11	0.230
597.32	0.230
597.52	0.229
597.72	0.228
597.93	0.227
598.13	0.225
598.33	0.225
598.53	0.224
598.74	0.224
598.94	0.223
599.14	0.223
599.35	0.223
599.55	0.222
599.75	0.221
599.95	0.220
600.16	0.221
600.36	0.219
600.56	0.219
600.76	0.218
600.97	0.216
601.17	0.216
601.37	0.216
601.58	0.215
601.78	0.215
601.98	0.214
602.18	0.213
602.39	0.213
602.59	0.212
602.79	0.211
602.99	0.211
603.20	0.210
603.40	0.210
603.60	0.210
603.80	0.209
604.01	0.209
604.21	0.208
604.41	0.207
604.61	0.207
604.82	0.206
605.02	0.207
605.22	0.206
605.42	0.206
605.62	0.205
605.83	0.204
606.03	0.203
606.23	0.204
606.43	0.203
606.64	0.203
606.84	0.202
607.04	0.202
607.24	0.202
607.45	0.202
607.65	0.200
607.85	0.201
608.05	0.199
608.25	0.199
608.46	0.199
608.66	0.199
608.86	0.198
609.06	0.197
609.26	0.196
609.47	0.197
609.67	0.195
609.87	0.196
610.07	0.196
610.28	0.194
610.48	0.195
610.68	0.195
610.88	0.193
611.08	0.193
611.29	0.192
611.49	0.191
611.69	0.192
611.89	0.190
612.09	0.190
612.29	0.189
612.50	0.189
612.70	0.188
612.90	0.187
613.10	0.186
613.30	0.186
613.51	0.186
613.71	0.186
613.91	0.190
614.11	0.185
614.31	0.184
614.51	0.184
614.72	0.184
614.92	0.184
615.12	0.184
615.32	0.185
615.52	0.184
615.72	0.185
615.93	0.184
616.13	0.183
616.33	0.183
616.53	0.183
616.73	0.183
616.93	0.181
617.14	0.182
617.34	0.181
617.54	0.182
617.74	0.182
617.94	0.180
618.14	0.180
618.34	0.180
618.55	0.179
618.75	0.180
618.95	0.180
619.15	0.179
619.35	0.178
619.55	0.177
619.75	0.178
619.96	0.177
620.16	0.177
620.36	0.176
620.56	0.176
620.76	0.175
620.96	0.174
621.16	0.174
621.36	0.174
621.57	0.174
621.77	0.175
621.97	0.173
622.17	0.173
622.37	0.173
622.57	0.173
622.77	0.172
622.97	0.172
623.18	0.172
623.38	0.172
623.58	0.172
623.78	0.171
623.98	0.171
624.18	0.171
624.38	0.170
624.58	0.170
624.78	0.170
624.98	0.170
625.19	0.170
625.39	0.170
625.59	0.169
625.79	0.169
625.99	0.168
626.19	0.168
626.39	0.168
626.59	0.168
626.79	0.168
626.99	0.168
627.19	0.168
627.40	0.168
627.60	0.167
627.80	0.167
628.00	0.167
628.20	0.166
628.40	0.166
628.60	0.166
628.80	0.165
629.00	0.165
629.20	0.165
629.40	0.164
629.60	0.163
629.80	0.163
630.00	0.164
630.20	0.163
630.41	0.162
630.61	0.162
630.81	0.162
631.01	0.162
631.21	0.161
631.41	0.161
631.61	0.162
631.81	0.161
632.01	0.160
632.21	0.161
632.41	0.160
632.61	0.160
632.81	0.160
633.01	0.160
633.21	0.160
633.41	0.160
633.61	0.159
633.81	0.159
634.01	0.159
634.21	0.159
634.41	0.158
634.61	0.159
634.81	0.158
635.01	0.157
635.22	0.158
635.42	0.157
635.62	0.157
635.82	0.158
636.02	0.157
636.22	0.157
636.42	0.156
636.62	0.157
636.82	0.156
637.02	0.156
637.22	0.156
637.42	0.156
637.62	0.155
637.82	0.155
638.02	0.154
638.22	0.154
638.42	0.154
638.62	0.153
638.82	0.153
639.02	0.153
639.22	0.153
639.42	0.152
639.62	0.152
639.82	0.151
640.02	0.152
640.22	0.151
640.42	0.151
640.62	0.151
640.82	0.151
641.02	0.151
641.22	0.151
641.42	0.150
641.61	0.150
641.81	0.151
642.01	0.151
642.21	0.151
642.41	0.151
642.61	0.150
642.81	0.149
643.01	0.149
643.21	0.149
643.41	0.149
643.61	0.149
643.81	0.149
644.01	0.148
644.21	0.147
644.41	0.147
644.61	0.147
644.81	0.147
645.01	0.147
645.21	0.147
645.41	0.147
645.61	0.146
645.81	0.145
646.01	0.145
646.21	0.145
646.40	0.145
646.60	0.145
646.80	0.145
647.00	0.144
647.20	0.143
647.40	0.143
647.60	0.143
647.80	0.143
648.00	0.143
648.20	0.143
648.40	0.143
648.60	0.142
648.80	0.142
649.00	0.142
649.20	0.143
649.39	0.142
649.59	0.142
649.79	0.141
649.99	0.141
650.19	0.140
650.39	0.141
650.59	0.141
650.79	0.140
650.99	0.139
651.19	0.139
651.39	0.139
651.58	0.139
651.78	0.138
651.98	0.138
652.18	0.138
652.38	0.138
652.58	0.138
652.78	0.138
652.98	0.138
653.18	0.138
653.38	0.138
653.57	0.138
653.77	0.138
653.97	0.138
654.17	0.138
654.37	0.137
654.57	0.137
654.77	0.137
654.97	0.137
655.16	0.136
655.36	0.136
655.56	0.135
655.76	0.134
655.96	0.135
656.16	0.133
656.36	0.133
656.56	0.133
656.75	0.133
656.95	0.133
657.15	0.133
657.35	0.132
657.55	0.132
657.75	0.133
657.95	0.133
658.14	0.132
658.34	0.133
658.54	0.133
658.74	0.132
658.94	0.132
659.14	0.132
659.34	0.131
659.53	0.131
659.73	0.131
659.93	0.130
660.13	0.130
660.33	0.130
660.53	0.129
660.72	0.130
660.92	0.130
661.12	0.129
661.32	0.129
661.52	0.128
661.72	0.129
661.91	0.128
662.11	0.128
662.31	0.129
662.51	0.128
662.71	0.128
662.90	0.127
663.10	0.127
663.30	0.127
663.50	0.127
663.70	0.126
663.90	0.126
664.09	0.126
664.29	0.125
664.49	0.125
664.69	0.125
664.89	0.125
665.08	0.125
665.28	0.124
665.48	0.124
665.68	0.123
665.88	0.123
666.07	0.123
666.27	0.123
666.47	0.123
666.67	0.123
666.87	0.123
667.06	0.122
667.26	0.122
667.46	0.123
667.66	0.123
667.85	0.123
668.05	0.123
668.25	0.123
668.45	0.123
668.65	0.123
668.84	0.122
669.04	0.122
669.24	0.122
669.44	0.121
669.63	0.121
669.83	0.120
670.03	0.119
670.23	0.119
670.42	0.119
670.62	0.118
670.82	0.118
671.02	0.118
671.22	0.117
671.41	0.117
671.61	0.117
671.81	0.117
672.01	0.118
672.20	0.117
672.40	0.117
672.60	0.117
672.80	0.117
672.99	0.117
673.19	0.116
673.39	0.116
673.58	0.116
673.78	0.115
673.98	0.115
674.18	0.114
674.37	0.114
674.57	0.114
674.77	0.114
674.97	0.114
675.16	0.114
675.36	0.114
675.56	0.114
675.75	0.114
675.95	0.113
676.15	0.114
676.35	0.114
676.54	0.114
676.74	0.113
676.94	0.113
677.13	0.112
677.33	0.112
677.53	0.112
677.73	0.111
677.92	0.111
678.12	0.111
678.32	0.110
678.51	0.110
678.71	0.110
678.91	0.110
679.11	0.110
679.30	0.110
679.50	0.109
679.70	0.109
679.89	0.109
680.09	0.110
680.29	0.109
680.48	0.109
680.68	0.108
680.88	0.108
681.07	0.109
681.27	0.108
681.47	0.108
681.66	0.108
681.86	0.107
682.06	0.107
682.25	0.107
682.45	0.107
682.65	0.107
682.84	0.106
683.04	0.106
683.24	0.106
683.43	0.107
683.63	0.106
683.83	0.106
684.02	0.106
684.22	0.105
684.42	0.106
684.61	0.105
684.81	0.105
685.01	0.105
685.20	0.105
685.40	0.105
685.60	0.104
685.79	0.104
685.99	0.104
686.19	0.104
686.38	0.103
686.58	0.104
686.77	0.104
686.97	0.103
687.17	0.103
687.36	0.103
687.56	0.103
687.76	0.103
687.95	0.103
688.15	0.103
688.34	0.103
688.54	0.102
688.74	0.102
688.93	0.101
689.13	0.102
689.33	0.102
689.52	0.101
689.72	0.102
689.91	0.101
690.11	0.100
690.31	0.100
690.50	0.100
690.70	0.100
690.89	0.099
691.09	0.099
691.29	0.099
691.48	0.098
691.68	0.098
691.87	0.098
692.07	0.098
692.27	0.099
692.46	0.099
692.66	0.098
692.85	0.098
693.05	0.098
693.25	0.099
693.44	0.098
693.64	0.098
693.83	0.098
694.03	0.098
694.22	0.097
694.42	0.097
694.62	0.097
694.81	0.098
695.01	0.098
695.20	0.098
695.40	0.097
695.59	0.097
695.79	0.097
695.99	0.097
696.18	0.097
696.38	0.097
696.57	0.096
696.77	0.096
696.96	0.096
697.16	0.095
697.36	0.095
697.55	0.095
697.75	0.095
697.94	0.094
698.14	0.095
698.33	0.094
698.53	0.094
698.72	0.094
698.92	0.094
699.11	0.094
699.31	0.094
699.51	0.094
699.70	0.093
699.90	0.094
700.09	0.094
700.29	0.093
700.48	0.093
700.68	0.093
700.87	0.093
701.07	0.093
701.26	0.092
701.46	0.092
701.65	0.092
701.85	0.092
702.04	0.091
702.24	0.091
702.43	0.091
702.63	0.091
702.82	0.091
703.02	0.091
703.21	0.091
703.41	0.091
703.60	0.091
703.80	0.091
703.99	0.091
704.19	0.091
704.38	0.091
704.58	0.090
704.77	0.090
704.97	0.090
705.16	0.090
705.36	0.090
705.55	0.090
705.75	0.090
705.94	0.090
706.14	0.090
706.33	0.090
706.53	0.090
706.72	0.090
706.92	0.090
707.11	0.089
707.31	0.089
707.50	0.089
707.70	0.089
707.89	0.089
708.09	0.089
708.28	0.088
708.48	0.089
708.67	0.088
708.86	0.088
709.06	0.088
709.25	0.088
709.45	0.088
709.64	0.088
709.84	0.088
710.03	0.087
710.23	0.088
710.42	0.087
710.62	0.088
710.81	0.087
711.00	0.088
711.20	0.087
711.39	0.087
711.59	0.087
711.78	0.087
711.98	0.087
712.17	0.087
712.37	0.087
712.56	0.086
712.75	0.086
712.95	0.086
713.14	0.086
713.34	0.086
713.53	0.086
713.73	0.087
713.92	0.086
714.11	0.086
714.31	0.086
714.50	0.087
714.70	0.087
714.89	0.086
715.08	0.086
715.28	0.087
715.47	0.086
715.67	0.086
715.86	0.086
716.06	0.086
716.25	0.086
716.44	0.086
716.64	0.085
716.83	0.085
717.03	0.085
717.22	0.085
717.41	0.085
717.61	0.085
717.80	0.085
717.99	0.085
718.19	0.085
718.38	0.086
718.58	0.085
718.77	0.085
718.96	0.085
719.16	0.085
719.35	0.085
719.55	0.084
719.74	0.084
719.93	0.084
720.13	0.084
720.32	0.083
720.51	0.083
720.71	0.084
720.90	0.084
721.10	0.084
721.29	0.084
721.48	0.084
721.68	0.084
721.87	0.084
722.06	0.084
722.26	0.084
722.45	0.084
722.64	0.084
722.84	0.084
723.03	0.084
723.22	0.084
723.42	0.084
723.61	0.084
723.80	0.084
724.00	0.084
724.19	0.084
724.38	0.084
724.58	0.084
724.77	0.084
724.96	0.084
725.16	0.084
725.35	0.084
725.54	0.084
725.74	0.084
725.93	0.084
726.12	0.084
726.32	0.084
726.51	0.084
726.70	0.084
726.90	0.084
727.09	0.084
727.28	0.084
727.48	0.084
727.67	0.084
727.86	0.084
728.06	0.084
728.25	0.084
728.44	0.084
728.64	0.084
728.83	0.084
729.02	0.084
729.21	0.084
729.41	0.083
729.60	0.083
729.79	0.083
729.99	0.083
730.18	0.083
730.37	0.083
730.56	0.082
730.76	0.082
730.95	0.082
731.14	0.082
731.34	0.082
731.53	0.083
731.72	0.083
731.91	0.083
732.11	0.083
732.30	0.083
732.49	0.083
732.69	0.083
732.88	0.084
733.07	0.084
733.26	0.084
733.46	0.083
733.65	0.084
733.84	0.084
734.03	0.084
734.23	0.084
734.42	0.084
734.61	0.084
734.80	0.084
735.00	0.084
735.19	0.084
735.38	0.084
735.57	0.084
735.77	0.084
735.96	0.084
736.15	0.084
736.34	0.084
736.54	0.084
736.73	0.084
736.92	0.084
737.11	0.084
737.31	0.084
737.50	0.084
737.69	0.084
737.88	0.084
738.07	0.084
738.27	0.083
738.46	0.083
738.65	0.083
738.84	0.083
739.04	0.084
739.23	0.083
739.42	0.083
739.61	0.083
739.80	0.083
740.00	0.083
740.19	0.083
740.38	0.084
740.57	0.083
740.76	0.083
740.96	0.083
741.15	0.083
741.34	0.083
741.53	0.083
741.72	0.083
741.92	0.082
742.11	0.082
742.30	0.082
742.49	0.082
742.68	0.082
742.88	0.082
743.07	0.082
743.26	0.082
743.45	0.082
743.64	0.082
743.84	0.081
744.03	0.082
744.22	0.082
744.41	0.082
744.60	0.081
744.79	0.081
744.99	0.081
745.18	0.081
745.37	0.081
745.56	0.080
745.75	0.080
745.94	0.080
746.14	0.080
746.33	0.081
746.52	0.081
746.71	0.080
746.90	0.080
747.09	0.080
747.28	0.080
747.48	0.081
747.67	0.080
747.86	0.080
748.05	0.080
748.24	0.080
748.43	0.080
748.62	0.079
748.82	0.080
749.01	0.080
749.20	0.080
749.39	0.080
749.58	0.080
749.77	0.080
749.96	0.080
750.16	0.080
750.35	0.080
750.54	0.080
750.73	0.080
750.92	0.080
751.11	0.080
751.30	0.080
751.49	0.080
751.68	0.080
751.88	0.080
752.07	0.079
752.26	0.079
752.45	0.079
752.64	0.079
752.83	0.079
753.02	0.079
753.21	0.079
753.40	0.079
753.60	0.079
753.79	0.079
753.98	0.079
754.17	0.079
754.36	0.079
754.55	0.079
754.74	0.079
754.93	0.078
755.12	0.079
755.31	0.079
755.50	0.078
755.70	0.078
755.89	0.078
756.08	0.078
756.27	0.078
756.46	0.079
756.65	0.078
756.84	0.078
757.03	0.078
757.22	0.077
757.41	0.078
757.60	0.077
757.79	0.078
757.98	0.077
758.17	0.077
758.36	0.077
758.56	0.077
758.75	0.077
758.94	0.077
759.13	0.077
759.32	0.077
759.51	0.076
759.70	0.077
759.89	0.077
760.08	0.077
760.27	0.076
760.46	0.077
760.65	0.076
760.84	0.076
761.03	0.076
761.22	0.076
761.41	0.077
761.60	0.077
761.79	0.076
761.98	0.076
762.17	0.076
762.36	0.076
762.55	0.076
762.74	0.076
762.93	0.076
763.12	0.076
763.31	0.076
763.50	0.075
763.69	0.075
763.88	0.076
764.07	0.075
764.26	0.076
764.45	0.076
764.64	0.076
764.83	0.076
765.02	0.076
765.21	0.076
765.40	0.076
765.59	0.076
765.78	0.076
765.97	0.076
766.16	0.076
766.35	0.076
766.54	0.076
766.73	0.076
766.92	0.076
767.11	0.076
767.30	0.076
767.49	0.076
767.68	0.076
767.87	0.076
768.06	0.075
768.25	0.075
768.44	0.075
768.63	0.075
768.82	0.075
769.01	0.075
769.20	0.075
769.39	0.075
769.58	0.075
769.77	0.075
769.96	0.075
770.15	0.075
770.34	0.075
770.53	0.075
770.72	0.075
770.91	0.074
771.10	0.075
771.29	0.074
771.47	0.074
771.66	0.074
771.85	0.074
772.04	0.074
772.23	0.074
772.42	0.074
772.61	0.074
772.80	0.074
772.99	0.074
773.18	0.074
773.37	0.075
773.56	0.074
773.75	0.074
773.94	0.074
774.13	0.074
774.31	0.074
774.50	0.074
774.69	0.074
774.88	0.073
775.07	0.073
775.26	0.073
775.45	0.072
775.64	0.072
775.83	0.072
776.02	0.072
776.21	0.072
776.40	0.073
776.58	0.073
776.77	0.073
776.96	0.073
777.15	0.073
777.34	0.073
777.53	0.073
777.72	0.074
777.91	0.074
778.10	0.074
778.28	0.073
778.47	0.073
778.66	0.073
778.85	0.073
779.04	0.072
779.23	0.072
779.42	0.072
779.61	0.072
779.79	0.072
779.98	0.071
780.17	0.071
780.36	0.071
780.55	0.071
780.74	0.071
780.93	0.071
781.12	0.071
781.30	0.071
781.49	0.071
781.68	0.072
781.87	0.072
782.06	0.072
782.25	0.071
782.44	0.072
782.62	0.071
782.81	0.072
783.00	0.072
783.19	0.071
783.38	0.071
783.57	0.071
783.75	0.070
783.94	0.070
784.13	0.070
784.32	0.070
784.51	0.070
784.70	0.071
784.88	0.070
785.07	0.070
785.26	0.070
785.45	0.070
785.64	0.070
785.83	0.070
786.01	0.070
786.20	0.070
786.39	0.070
786.58	0.070
786.77	0.070
786.95	0.070
787.14	0.070
787.33	0.070
787.52	0.070
787.71	0.070
787.90	0.070
788.08	0.070
788.27	0.070
788.46	0.070
788.65	0.070
788.84	0.070
789.02	0.070
789.21	0.070
789.40	0.070
789.59	0.070
789.77	0.070
789.96	0.070
790.15	0.070
790.34	0.070
790.53	0.070
790.71	0.069
790.90	0.069
791.09	0.069
791.28	0.069
791.46	0.070
791.65	0.069
791.84	0.070
792.03	0.070
792.22	0.070
792.40	0.069
792.59	0.070
792.78	0.070
792.97	0.070
793.15	0.070
793.34	0.069
793.53	0.069
793.72	0.069
793.90	0.069
794.09	0.069
794.28	0.069
794.47	0.069
794.65	0.068
794.84	0.068
795.03	0.068
795.22	0.068
795.40	0.069
795.59	0.068
795.78	0.068
795.97	0.069
796.15	0.069
796.34	0.069
796.53	0.069
796.71	0.069
796.90	0.069
797.09	0.069
797.28	0.069
797.46	0.069
797.65	0.069
797.84	0.069
798.02	0.069
798.21	0.068
798.40	0.068
798.59	0.068
798.77	0.068
798.96	0.068
799.15	0.067
799.33	0.068
799.52	0.067
799.71	0.067
799.90	0.068
800.08	0.068
800.27	0.068
800.46	0.068
800.64	0.068
800.83	0.068
801.02	0.068
801.20	0.068
801.39	0.068
801.58	0.068
801.76	0.068
801.95	0.068
802.14	0.068
802.32	0.068
802.51	0.068
802.70	0.068
802.88	0.068
803.07	0.068
803.26	0.067
803.44	0.067
803.63	0.068
803.82	0.068
804.00	0.068
804.19	0.068
804.38	0.068
804.56	0.068
804.75	0.068
804.94	0.068
805.12	0.068
805.31	0.068
805.50	0.069
805.68	0.068
805.87	0.069
806.06	0.068
806.24	0.069
806.43	0.069
806.62	0.069
806.80	0.069
806.99	0.068
807.17	0.068
807.36	0.068
807.55	0.068
807.73	0.068
807.92	0.068
808.11	0.068
808.29	0.067
808.48	0.067
808.66	0.067
808.85	0.066
809.04	0.066
809.22	0.067
809.41	0.067
809.59	0.066
809.78	0.066
809.97	0.066
810.15	0.066
810.34	0.066
810.53	0.066
810.71	0.066
810.90	0.066
811.08	0.066
811.27	0.066
811.45	0.066
811.64	0.066
811.83	0.067
812.01	0.067
812.20	0.067
812.38	0.067
812.57	0.067
812.76	0.067
812.94	0.067
813.13	0.067
813.31	0.067
813.50	0.067
813.68	0.067
813.87	0.066
814.06	0.067
814.24	0.067
814.43	0.067
814.61	0.067
814.80	0.067
814.98	0.067
815.17	0.066
815.36	0.066
815.54	0.066
815.73	0.066
815.91	0.066
816.10	0.066
816.28	0.066
816.47	0.066
816.65	0.066
816.84	0.066
817.03	0.067
817.21	0.067
817.40	0.067
817.58	0.067
817.77	0.067
817.95	0.067
818.14	0.067
818.32	0.067
818.51	0.067
818.69	0.067
818.88	0.067
819.06	0.067
819.25	0.067
819.43	0.067
819.62	0.067
819.80	0.067
819.99	0.067
820.18	0.067
820.36	0.066
820.55	0.067
820.73	0.067
820.92	0.067
821.10	0.067
821.29	0.067
821.47	0.066
821.66	0.067
821.84	0.067
822.03	0.067
822.21	0.067
822.40	0.067
822.58	0.067
822.77	0.067
822.95	0.067
823.14	0.067
823.32	0.068
823.50	0.068
823.69	0.068
823.87	0.068
824.06	0.068
824.24	0.068
824.43	0.068
824.61	0.068
824.80	0.068
824.98	0.068
825.17	0.068
825.35	0.068
825.54	0.068
825.72	0.068
825.91	0.068
826.09	0.068
826.28	0.068
826.46	0.069
826.64	0.069
826.83	0.069
827.01	0.069
827.20	0.069
827.38	0.069
827.57	0.069
827.75	0.069
827.94	0.069
828.12	0.070
828.31	0.070
828.49	0.070
828.67	0.070
828.86	0.070
829.04	0.070
829.23	0.070
829.41	0.070
829.60	0.070
829.78	0.070
829.96	0.071
830.15	0.071
830.33	0.071
830.52	0.071
830.70	0.071
830.88	0.071
831.07	0.072
831.25	0.072
831.44	0.072
831.62	0.072
831.81	0.072
831.99	0.071
832.17	0.071
832.36	0.072
832.54	0.072
832.73	0.072
832.91	0.072
833.09	0.072
833.28	0.072
833.46	0.072
833.65	0.072
833.83	0.072
834.01	0.072
834.20	0.072
834.38	0.072
834.56	0.072
834.75	0.073
834.93	0.073
835.12	0.073
835.30	0.073
835.48	0.073
835.67	0.073
835.85	0.073
836.03	0.073
836.22	0.073
836.40	0.073
836.59	0.073
836.77	0.073
836.95	0.073
837.14	0.073
837.32	0.073
837.50	0.073
837.69	0.073
837.87	0.073
838.05	0.073
838.24	0.073
838.42	0.073
838.60	0.073
838.79	0.074
838.97	0.073
839.15	0.074
839.34	0.074
839.52	0.074
839.70	0.074
839.89	0.074
840.07	0.075
840.25	0.074
840.44	0.074
840.62	0.074
840.80	0.074
840.99	0.074
841.17	0.073
841.35	0.073
841.54	0.073
841.72	0.074
841.90	0.074
842.09	0.074
842.27	0.074
842.45	0.074
842.64	0.074
842.82	0.074
843.00	0.074
843.19	0.074
843.37	0.074
843.55	0.074
843.73	0.074
843.92	0.074
844.10	0.074
844.28	0.074
844.47	0.074
844.65	0.074
844.83	0.074
845.01	0.074
845.20	0.074
845.38	0.075
845.56	0.075
845.75	0.075
845.93	0.075
846.11	0.075
846.29	0.075
846.48	0.075
846.66	0.075
846.84	0.075
847.02	0.075
847.21	0.075
847.39	0.075
847.57	0.075
847.76	0.075
847.94	0.075
848.12	0.075
848.30	0.075
848.49	0.075
848.67	0.075
848.85	0.075
849.03	0.075
849.22	0.075
849.40	0.076
849.58	0.076
849.76	0.076
849.95	0.076
850.13	0.076
850.31	0.076
850.49	0.076
850.67	0.076
850.86	0.076
851.04	0.076
851.22	0.076
851.40	0.075
851.59	0.075
851.77	0.075
851.95	0.075
852.13	0.075
852.31	0.074
852.50	0.075
852.68	0.075
852.86	0.075
853.04	0.075
853.23	0.075
853.41	0.075
853.59	0.075
853.77	0.076
853.95	0.076
854.14	0.076
854.32	0.076
854.50	0.076
854.68	0.075
854.86	0.075
855.04	0.075
855.23	0.075
855.41	0.075
855.59	0.076
855.77	0.076
855.95	0.076
856.14	0.076
856.32	0.076
856.50	0.076
856.68	0.076
856.86	0.076
857.04	0.076
857.23	0.076
857.41	0.076
857.59	0.075
857.77	0.076
857.95	0.075
858.13	0.075
858.32	0.076
858.50	0.076
858.68	0.075
858.86	0.075
859.04	0.076
859.22	0.076
859.41	0.076
859.59	0.076
859.77	0.076
859.95	0.076
860.13	0.076
860.31	0.076
860.49	0.076
860.68	0.076
860.86	0.076
861.04	0.076
861.22	0.075
861.40	0.075
861.58	0.075
861.76	0.075
861.94	0.075
862.13	0.075
862.31	0.075
862.49	0.075
862.67	0.076
862.85	0.076
863.03	0.076
863.21	0.076
863.39	0.077
863.57	0.077
863.76	0.077
863.94	0.077
864.12	0.078
864.30	0.077
864.48	0.077
864.66	0.077
864.84	0.077
865.02	0.077
865.20	0.077
865.38	0.078
865.57	0.078
865.75	0.078
865.93	0.078
866.11	0.077
866.29	0.077
866.47	0.078
866.65	0.078
866.83	0.078
867.01	0.078
867.19	0.077
867.37	0.077
867.55	0.077
867.73	0.077
867.92	0.077
868.10	0.077
868.28	0.077
868.46	0.077
868.64	0.077
868.82	0.077
869.00	0.077
869.18	0.077
869.36	0.077
869.54	0.078
869.72	0.078
869.90	0.078
870.08	0.078
870.26	0.078
870.44	0.078
870.62	0.078
870.80	0.078
870.98	0.078
871.16	0.078
871.34	0.078
871.53	0.078
871.71	0.078
871.89	0.078
872.07	0.078
872.25	0.078
872.43	0.078
872.61	0.078
872.79	0.078
872.97	0.078
873.15	0.078
873.33	0.079
873.51	0.079
873.69	0.079
873.87	0.079
874.05	0.080
874.23	0.079
874.41	0.079
874.59	0.079
874.77	0.079
874.95	0.079
875.13	0.079
875.31	0.079
875.49	0.079
875.67	0.079
875.85	0.079
876.03	0.079
876.21	0.079
876.39	0.079
876.57	0.079
876.75	0.079
876.93	0.079
877.11	0.079
877.29	0.079
877.47	0.079
877.65	0.080
877.82	0.080
878.00	0.080
878.18	0.080
878.36	0.080
878.54	0.080
878.72	0.080
878.90	0.080
879.08	0.080
879.26	0.079
879.44	0.080
879.62	0.080
879.80	0.080
879.98	0.080
880.16	0.079
880.34	0.079
880.52	0.079
880.70	0.079
880.88	0.079
881.06	0.079
881.24	0.079
881.42	0.079
881.59	0.078
881.77	0.078
881.95	0.078
882.13	0.079
882.31	0.079
882.49	0.079
882.67	0.079
882.85	0.079
883.03	0.079
883.21	0.080
883.39	0.080
883.57	0.080
883.75	0.080
883.92	0.080
884.10	0.080
884.28	0.080
884.46	0.080
884.64	0.080
884.82	0.080
885.00	0.080
885.18	0.081
885.36	0.081
885.54	0.081
885.71	0.081
885.89	0.081
886.07	0.081
886.25	0.081
886.43	0.082
886.61	0.082
886.79	0.081
886.97	0.081
887.15	0.081
887.32	0.081
887.50	0.081
887.68	0.081
887.86	0.081
888.04	0.081
888.22	0.081
888.40	0.081
888.57	0.081
888.75	0.081
888.93	0.082
889.11	0.082
889.29	0.082
889.47	0.082
889.65	0.082
889.82	0.082
890.00	0.082
890.18	0.082
890.36	0.082
890.54	0.083
890.72	0.083
890.90	0.082
891.07	0.083
891.25	0.082
891.43	0.082
891.61	0.082
891.79	0.082
891.97	0.082
892.14	0.082
892.32	0.082
892.50	0.082
892.68	0.082
892.86	0.083
893.03	0.083
893.21	0.083
893.39	0.083
893.57	0.084
893.75	0.083
893.93	0.083
894.10	0.083
894.28	0.083
894.46	0.083
894.64	0.083
894.82	0.084
894.99	0.083
895.17	0.083
895.35	0.083
895.53	0.083
895.71	0.083
895.88	0.083
896.06	0.083
896.24	0.084
896.42	0.084
896.59	0.084
896.77	0.084
896.95	0.084
897.13	0.084
897.31	0.084
897.48	0.084
897.66	0.084
897.84	0.084
898.02	0.084
898.19	0.084
898.37	0.084
898.55	0.084
898.73	0.084
898.91	0.084
899.08	0.084
899.26	0.084
899.44	0.084
899.62	0.084
899.79	0.084
899.97	0.084
900.15	0.084
900.33	0.084
900.50	0.084
900.68	0.084
900.86	0.085
901.04	0.085
901.21	0.085
901.39	0.085
901.57	0.085
901.74	0.084
901.92	0.085
902.10	0.085
902.28	0.085
902.45	0.086
902.63	0.086
902.81	0.085
902.99	0.085
903.16	0.085
903.34	0.086
903.52	0.086
903.69	0.085
903.87	0.085
904.05	0.085
904.22	0.085
904.40	0.085
904.58	0.085
904.76	0.086
904.93	0.086
905.11	0.086
905.29	0.086
905.46	0.086
905.64	0.086
905.82	0.086
905.99	0.086
906.17	0.086
906.35	0.086
906.53	0.086
906.70	0.086
906.88	0.086
907.06	0.086
907.23	0.086
907.41	0.087
907.59	0.087
907.76	0.087
907.94	0.087
908.12	0.087
908.29	0.087
908.47	0.088
908.65	0.088
908.82	0.088
909.00	0.088
909.18	0.088
909.35	0.088
909.53	0.088
909.71	0.088
909.88	0.088
910.06	0.088
910.23	0.088
910.41	0.088
910.59	0.088
910.76	0.087
910.94	0.087
911.12	0.087
911.29	0.088
911.47	0.088
911.65	0.088
911.82	0.088
912.00	0.089
912.17	0.089
912.35	0.089
912.53	0.089
912.70	0.089
912.88	0.090
913.06	0.090
913.23	0.090
913.41	0.090
913.58	0.090
913.76	0.090
913.94	0.090
914.11	0.090
914.29	0.090
914.46	0.091
914.64	0.091
914.82	0.091
914.99	0.091
915.17	0.091
915.34	0.091
915.52	0.091
915.70	0.092
915.87	0.092
916.05	0.092
916.22	0.092
916.40	0.092
916.57	0.092
916.75	0.092
916.93	0.092
917.10	0.092
917.28	0.092
917.45	0.092
917.63	0.092
917.80	0.092
917.98	0.092
918.16	0.092
918.33	0.093
918.51	0.093
918.68	0.093
918.86	0.093
919.03	0.093
919.21	0.093
919.39	0.094
919.56	0.094
919.74	0.095
919.91	0.094
920.09	0.095
920.26	0.095
920.44	0.095
920.61	0.095
920.79	0.095
920.96	0.095
921.14	0.096
921.31	0.096
921.49	0.096
921.67	0.096
921.84	0.096
922.02	0.097
922.19	0.097
922.37	0.097
922.54	0.098
922.72	0.098
922.89	0.098
923.07	0.098
923.24	0.099
923.42	0.099
923.59	0.099
923.77	0.099
923.94	0.100
924.12	0.100
924.29	0.101
924.47	0.101
924.64	0.101
924.82	0.101
924.99	0.102
925.17	0.102
925.34	0.102
925.52	0.103
925.69	0.103
925.87	0.103
926.04	0.103
926.22	0.104
926.39	0.104
926.57	0.104
926.74	0.104
926.91	0.105
927.09	0.105
927.26	0.105
927.44	0.105
927.61	0.105
927.79	0.106
927.96	0.106
928.14	0.107
928.31	0.107
928.49	0.107
928.66	0.108
928.84	0.109
929.01	0.109
929.18	0.110
929.36	0.110
929.53	0.111
929.71	0.111
929.88	0.111
930.06	0.112
930.23	0.112
930.41	0.112
930.58	0.113
930.75	0.113
930.93	0.114
931.10	0.114
931.28	0.114
931.45	0.114
931.63	0.115
931.80	0.115
931.97	0.115
932.15	0.116
932.32	0.116
932.50	0.117
932.67	0.117
932.84	0.118
933.02	0.118
933.19	0.119
933.37	0.120
933.54	0.120
933.71	0.121
933.89	0.122
934.06	0.122
934.24	0.123
934.41	0.123
934.58	0.123
934.76	0.124
934.93	0.125
935.11	0.125
935.28	0.125
935.45	0.125
935.63	0.125
935.80	0.126
935.98	0.126
936.15	0.126
936.32	0.127
936.50	0.127
936.67	0.127
936.84	0.127
937.02	0.128
937.19	0.129
937.36	0.130
937.54	0.130
937.71	0.132
937.89	0.132
938.06	0.133
938.23	0.133
938.41	0.134
938.58	0.134
938.75	0.134
938.93	0.135
939.10	0.135
939.27	0.136
939.45	0.137
939.62	0.137
939.79	0.138
939.97	0.138
940.14	0.139
940.31	0.139
940.49	0.139
940.66	0.140
940.83	0.141
941.01	0.141
941.18	0.142
941.35	0.143
941.53	0.144
941.70	0.144
941.87	0.145
942.05	0.145
942.22	0.146
942.39	0.147
942.57	0.147
942.74	0.149
942.91	0.149
943.08	0.149
943.26	0.150
943.43	0.150
943.60	0.151
943.78	0.152
943.95	0.153
944.12	0.153
944.29	0.154
944.47	0.154
944.64	0.155
944.81	0.157
944.99	0.157
945.16	0.158
945.33	0.158
945.50	0.159
945.68	0.159
945.85	0.160
946.02	0.161
946.20	0.162
946.37	0.163
946.54	0.164
946.71	0.165
946.89	0.165
947.06	0.166
947.23	0.167
947.40	0.168
947.58	0.168
947.75	0.170
947.92	0.170
948.09	0.171
948.27	0.172
948.44	0.173
948.61	0.174
948.78	0.174
948.96	0.176
949.13	0.176
949.30	0.177
949.47	0.178
949.65	0.179
949.82	0.182
949.99	0.182
950.16	0.184
950.33	0.185
950.51	0.187
950.68	0.188
950.85	0.189
951.02	0.191
951.20	0.192
951.37	0.193
951.54	0.194
951.71	0.195
951.88	0.196
952.06	0.196
952.23	0.197
952.40	0.199
952.57	0.200
952.74	0.201
952.92	0.202
953.09	0.204
953.26	0.205
953.43	0.206
953.60	0.207
953.77	0.208
953.95	0.209
954.12	0.211
954.29	0.212
954.46	0.214
954.63	0.215
954.81	0.216
954.98	0.216
955.15	0.219
955.32	0.220
955.49	0.220
955.66	0.222
955.84	0.223
956.01	0.223
956.18	0.226
956.35	0.227
956.52	0.227
956.69	0.230
956.87	0.230
957.04	0.230
957.21	0.233
957.38	0.232
957.55	0.234
957.72	0.235
957.89	0.236
958.07	0.236
958.24	0.239
958.41	0.240
958.58	0.239
958.75	0.240
958.92	0.242
959.09	0.242
959.26	0.243
959.44	0.243
959.61	0.245
959.78	0.245
959.95	0.247
960.12	0.247
960.29	0.249
960.46	0.248
960.63	0.249
960.81	0.249
960.98	0.249
961.15	0.250
961.32	0.251
961.49	0.250
961.66	0.252
961.83	0.252
962.00	0.252
962.17	0.253
962.34	0.253
962.52	0.254
962.69	0.254
962.86	0.254
963.03	0.255
963.20	0.255
963.37	0.255
963.54	0.255
963.71	0.255
963.88	0.255
964.05	0.256
964.22	0.257
964.39	0.256
964.56	0.256
964.74	0.257
964.91	0.257
965.08	0.257
965.25	0.257
965.42	0.257
965.59	0.258
965.76	0.258
965.93	0.259
966.10	0.257
966.27	0.258
966.44	0.258
966.61	0.259
966.78	0.259
966.95	0.258
967.12	0.260
967.29	0.261
967.46	0.261
967.63	0.260
967.80	0.261
967.97	0.261
968.14	0.261
968.32	0.261
968.49	0.262
968.66	0.261
968.83	0.261
969.00	0.261
969.17	0.261
969.34	0.262
969.51	0.263
969.68	0.262
969.85	0.263
970.02	0.263
970.19	0.263
970.36	0.264
970.53	0.264
970.70	0.263
970.87	0.263
971.04	0.263
971.21	0.263
971.38	0.263
971.55	0.263
971.72	0.263
971.89	0.264
972.06	0.263
972.23	0.263
972.40	0.263
972.57	0.262
972.74	0.262
972.91	0.263
973.07	0.263
973.24	0.262
973.41	0.262
973.58	0.261
973.75	0.273
973.92	0.262
974.09	0.262
974.26	0.262
974.43	0.261
974.60	0.263
974.77	0.263
974.94	0.263
975.11	0.263
975.28	0.264
975.45	0.262
975.62	0.263
975.79	0.264
975.96	0.262
976.13	0.261
976.30	0.263
976.47	0.261
976.64	0.261
976.80	0.261
976.97	0.261
977.14	0.261
977.31	0.261
977.48	0.262
977.65	0.261
977.82	0.260
977.99	0.261
978.16	0.261
978.33	0.260
978.50	0.260
978.67	0.260
978.83	0.260
979.00	0.260
979.17	0.260
979.34	0.259
979.51	0.258
979.68	0.259
979.85	0.258
980.02	0.259
980.19	0.257
980.36	0.258
980.52	0.259
980.69	0.257
980.86	0.257
981.03	0.257
981.20	0.256
981.37	0.257
981.54	0.258
981.71	0.257
981.88	0.257
982.04	0.257
982.21	0.257
982.38	0.258
982.55	0.257
982.72	0.257
982.89	0.258
983.06	0.256
983.22	0.255
983.39	0.256
983.56	0.255
983.73	0.255
983.90	0.254
984.07	0.256
984.24	0.254
984.40	0.254
984.57	0.252
984.74	0.254
984.91	0.255
985.08	0.252
985.25	0.250
985.41	0.251
985.58	0.252
985.75	0.253
985.92	0.252
986.09	0.251
986.26	0.251
986.42	0.250
986.59	0.248
986.76	0.250
986.93	0.250
987.10	0.250
987.27	0.247
987.43	0.246
987.60	0.247
987.77	0.247
987.94	0.245
988.11	0.247
988.27	0.247
988.44	0.247
988.61	0.246
988.78	0.245
988.95	0.246
989.11	0.247
989.28	0.245
989.45	0.244
989.62	0.244
989.79	0.245
989.95	0.243
990.12	0.245
990.29	0.244
990.46	0.242
990.62	0.240
990.79	0.240
990.96	0.241
991.13	0.241
991.30	0.240
991.46	0.239
991.63	0.238
991.80	0.237
991.97	0.238
992.13	0.238
992.30	0.239
992.47	0.238
992.64	0.238
992.80	0.238
992.97	0.238
993.14	0.235
993.31	0.233
993.47	0.236
993.64	0.234
993.81	0.233
993.98	0.233
994.14	0.233
994.31	0.232
994.48	0.232
994.64	0.233
994.81	0.232
994.98	0.233
995.15	0.230
995.31	0.230
995.48	0.230
995.65	0.232
995.82	0.229
995.98	0.228
996.15	0.229
996.32	0.230
996.48	0.228
996.65	0.227
996.82	0.224
996.99	0.226
997.15	0.225
997.32	0.226
997.49	0.225
997.65	0.226
997.82	0.226
997.99	0.224
998.15	0.224
998.32	0.226
998.49	0.225
998.65	0.226
998.82	0.225
998.99	0.222
999.15	0.222
999.32	0.221
999.49	0.221
999.65	0.221
999.82	0.219
999.99	0.220
1000.15	0.219
1000.32	0.220
1000.49	0.219
1000.65	0.218
1000.82	0.217
1000.99	0.218
1001.15	0.218
1001.32	0.217
1001.49	0.217
1001.65	0.217
1001.82	0.219
1001.99	0.215
1002.15	0.214
1002.32	0.214
1002.49	0.214
1002.65	0.214
1002.82	0.212
1002.99	0.211
1003.15	0.213
1003.32	0.212
1003.48	0.212
1003.65	0.211
1003.82	0.210
1003.98	0.208
1004.15	0.208
1004.32	0.208
1004.48	0.208
1004.65	0.210
1004.81	0.207
1004.98	0.206
1005.15	0.207
1005.31	0.206
1005.48	0.205
1005.64	0.204
1005.81	0.206
1005.98	0.202
1006.14	0.201
1006.31	0.202
1006.47	0.200
1006.64	0.200
1006.81	0.199
1006.97	0.199
1007.14	0.198
1007.30	0.199
1007.47	0.199
1007.63	0.197
1007.80	0.196
1007.97	0.196
1008.13	0.197
1008.30	0.196
1008.46	0.196
1008.63	0.195
1008.79	0.195
1008.96	0.195
1009.13	0.197
1009.29	0.194
1009.46	0.195
1009.62	0.195
1009.79	0.193
1009.95	0.193
1010.12	0.194
1010.28	0.193
1010.45	0.193
1010.62	0.193
1010.78	0.192
1010.95	0.190
1011.11	0.191
1011.28	0.190
1011.44	0.192
1011.61	0.190
1011.77	0.189
1011.94	0.189
1012.10	0.188
1012.27	0.188
1012.43	0.188
1012.60	0.186
1012.76	0.187
1012.93	0.186
1013.10	0.184
1013.26	0.181
1013.43	0.183
1013.59	0.190
1013.76	0.183
1013.92	0.182
1014.09	0.181
1014.25	0.182
1014.42	0.183
1014.58	0.182
1014.75	0.184
1014.91	0.183
1015.08	0.185
1015.24	0.182
1015.41	0.184
1015.57	0.184
1015.73	0.182
1015.90	0.180
1016.06	0.181
1016.23	0.180
1016.39	0.181
1016.56	0.181
1016.72	0.180
1016.89	0.179
1017.05	0.180
1017.22	0.176
1017.38	0.177
1017.55	0.176
1017.71	0.177
1017.88	0.176
1018.04	0.177
1018.21	0.174
1018.37	0.174
1018.53	0.175
1018.70	0.174
1018.86	0.172
1019.03	0.175
1019.19	0.173
1019.36	0.173
1019.52	0.174
1019.69	0.175
1019.85	0.174
1020.01	0.174
1020.18	0.171
1020.34	0.171
1020.51	0.171
1020.67	0.172
1020.84	0.171
1021.00	0.171
1021.16	0.168
1021.33	0.169
1021.49	0.167
1021.66	0.167
1021.82	0.165
1021.98	0.166
1022.15	0.165
1022.31	0.165
1022.48	0.165
1022.64	0.166
1022.80	0.165
1022.97	0.163
1023.13	0.163
1023.30	0.164
1023.46	0.165
1023.62	0.162
1023.79	0.163
1023.95	0.164
1024.12	0.164
1024.28	0.162
1024.44	0.162
1024.61	0.161
1024.77	0.160
1024.93	0.159
1025.10	0.161
1025.26	0.158
1025.43	0.158
1025.59	0.155
1025.75	0.158
1025.92	0.157
1026.08	0.155
1026.24	0.155
1026.41	0.157
1026.57	0.155
1026.73	0.153
1026.90	0.155
1027.06	0.154
1027.23	0.155
1027.39	0.155
1027.55	0.155
1027.72	0.153
1027.88	0.153
1028.04	0.154
1028.21	0.153
1028.37	0.148
1028.53	0.154
1028.70	0.151
1028.86	0.149
1029.02	0.149
1029.19	0.151
1029.35	0.150
1029.51	0.149
1029.67	0.149
1029.84	0.150
1030.00	0.145
1030.16	0.146
1030.33	0.147
1030.49	0.145
1030.65	0.143
1030.82	0.158
1030.98	0.145
1031.14	0.144
1031.31	0.144
1031.47	0.142
1031.63	0.145
1031.79	0.144
1031.96	0.146
1032.12	0.147
1032.28	0.144
1032.45	0.147
1032.61	0.146
1032.77	0.144
1032.93	0.143
1033.10	0.145
1033.26	0.147
1033.42	0.144
1033.58	0.145
1033.75	0.145
1033.91	0.144
1034.07	0.147
1034.24	0.145
1034.40	0.143
1034.56	0.143
1034.72	0.143
1034.89	0.143
1035.05	0.141
1035.21	0.141
1035.37	0.141
1035.54	0.143
1035.70	0.140
1035.86	0.141
1036.02	0.142
1036.19	0.141
1036.35	0.139
1036.51	0.143
1036.67	0.141
1036.83	0.140
1037.00	0.139
1037.16	0.139
1037.32	0.140
1037.48	0.140
1037.65	0.143
1037.81	0.139
1037.97	0.138
1038.13	0.137
1038.29	0.135
1038.46	0.132
1038.62	0.137
1038.78	0.135
1038.94	0.132
1039.10	0.137
1039.27	0.132
1039.43	0.134
1039.59	0.133
1039.75	0.133
1039.91	0.132
1040.08	0.132
1040.24	0.135
1040.40	0.136
1040.56	0.133
1040.72	0.128
1040.89	0.129
1041.05	0.131
1041.21	0.129
1041.37	0.127
1041.53	0.133
1041.69	0.132
1041.86	0.132
1042.02	0.128
1042.18	0.128
1042.34	0.129
1042.50	0.133
1042.66	0.130
1042.83	0.129
1042.99	0.132
1043.15	0.128
1043.31	0.129
1043.47	0.133
1043.63	0.130
1043.79	0.131
1043.96	0.133
1044.12	0.137
1044.28	0.133
1044.44	0.135
1044.60	0.129
1044.76	0.128
1044.92	0.132
1045.09	0.133
1045.25	0.128
1045.41	0.128
1045.57	0.123
1045.73	0.122
1045.89	0.122
1046.05	0.124
1046.21	0.127
1046.38	0.128
1046.54	0.127
1046.70	0.122
1046.86	0.128
>>>>>End Processed Spectral Data<<<<<
