SpectraSuite Data File
++++++++++++++++++++++++++++++++++++
Date: Mon May 20 12:14:01 CDT 2013
User: Students
Dark Spectrum Present: Yes
Reference Spectrum Present: Yes
Number of Sampled Component Spectra: 1
Spectrometers: USB4H00887
Integration Time (usec): 60000 (USB4H00887)
Spectra Averaged: 5 (USB4H00887)
Boxcar Smoothing: 5 (USB4H00887)
Correct for Electrical Dark: No (USB4H00887)
Strobe/Lamp Enabled: No (USB4H00887)
Correct for Detector Non-linearity: No (USB4H00887)
Correct for Stray Light: No (USB4H00887)
Number of Pixels in Processed Spectrum: 3648
>>>>>Begin Processed Spectral Data<<<<<
345.83	-0.242
346.05	-0.242
346.26	-0.242
346.48	-0.000
346.70	0.422
346.92	0.159
347.14	0.092
347.35	0.091
347.57	0.612
347.79	-0.251
348.01	-0.200
348.23	-0.320
348.44	-0.000
348.66	0.361
348.88	-0.446
349.10	-0.195
349.32	0.039
349.53	-0.004
349.75	0.009
349.97	0.008
350.19	-0.008
350.41	-0.017
350.62	0.291
350.84	-0.021
351.06	-0.018
351.28	-0.033
351.50	-0.217
351.71	-0.180
351.93	-0.123
352.15	-0.017
352.37	-0.033
352.58	0.013
352.80	0.029
353.02	0.072
353.24	0.086
353.46	0.463
353.67	-0.152
353.89	0.062
354.11	0.055
354.33	0.066
354.54	0.101
354.76	0.191
354.98	0.346
355.20	0.264
355.41	0.106
355.63	0.222
355.85	0.094
356.07	-0.000
356.28	0.080
356.50	0.145
356.72	0.058
356.94	0.152
357.15	0.211
357.37	-0.000
357.59	0.149
357.81	0.071
358.02	0.141
358.24	0.106
358.46	0.258
358.68	0.259
358.89	0.155
359.11	-0.000
359.33	0.127
359.55	-0.661
359.76	0.154
359.98	0.147
360.20	0.181
360.42	0.147
360.63	0.182
360.85	0.120
361.07	0.819
361.29	0.080
361.50	0.244
361.72	0.112
361.94	0.359
362.15	0.167
362.37	0.103
362.59	0.095
362.81	0.141
363.02	0.209
363.24	0.302
363.46	0.178
363.68	0.236
363.89	0.132
364.11	0.151
364.33	0.175
364.54	0.110
364.76	0.126
364.98	0.147
365.20	0.161
365.41	0.099
365.63	0.117
365.85	0.076
366.06	0.233
366.28	0.257
366.50	0.232
366.71	0.099
366.93	0.123
367.15	0.114
367.37	0.090
367.58	0.120
367.80	0.136
368.02	0.391
368.23	0.144
368.45	0.147
368.67	0.119
368.88	0.116
369.10	-0.000
369.32	0.135
369.53	0.081
369.75	0.140
369.97	0.405
370.19	0.247
370.40	0.093
370.62	0.256
370.84	0.092
371.05	0.650
371.27	0.138
371.49	0.164
371.70	0.167
371.92	0.239
372.14	0.115
372.35	0.126
372.57	0.154
372.79	0.454
373.00	0.102
373.22	0.174
373.44	0.168
373.65	0.141
373.87	0.207
374.09	-0.000
374.30	0.183
374.52	0.222
374.74	0.156
374.95	0.621
375.17	0.157
375.39	-0.000
375.60	0.160
375.82	0.264
376.04	0.108
376.25	0.124
376.47	0.079
376.68	0.174
376.90	0.083
377.12	0.148
377.33	0.115
377.55	0.272
377.77	0.142
377.98	0.207
378.20	0.136
378.42	0.161
378.63	0.199
378.85	-0.000
379.07	0.143
379.28	0.558
379.50	0.322
379.71	0.160
379.93	0.110
380.15	0.171
380.36	0.275
380.58	0.184
380.80	0.552
381.01	0.169
381.23	0.140
381.44	0.156
381.66	0.168
381.88	0.223
382.09	-0.094
382.31	0.139
382.53	0.135
382.74	0.750
382.96	0.187
383.17	0.151
383.39	0.199
383.61	0.258
383.82	0.174
384.04	0.218
384.25	0.241
384.47	0.234
384.69	0.245
384.90	0.237
385.12	0.487
385.33	0.306
385.55	0.230
385.77	0.337
385.98	0.174
386.20	0.236
386.41	0.195
386.63	0.249
386.85	0.191
387.06	0.208
387.28	0.294
387.49	0.187
387.71	0.133
387.93	0.126
388.14	0.349
388.36	0.164
388.57	0.156
388.79	0.172
389.01	0.795
389.22	0.224
389.44	0.207
389.65	0.169
389.87	0.174
390.08	0.210
390.30	0.161
390.52	0.307
390.73	0.297
390.95	0.202
391.16	0.212
391.38	-0.000
391.59	0.219
391.81	0.195
392.03	0.198
392.24	0.218
392.46	0.184
392.67	0.166
392.89	0.232
393.10	0.339
393.32	0.244
393.53	0.257
393.75	0.175
393.97	0.203
394.18	0.283
394.40	0.239
394.61	0.245
394.83	0.210
395.04	0.249
395.26	0.176
395.47	0.268
395.69	0.216
395.91	0.242
396.12	0.281
396.34	0.281
396.55	0.181
396.77	0.263
396.98	0.890
397.20	0.332
397.41	0.366
397.63	0.247
397.84	0.213
398.06	0.203
398.27	0.211
398.49	0.241
398.71	0.175
398.92	0.203
399.14	0.262
399.35	0.339
399.57	0.328
399.78	0.226
400.00	0.236
400.21	0.299
400.43	0.244
400.64	0.254
400.86	0.550
401.07	0.320
401.29	0.277
401.50	0.291
401.72	0.404
401.93	0.252
402.15	0.289
402.36	0.238
402.58	0.197
402.79	0.219
403.01	0.330
403.22	0.262
403.44	0.190
403.65	0.294
403.87	0.307
404.08	0.247
404.30	0.396
404.51	0.259
404.73	0.326
404.94	0.300
405.16	0.306
405.37	0.242
405.59	0.428
405.80	0.271
406.02	0.321
406.23	0.325
406.45	0.360
406.66	0.377
406.88	0.243
407.09	0.357
407.31	0.287
407.52	0.340
407.74	0.282
407.95	0.327
408.17	0.300
408.38	0.317
408.60	0.221
408.81	0.354
409.03	0.272
409.24	0.281
409.45	0.318
409.67	0.304
409.88	0.273
410.10	0.341
410.31	0.294
410.53	0.297
410.74	0.395
410.96	0.374
411.17	0.386
411.39	0.307
411.60	0.281
411.82	0.321
412.03	0.307
412.24	0.304
412.46	0.428
412.67	0.357
412.89	0.343
413.10	0.346
413.32	0.329
413.53	0.374
413.75	0.389
413.96	0.299
414.17	0.385
414.39	0.389
414.60	0.324
414.82	0.407
415.03	0.318
415.25	0.348
415.46	0.253
415.68	0.343
415.89	0.534
416.10	0.466
416.32	0.288
416.53	0.337
416.75	0.324
416.96	0.386
417.18	0.336
417.39	0.340
417.60	0.342
417.82	0.482
418.03	0.436
418.25	0.383
418.46	0.396
418.67	0.367
418.89	0.385
419.10	0.401
419.32	0.519
419.53	0.481
419.75	0.400
419.96	0.354
420.17	0.419
420.39	0.392
420.60	0.401
420.82	0.474
421.03	0.389
421.24	0.335
421.46	0.364
421.67	0.385
421.89	0.338
422.10	0.362
422.31	0.369
422.53	0.486
422.74	0.379
422.96	0.315
423.17	0.342
423.38	0.402
423.60	0.352
423.81	0.422
424.03	0.374
424.24	0.415
424.45	0.412
424.67	0.402
424.88	0.363
425.09	0.392
425.31	0.360
425.52	0.372
425.74	0.421
425.95	0.447
426.16	0.366
426.38	0.418
426.59	0.390
426.80	0.446
427.02	0.462
427.23	0.383
427.45	0.478
427.66	0.473
427.87	0.388
428.09	0.401
428.30	0.441
428.51	0.431
428.73	0.471
428.94	0.418
429.15	0.412
429.37	0.398
429.58	0.415
429.79	0.389
430.01	0.453
430.22	0.452
430.44	0.468
430.65	0.425
430.86	0.455
431.08	0.443
431.29	0.412
431.50	0.464
431.72	0.578
431.93	0.491
432.14	0.381
432.36	0.407
432.57	0.407
432.78	0.415
433.00	0.386
433.21	0.377
433.42	0.444
433.64	0.404
433.85	0.446
434.06	0.381
434.28	0.403
434.49	0.423
434.70	0.432
434.92	0.445
435.13	0.471
435.34	0.481
435.56	0.467
435.77	0.467
435.98	0.572
436.20	0.500
436.41	0.442
436.62	0.430
436.83	0.472
437.05	0.521
437.26	0.476
437.47	0.433
437.69	0.468
437.90	0.433
438.11	0.426
438.33	0.457
438.54	0.469
438.75	0.560
438.97	0.549
439.18	0.443
439.39	0.459
439.60	0.484
439.82	0.458
440.03	0.428
440.24	0.573
440.46	0.461
440.67	0.445
440.88	0.469
441.10	0.444
441.31	0.446
441.52	0.478
441.73	0.522
441.95	0.471
442.16	0.441
442.37	0.607
442.58	0.434
442.80	0.427
443.01	0.520
443.22	0.486
443.44	0.431
443.65	0.490
443.86	0.484
444.07	0.509
444.29	0.459
444.50	0.555
444.71	0.452
444.92	0.427
445.14	0.515
445.35	0.539
445.56	0.449
445.78	0.506
445.99	0.505
446.20	0.447
446.41	0.496
446.63	0.499
446.84	0.476
447.05	0.481
447.26	0.550
447.48	0.487
447.69	0.467
447.90	0.517
448.11	0.475
448.33	0.491
448.54	0.508
448.75	0.517
448.96	0.520
449.18	0.539
449.39	0.498
449.60	0.491
449.81	0.563
450.03	0.506
450.24	0.539
450.45	0.516
450.66	0.509
450.87	0.528
451.09	0.502
451.30	0.492
451.51	0.537
451.72	0.538
451.94	0.548
452.15	0.584
452.36	0.512
452.57	0.519
452.78	0.514
453.00	0.526
453.21	0.501
453.42	0.488
453.63	0.538
453.85	0.518
454.06	0.516
454.27	0.575
454.48	0.535
454.69	0.495
454.91	0.534
455.12	0.485
455.33	0.535
455.54	0.544
455.75	0.529
455.97	0.544
456.18	0.537
456.39	0.542
456.60	0.555
456.81	0.524
457.03	0.531
457.24	0.534
457.45	0.583
457.66	0.553
457.87	0.528
458.09	0.541
458.30	0.493
458.51	0.565
458.72	0.576
458.93	0.584
459.15	0.527
459.36	0.563
459.57	0.575
459.78	0.599
459.99	0.553
460.20	0.532
460.42	0.575
460.63	0.554
460.84	0.544
461.05	0.558
461.26	0.586
461.47	0.546
461.69	0.576
461.90	0.593
462.11	0.569
462.32	0.601
462.53	0.569
462.74	0.619
462.96	0.557
463.17	0.551
463.38	0.573
463.59	0.630
463.80	0.552
464.01	0.565
464.23	0.611
464.44	0.594
464.65	0.594
464.86	0.609
465.07	0.612
465.28	0.592
465.49	0.605
465.71	0.579
465.92	0.597
466.13	0.619
466.34	0.584
466.55	0.611
466.76	0.588
466.97	0.601
467.19	0.593
467.40	0.617
467.61	0.620
467.82	0.578
468.03	0.571
468.24	0.607
468.45	0.624
468.66	0.616
468.88	0.621
469.09	0.621
469.30	0.643
469.51	0.606
469.72	0.623
469.93	0.609
470.14	0.599
470.35	0.643
470.57	0.619
470.78	0.589
470.99	0.651
471.20	0.624
471.41	0.606
471.62	0.631
471.83	0.620
472.04	0.635
472.25	0.656
472.47	0.617
472.68	0.620
472.89	0.626
473.10	0.649
473.31	0.624
473.52	0.652
473.73	0.662
473.94	0.628
474.15	0.640
474.36	0.640
474.57	0.653
474.79	0.641
475.00	0.643
475.21	0.633
475.42	0.677
475.63	0.633
475.84	0.650
476.05	0.653
476.26	0.638
476.47	0.655
476.68	0.676
476.89	0.643
477.10	0.668
477.32	0.660
477.53	0.687
477.74	0.650
477.95	0.668
478.16	0.643
478.37	0.664
478.58	0.665
478.79	0.675
479.00	0.678
479.21	0.658
479.42	0.678
479.63	0.680
479.84	0.662
480.05	0.661
480.26	0.675
480.47	0.684
480.69	0.686
480.90	0.671
481.11	0.667
481.32	0.692
481.53	0.662
481.74	0.686
481.95	0.673
482.16	0.682
482.37	0.687
482.58	0.671
482.79	0.682
483.00	0.695
483.21	0.670
483.42	0.657
483.63	0.695
483.84	0.711
484.05	0.706
484.26	0.690
484.47	0.691
484.68	0.673
484.89	0.678
485.10	0.699
485.31	0.689
485.52	0.693
485.73	0.694
485.94	0.715
486.15	0.689
486.37	0.696
486.58	0.681
486.79	0.685
487.00	0.709
487.21	0.705
487.42	0.705
487.63	0.705
487.84	0.714
488.05	0.713
488.26	0.694
488.47	0.697
488.68	0.714
488.89	0.701
489.10	0.699
489.31	0.703
489.52	0.716
489.73	0.700
489.94	0.717
490.15	0.697
490.36	0.715
490.57	0.692
490.78	0.684
490.99	0.699
491.20	0.736
491.41	0.718
491.62	0.692
491.83	0.706
492.04	0.704
492.25	0.709
492.45	0.709
492.66	0.720
492.87	0.714
493.08	0.708
493.29	0.703
493.50	0.697
493.71	0.701
493.92	0.700
494.13	0.708
494.34	0.718
494.55	0.721
494.76	0.735
494.97	0.730
495.18	0.716
495.39	0.724
495.60	0.699
495.81	0.701
496.02	0.711
496.23	0.708
496.44	0.722
496.65	0.719
496.86	0.721
497.07	0.733
497.28	0.733
497.49	0.710
497.70	0.712
497.91	0.722
498.12	0.713
498.32	0.734
498.53	0.727
498.74	0.723
498.95	0.736
499.16	0.714
499.37	0.715
499.58	0.720
499.79	0.734
500.00	0.731
500.21	0.744
500.42	0.719
500.63	0.719
500.84	0.727
501.05	0.718
501.26	0.729
501.46	0.747
501.67	0.731
501.88	0.732
502.09	0.719
502.30	0.722
502.51	0.745
502.72	0.725
502.93	0.732
503.14	0.740
503.35	0.727
503.56	0.725
503.77	0.741
503.97	0.732
504.18	0.730
504.39	0.748
504.60	0.733
504.81	0.747
505.02	0.744
505.23	0.745
505.44	0.739
505.65	0.743
505.86	0.734
506.07	0.763
506.27	0.744
506.48	0.746
506.69	0.737
506.90	0.748
507.11	0.745
507.32	0.733
507.53	0.737
507.74	0.732
507.95	0.738
508.15	0.741
508.36	0.744
508.57	0.748
508.78	0.741
508.99	0.742
509.20	0.729
509.41	0.740
509.62	0.734
509.82	0.733
510.03	0.738
510.24	0.738
510.45	0.748
510.66	0.742
510.87	0.740
511.08	0.721
511.29	0.741
511.49	0.732
511.70	0.754
511.91	0.724
512.12	0.722
512.33	0.737
512.54	0.744
512.75	0.737
512.95	0.749
513.16	0.746
513.37	0.736
513.58	0.752
513.79	0.735
514.00	0.737
514.20	0.745
514.41	0.740
514.62	0.725
514.83	0.744
515.04	0.740
515.25	0.730
515.46	0.736
515.66	0.738
515.87	0.742
516.08	0.727
516.29	0.738
516.50	0.728
516.71	0.726
516.91	0.730
517.12	0.736
517.33	0.730
517.54	0.725
517.75	0.726
517.95	0.732
518.16	0.738
518.37	0.724
518.58	0.727
518.79	0.714
519.00	0.727
519.20	0.730
519.41	0.719
519.62	0.728
519.83	0.730
520.04	0.714
520.24	0.712
520.45	0.716
520.66	0.727
520.87	0.709
521.08	0.708
521.28	0.711
521.49	0.719
521.70	0.704
521.91	0.710
522.12	0.702
522.32	0.712
522.53	0.703
522.74	0.697
522.95	0.701
523.16	0.702
523.36	0.706
523.57	0.696
523.78	0.694
523.99	0.696
524.20	0.692
524.40	0.697
524.61	0.699
524.82	0.687
525.03	0.689
525.23	0.690
525.44	0.682
525.65	0.682
525.86	0.692
526.06	0.678
526.27	0.677
526.48	0.682
526.69	0.672
526.90	0.674
527.10	0.691
527.31	0.669
527.52	0.664
527.73	0.660
527.93	0.665
528.14	0.668
528.35	0.663
528.56	0.663
528.76	0.659
528.97	0.654
529.18	0.650
529.39	0.649
529.59	0.651
529.80	0.668
530.01	0.655
530.22	0.653
530.42	0.636
530.63	0.646
530.84	0.634
531.05	0.641
531.25	0.642
531.46	0.638
531.67	0.626
531.88	0.634
532.08	0.630
532.29	0.627
532.50	0.624
532.70	0.621
532.91	0.615
533.12	0.617
533.33	0.631
533.53	0.615
533.74	0.615
533.95	0.618
534.15	0.613
534.36	0.613
534.57	0.603
534.78	0.604
534.98	0.609
535.19	0.593
535.40	0.593
535.60	0.603
535.81	0.591
536.02	0.592
536.23	0.588
536.43	0.589
536.64	0.582
536.85	0.586
537.05	0.592
537.26	0.579
537.47	0.581
537.67	0.575
537.88	0.572
538.09	0.577
538.30	0.571
538.50	0.566
538.71	0.573
538.92	0.565
539.12	0.562
539.33	0.559
539.54	0.559
539.74	0.562
539.95	0.557
540.16	0.556
540.36	0.551
540.57	0.551
540.78	0.546
540.98	0.546
541.19	0.544
541.40	0.537
541.60	0.544
541.81	0.541
542.02	0.541
542.22	0.534
542.43	0.531
542.64	0.529
542.84	0.530
543.05	0.524
543.26	0.524
543.46	0.527
543.67	0.526
543.88	0.523
544.08	0.516
544.29	0.513
544.50	0.514
544.70	0.514
544.91	0.508
545.12	0.508
545.32	0.506
545.53	0.509
545.74	0.502
545.94	0.500
546.15	0.499
546.35	0.498
546.56	0.495
546.77	0.493
546.97	0.491
547.18	0.486
547.39	0.487
547.59	0.485
547.80	0.482
548.01	0.485
548.21	0.482
548.42	0.477
548.62	0.477
548.83	0.477
549.04	0.474
549.24	0.470
549.45	0.470
549.65	0.467
549.86	0.464
550.07	0.464
550.27	0.463
550.48	0.469
550.69	0.459
550.89	0.459
551.10	0.456
551.30	0.455
551.51	0.455
551.72	0.448
551.92	0.450
552.13	0.450
552.33	0.451
552.54	0.447
552.75	0.442
552.95	0.443
553.16	0.440
553.36	0.439
553.57	0.438
553.78	0.437
553.98	0.437
554.19	0.431
554.39	0.429
554.60	0.432
554.80	0.433
555.01	0.427
555.22	0.429
555.42	0.427
555.63	0.422
555.83	0.424
556.04	0.420
556.25	0.423
556.45	0.416
556.66	0.415
556.86	0.418
557.07	0.416
557.27	0.415
557.48	0.410
557.68	0.408
557.89	0.410
558.10	0.408
558.30	0.406
558.51	0.404
558.71	0.402
558.92	0.399
559.12	0.400
559.33	0.403
559.54	0.400
559.74	0.397
559.95	0.396
560.15	0.397
560.36	0.395
560.56	0.391
560.77	0.391
560.97	0.392
561.18	0.389
561.38	0.388
561.59	0.390
561.79	0.388
562.00	0.386
562.21	0.384
562.41	0.382
562.62	0.382
562.82	0.381
563.03	0.378
563.23	0.378
563.44	0.378
563.64	0.375
563.85	0.377
564.05	0.371
564.26	0.370
564.46	0.370
564.67	0.371
564.87	0.367
565.08	0.364
565.28	0.364
565.49	0.365
565.69	0.363
565.90	0.361
566.10	0.364
566.31	0.358
566.51	0.361
566.72	0.361
566.92	0.356
567.13	0.356
567.33	0.355
567.54	0.354
567.74	0.354
567.95	0.351
568.15	0.352
568.36	0.352
568.56	0.351
568.77	0.346
568.97	0.345
569.18	0.346
569.38	0.345
569.59	0.346
569.79	0.344
570.00	0.342
570.20	0.342
570.41	0.340
570.61	0.339
570.82	0.341
571.02	0.338
571.23	0.340
571.43	0.336
571.64	0.335
571.84	0.334
572.05	0.333
572.25	0.332
572.45	0.331
572.66	0.329
572.86	0.328
573.07	0.326
573.27	0.326
573.48	0.325
573.68	0.323
573.89	0.322
574.09	0.323
574.30	0.323
574.50	0.321
574.70	0.322
574.91	0.320
575.11	0.320
575.32	0.320
575.52	0.317
575.73	0.316
575.93	0.316
576.14	0.315
576.34	0.313
576.54	0.312
576.75	0.311
576.95	0.311
577.16	0.309
577.36	0.308
577.57	0.308
577.77	0.307
577.97	0.305
578.18	0.307
578.38	0.303
578.59	0.302
578.79	0.301
579.00	0.301
579.20	0.299
579.40	0.299
579.61	0.298
579.81	0.298
580.02	0.297
580.22	0.296
580.42	0.295
580.63	0.296
580.83	0.294
581.04	0.292
581.24	0.292
581.45	0.292
581.65	0.292
581.85	0.291
582.06	0.290
582.26	0.290
582.47	0.289
582.67	0.289
582.87	0.289
583.08	0.287
583.28	0.287
583.48	0.286
583.69	0.284
583.89	0.284
584.10	0.285
584.30	0.282
584.50	0.281
584.71	0.281
584.91	0.280
585.12	0.278
585.32	0.279
585.52	0.277
585.73	0.276
585.93	0.275
586.13	0.275
586.34	0.274
586.54	0.274
586.75	0.274
586.95	0.272
587.15	0.273
587.36	0.271
587.56	0.270
587.76	0.269
587.97	0.269
588.17	0.268
588.37	0.267
588.58	0.268
588.78	0.265
588.98	0.265
589.19	0.265
589.39	0.263
589.60	0.265
589.80	0.262
590.00	0.262
590.21	0.262
590.41	0.261
590.61	0.261
590.82	0.260
591.02	0.259
591.22	0.257
591.43	0.258
591.63	0.256
591.83	0.256
592.04	0.254
592.24	0.255
592.44	0.253
592.65	0.252
592.85	0.253
593.05	0.253
593.26	0.252
593.46	0.252
593.66	0.252
593.86	0.252
594.07	0.250
594.27	0.251
594.47	0.249
594.68	0.248
594.88	0.249
595.08	0.248
595.29	0.248
595.49	0.246
595.69	0.245
595.90	0.244
596.10	0.245
596.30	0.244
596.50	0.243
596.71	0.243
596.91	0.242
597.11	0.242
597.32	0.242
597.52	0.242
597.72	0.241
597.93	0.241
598.13	0.239
598.33	0.240
598.53	0.239
598.74	0.239
598.94	0.238
599.14	0.238
599.35	0.238
599.55	0.238
599.75	0.237
599.95	0.236
600.16	0.237
600.36	0.235
600.56	0.236
600.76	0.235
600.97	0.234
601.17	0.233
601.37	0.233
601.58	0.232
601.78	0.232
601.98	0.231
602.18	0.230
602.39	0.230
602.59	0.230
602.79	0.229
602.99	0.229
603.20	0.228
603.40	0.228
603.60	0.228
603.80	0.228
604.01	0.228
604.21	0.227
604.41	0.226
604.61	0.225
604.82	0.225
605.02	0.225
605.22	0.224
605.42	0.224
605.62	0.224
605.83	0.223
606.03	0.222
606.23	0.222
606.43	0.222
606.64	0.222
606.84	0.222
607.04	0.221
607.24	0.221
607.45	0.221
607.65	0.220
607.85	0.221
608.05	0.220
608.25	0.219
608.46	0.218
608.66	0.219
608.86	0.218
609.06	0.216
609.26	0.215
609.47	0.216
609.67	0.215
609.87	0.217
610.07	0.216
610.28	0.214
610.48	0.215
610.68	0.215
610.88	0.213
611.08	0.214
611.29	0.213
611.49	0.212
611.69	0.213
611.89	0.212
612.09	0.211
612.29	0.211
612.50	0.210
612.70	0.210
612.90	0.209
613.10	0.209
613.30	0.209
613.51	0.209
613.71	0.208
613.91	0.213
614.11	0.207
614.31	0.207
614.51	0.207
614.72	0.206
614.92	0.206
615.12	0.206
615.32	0.206
615.52	0.206
615.72	0.206
615.93	0.206
616.13	0.205
616.33	0.205
616.53	0.205
616.73	0.205
616.93	0.204
617.14	0.204
617.34	0.204
617.54	0.204
617.74	0.204
617.94	0.203
618.14	0.203
618.34	0.202
618.55	0.202
618.75	0.202
618.95	0.202
619.15	0.202
619.35	0.201
619.55	0.200
619.75	0.201
619.96	0.200
620.16	0.201
620.36	0.200
620.56	0.200
620.76	0.200
620.96	0.199
621.16	0.199
621.36	0.199
621.57	0.199
621.77	0.200
621.97	0.198
622.17	0.198
622.37	0.198
622.57	0.198
622.77	0.197
622.97	0.195
623.18	0.196
623.38	0.196
623.58	0.195
623.78	0.195
623.98	0.194
624.18	0.193
624.38	0.193
624.58	0.193
624.78	0.193
624.98	0.194
625.19	0.193
625.39	0.193
625.59	0.192
625.79	0.193
625.99	0.192
626.19	0.192
626.39	0.192
626.59	0.192
626.79	0.192
626.99	0.192
627.19	0.192
627.40	0.192
627.60	0.192
627.80	0.192
628.00	0.191
628.20	0.191
628.40	0.190
628.60	0.190
628.80	0.189
629.00	0.189
629.20	0.188
629.40	0.189
629.60	0.187
629.80	0.188
630.00	0.187
630.20	0.187
630.41	0.186
630.61	0.186
630.81	0.186
631.01	0.186
631.21	0.185
631.41	0.185
631.61	0.185
631.81	0.185
632.01	0.184
632.21	0.185
632.41	0.183
632.61	0.183
632.81	0.183
633.01	0.183
633.21	0.183
633.41	0.184
633.61	0.183
633.81	0.183
634.01	0.182
634.21	0.182
634.41	0.182
634.61	0.182
634.81	0.182
635.01	0.181
635.22	0.182
635.42	0.181
635.62	0.181
635.82	0.181
636.02	0.180
636.22	0.180
636.42	0.179
636.62	0.180
636.82	0.179
637.02	0.179
637.22	0.179
637.42	0.179
637.62	0.178
637.82	0.178
638.02	0.177
638.22	0.177
638.42	0.177
638.62	0.176
638.82	0.176
639.02	0.176
639.22	0.176
639.42	0.175
639.62	0.175
639.82	0.174
640.02	0.175
640.22	0.175
640.42	0.175
640.62	0.174
640.82	0.174
641.02	0.173
641.22	0.174
641.42	0.173
641.61	0.173
641.81	0.173
642.01	0.173
642.21	0.173
642.41	0.173
642.61	0.172
642.81	0.172
643.01	0.172
643.21	0.172
643.41	0.172
643.61	0.172
643.81	0.171
644.01	0.170
644.21	0.170
644.41	0.170
644.61	0.170
644.81	0.170
645.01	0.170
645.21	0.169
645.41	0.169
645.61	0.169
645.81	0.169
646.01	0.168
646.21	0.169
646.40	0.169
646.60	0.169
646.80	0.169
647.00	0.168
647.20	0.167
647.40	0.167
647.60	0.167
647.80	0.167
648.00	0.167
648.20	0.166
648.40	0.166
648.60	0.165
648.80	0.165
649.00	0.165
649.20	0.165
649.39	0.165
649.59	0.164
649.79	0.164
649.99	0.164
650.19	0.163
650.39	0.164
650.59	0.163
650.79	0.163
650.99	0.163
651.19	0.162
651.39	0.163
651.58	0.162
651.78	0.161
651.98	0.161
652.18	0.161
652.38	0.160
652.58	0.160
652.78	0.159
652.98	0.159
653.18	0.159
653.38	0.159
653.57	0.159
653.77	0.159
653.97	0.158
654.17	0.158
654.37	0.158
654.57	0.158
654.77	0.158
654.97	0.158
655.16	0.157
655.36	0.157
655.56	0.156
655.76	0.156
655.96	0.156
656.16	0.155
656.36	0.155
656.56	0.154
656.75	0.155
656.95	0.155
657.15	0.155
657.35	0.155
657.55	0.154
657.75	0.155
657.95	0.155
658.14	0.154
658.34	0.155
658.54	0.155
658.74	0.154
658.94	0.154
659.14	0.153
659.34	0.153
659.53	0.152
659.73	0.152
659.93	0.151
660.13	0.151
660.33	0.151
660.53	0.151
660.72	0.151
660.92	0.151
661.12	0.150
661.32	0.150
661.52	0.150
661.72	0.149
661.91	0.149
662.11	0.149
662.31	0.149
662.51	0.149
662.71	0.148
662.90	0.147
663.10	0.147
663.30	0.147
663.50	0.147
663.70	0.146
663.90	0.146
664.09	0.146
664.29	0.146
664.49	0.145
664.69	0.145
664.89	0.145
665.08	0.145
665.28	0.144
665.48	0.144
665.68	0.144
665.88	0.144
666.07	0.143
666.27	0.143
666.47	0.143
666.67	0.143
666.87	0.143
667.06	0.142
667.26	0.142
667.46	0.142
667.66	0.142
667.85	0.142
668.05	0.142
668.25	0.141
668.45	0.141
668.65	0.141
668.84	0.141
669.04	0.141
669.24	0.140
669.44	0.140
669.63	0.139
669.83	0.140
670.03	0.139
670.23	0.138
670.42	0.138
670.62	0.138
670.82	0.137
671.02	0.137
671.22	0.137
671.41	0.136
671.61	0.136
671.81	0.136
672.01	0.136
672.20	0.136
672.40	0.135
672.60	0.135
672.80	0.136
672.99	0.135
673.19	0.135
673.39	0.135
673.58	0.135
673.78	0.134
673.98	0.134
674.18	0.134
674.37	0.134
674.57	0.133
674.77	0.134
674.97	0.133
675.16	0.133
675.36	0.133
675.56	0.132
675.75	0.132
675.95	0.131
676.15	0.131
676.35	0.131
676.54	0.131
676.74	0.131
676.94	0.132
677.13	0.131
677.33	0.130
677.53	0.130
677.73	0.130
677.92	0.130
678.12	0.130
678.32	0.130
678.51	0.130
678.71	0.130
678.91	0.129
679.11	0.129
679.30	0.129
679.50	0.128
679.70	0.128
679.89	0.128
680.09	0.128
680.29	0.127
680.48	0.127
680.68	0.126
680.88	0.126
681.07	0.127
681.27	0.126
681.47	0.126
681.66	0.126
681.86	0.125
682.06	0.126
682.25	0.125
682.45	0.125
682.65	0.125
682.84	0.124
683.04	0.124
683.24	0.124
683.43	0.124
683.63	0.123
683.83	0.124
684.02	0.123
684.22	0.123
684.42	0.123
684.61	0.123
684.81	0.122
685.01	0.122
685.20	0.121
685.40	0.121
685.60	0.121
685.79	0.121
685.99	0.121
686.19	0.121
686.38	0.120
686.58	0.120
686.77	0.120
686.97	0.120
687.17	0.120
687.36	0.120
687.56	0.119
687.76	0.119
687.95	0.119
688.15	0.119
688.34	0.119
688.54	0.118
688.74	0.118
688.93	0.117
689.13	0.118
689.33	0.118
689.52	0.117
689.72	0.117
689.91	0.117
690.11	0.116
690.31	0.116
690.50	0.116
690.70	0.116
690.89	0.115
691.09	0.115
691.29	0.115
691.48	0.114
691.68	0.115
691.87	0.115
692.07	0.115
692.27	0.115
692.46	0.115
692.66	0.114
692.85	0.114
693.05	0.114
693.25	0.114
693.44	0.114
693.64	0.114
693.83	0.114
694.03	0.113
694.22	0.112
694.42	0.112
694.62	0.113
694.81	0.113
695.01	0.113
695.20	0.112
695.40	0.112
695.59	0.112
695.79	0.111
695.99	0.112
696.18	0.111
696.38	0.111
696.57	0.111
696.77	0.111
696.96	0.111
697.16	0.110
697.36	0.111
697.55	0.110
697.75	0.110
697.94	0.110
698.14	0.110
698.33	0.110
698.53	0.110
698.72	0.109
698.92	0.109
699.11	0.109
699.31	0.109
699.51	0.109
699.70	0.109
699.90	0.109
700.09	0.109
700.29	0.108
700.48	0.108
700.68	0.108
700.87	0.108
701.07	0.107
701.26	0.107
701.46	0.107
701.65	0.107
701.85	0.107
702.04	0.106
702.24	0.106
702.43	0.106
702.63	0.106
702.82	0.106
703.02	0.106
703.21	0.106
703.41	0.106
703.60	0.106
703.80	0.105
703.99	0.105
704.19	0.105
704.38	0.105
704.58	0.104
704.77	0.104
704.97	0.104
705.16	0.104
705.36	0.104
705.55	0.103
705.75	0.103
705.94	0.104
706.14	0.104
706.33	0.104
706.53	0.104
706.72	0.104
706.92	0.104
707.11	0.104
707.31	0.103
707.50	0.103
707.70	0.103
707.89	0.103
708.09	0.103
708.28	0.103
708.48	0.103
708.67	0.102
708.86	0.102
709.06	0.102
709.25	0.102
709.45	0.102
709.64	0.102
709.84	0.101
710.03	0.101
710.23	0.100
710.42	0.100
710.62	0.100
710.81	0.100
711.00	0.100
711.20	0.100
711.39	0.099
711.59	0.099
711.78	0.099
711.98	0.099
712.17	0.099
712.37	0.099
712.56	0.099
712.75	0.099
712.95	0.100
713.14	0.100
713.34	0.100
713.53	0.100
713.73	0.100
713.92	0.100
714.11	0.100
714.31	0.100
714.50	0.100
714.70	0.099
714.89	0.099
715.08	0.099
715.28	0.099
715.47	0.098
715.67	0.099
715.86	0.098
716.06	0.099
716.25	0.099
716.44	0.099
716.64	0.098
716.83	0.099
717.03	0.098
717.22	0.098
717.41	0.098
717.61	0.097
717.80	0.098
717.99	0.098
718.19	0.097
718.38	0.097
718.58	0.097
718.77	0.096
718.96	0.096
719.16	0.096
719.35	0.096
719.55	0.096
719.74	0.096
719.93	0.096
720.13	0.095
720.32	0.095
720.51	0.095
720.71	0.096
720.90	0.096
721.10	0.096
721.29	0.096
721.48	0.095
721.68	0.095
721.87	0.095
722.06	0.095
722.26	0.096
722.45	0.095
722.64	0.095
722.84	0.095
723.03	0.095
723.22	0.095
723.42	0.095
723.61	0.095
723.80	0.096
724.00	0.095
724.19	0.095
724.38	0.095
724.58	0.095
724.77	0.095
724.96	0.095
725.16	0.095
725.35	0.095
725.54	0.095
725.74	0.095
725.93	0.095
726.12	0.095
726.32	0.095
726.51	0.095
726.70	0.095
726.90	0.095
727.09	0.095
727.28	0.095
727.48	0.095
727.67	0.094
727.86	0.094
728.06	0.094
728.25	0.094
728.44	0.094
728.64	0.094
728.83	0.094
729.02	0.094
729.21	0.094
729.41	0.094
729.60	0.094
729.79	0.094
729.99	0.094
730.18	0.094
730.37	0.094
730.56	0.094
730.76	0.094
730.95	0.094
731.14	0.094
731.34	0.093
731.53	0.093
731.72	0.093
731.91	0.093
732.11	0.093
732.30	0.093
732.49	0.093
732.69	0.094
732.88	0.094
733.07	0.094
733.26	0.094
733.46	0.094
733.65	0.094
733.84	0.094
734.03	0.094
734.23	0.094
734.42	0.094
734.61	0.094
734.80	0.093
735.00	0.094
735.19	0.093
735.38	0.093
735.57	0.093
735.77	0.094
735.96	0.094
736.15	0.094
736.34	0.094
736.54	0.094
736.73	0.094
736.92	0.094
737.11	0.094
737.31	0.094
737.50	0.094
737.69	0.094
737.88	0.094
738.07	0.094
738.27	0.094
738.46	0.094
738.65	0.094
738.84	0.094
739.04	0.094
739.23	0.094
739.42	0.094
739.61	0.094
739.80	0.094
740.00	0.094
740.19	0.094
740.38	0.094
740.57	0.093
740.76	0.093
740.96	0.093
741.15	0.093
741.34	0.092
741.53	0.092
741.72	0.093
741.92	0.092
742.11	0.092
742.30	0.092
742.49	0.092
742.68	0.092
742.88	0.092
743.07	0.092
743.26	0.092
743.45	0.092
743.64	0.091
743.84	0.091
744.03	0.091
744.22	0.091
744.41	0.091
744.60	0.090
744.79	0.090
744.99	0.090
745.18	0.091
745.37	0.090
745.56	0.090
745.75	0.090
745.94	0.090
746.14	0.090
746.33	0.090
746.52	0.090
746.71	0.090
746.90	0.090
747.09	0.090
747.28	0.089
747.48	0.090
747.67	0.089
747.86	0.090
748.05	0.090
748.24	0.089
748.43	0.089
748.62	0.089
748.82	0.089
749.01	0.089
749.20	0.089
749.39	0.089
749.58	0.089
749.77	0.089
749.96	0.089
750.16	0.089
750.35	0.089
750.54	0.088
750.73	0.089
750.92	0.088
751.11	0.088
751.30	0.089
751.49	0.088
751.68	0.088
751.88	0.088
752.07	0.088
752.26	0.088
752.45	0.088
752.64	0.087
752.83	0.088
753.02	0.087
753.21	0.087
753.40	0.087
753.60	0.087
753.79	0.087
753.98	0.087
754.17	0.087
754.36	0.087
754.55	0.087
754.74	0.087
754.93	0.087
755.12	0.087
755.31	0.088
755.50	0.087
755.70	0.087
755.89	0.087
756.08	0.087
756.27	0.087
756.46	0.087
756.65	0.087
756.84	0.086
757.03	0.086
757.22	0.085
757.41	0.086
757.60	0.085
757.79	0.085
757.98	0.085
758.17	0.085
758.36	0.085
758.56	0.085
758.75	0.085
758.94	0.085
759.13	0.085
759.32	0.085
759.51	0.085
759.70	0.085
759.89	0.085
760.08	0.085
760.27	0.085
760.46	0.085
760.65	0.085
760.84	0.085
761.03	0.085
761.22	0.085
761.41	0.086
761.60	0.085
761.79	0.085
761.98	0.085
762.17	0.085
762.36	0.084
762.55	0.083
762.74	0.084
762.93	0.083
763.12	0.083
763.31	0.083
763.50	0.083
763.69	0.083
763.88	0.083
764.07	0.083
764.26	0.084
764.45	0.084
764.64	0.084
764.83	0.083
765.02	0.084
765.21	0.083
765.40	0.084
765.59	0.083
765.78	0.083
765.97	0.084
766.16	0.083
766.35	0.083
766.54	0.083
766.73	0.083
766.92	0.083
767.11	0.083
767.30	0.083
767.49	0.083
767.68	0.083
767.87	0.082
768.06	0.083
768.25	0.082
768.44	0.083
768.63	0.082
768.82	0.082
769.01	0.082
769.20	0.082
769.39	0.082
769.58	0.082
769.77	0.082
769.96	0.082
770.15	0.082
770.34	0.082
770.53	0.082
770.72	0.081
770.91	0.081
771.10	0.081
771.29	0.081
771.47	0.081
771.66	0.081
771.85	0.081
772.04	0.081
772.23	0.081
772.42	0.080
772.61	0.080
772.80	0.081
772.99	0.080
773.18	0.080
773.37	0.081
773.56	0.081
773.75	0.081
773.94	0.081
774.13	0.080
774.31	0.081
774.50	0.081
774.69	0.081
774.88	0.081
775.07	0.081
775.26	0.080
775.45	0.080
775.64	0.080
775.83	0.080
776.02	0.080
776.21	0.080
776.40	0.080
776.58	0.080
776.77	0.080
776.96	0.080
777.15	0.080
777.34	0.080
777.53	0.080
777.72	0.080
777.91	0.080
778.10	0.080
778.28	0.079
778.47	0.079
778.66	0.079
778.85	0.079
779.04	0.079
779.23	0.078
779.42	0.078
779.61	0.078
779.79	0.078
779.98	0.078
780.17	0.078
780.36	0.078
780.55	0.078
780.74	0.078
780.93	0.077
781.12	0.078
781.30	0.078
781.49	0.078
781.68	0.078
781.87	0.078
782.06	0.078
782.25	0.078
782.44	0.078
782.62	0.079
782.81	0.079
783.00	0.079
783.19	0.078
783.38	0.078
783.57	0.078
783.75	0.078
783.94	0.078
784.13	0.078
784.32	0.077
784.51	0.077
784.70	0.077
784.88	0.077
785.07	0.077
785.26	0.077
785.45	0.077
785.64	0.076
785.83	0.077
786.01	0.077
786.20	0.077
786.39	0.077
786.58	0.077
786.77	0.076
786.95	0.076
787.14	0.077
787.33	0.077
787.52	0.077
787.71	0.077
787.90	0.076
788.08	0.076
788.27	0.076
788.46	0.076
788.65	0.076
788.84	0.077
789.02	0.077
789.21	0.077
789.40	0.077
789.59	0.077
789.77	0.077
789.96	0.077
790.15	0.077
790.34	0.077
790.53	0.077
790.71	0.076
790.90	0.076
791.09	0.076
791.28	0.076
791.46	0.076
791.65	0.076
791.84	0.076
792.03	0.076
792.22	0.076
792.40	0.076
792.59	0.076
792.78	0.075
792.97	0.076
793.15	0.076
793.34	0.076
793.53	0.076
793.72	0.076
793.90	0.075
794.09	0.076
794.28	0.075
794.47	0.076
794.65	0.075
794.84	0.076
795.03	0.076
795.22	0.076
795.40	0.075
795.59	0.075
795.78	0.075
795.97	0.076
796.15	0.076
796.34	0.075
796.53	0.075
796.71	0.076
796.90	0.076
797.09	0.076
797.28	0.075
797.46	0.075
797.65	0.075
797.84	0.075
798.02	0.074
798.21	0.074
798.40	0.074
798.59	0.074
798.77	0.074
798.96	0.074
799.15	0.073
799.33	0.074
799.52	0.073
799.71	0.074
799.90	0.074
800.08	0.074
800.27	0.074
800.46	0.074
800.64	0.073
800.83	0.074
801.02	0.074
801.20	0.074
801.39	0.073
801.58	0.073
801.76	0.073
801.95	0.074
802.14	0.074
802.32	0.074
802.51	0.074
802.70	0.073
802.88	0.073
803.07	0.073
803.26	0.073
803.44	0.073
803.63	0.073
803.82	0.073
804.00	0.073
804.19	0.073
804.38	0.073
804.56	0.073
804.75	0.073
804.94	0.074
805.12	0.074
805.31	0.074
805.50	0.074
805.68	0.074
805.87	0.074
806.06	0.074
806.24	0.074
806.43	0.073
806.62	0.074
806.80	0.074
806.99	0.073
807.17	0.073
807.36	0.073
807.55	0.073
807.73	0.073
807.92	0.073
808.11	0.073
808.29	0.073
808.48	0.072
808.66	0.072
808.85	0.072
809.04	0.072
809.22	0.072
809.41	0.072
809.59	0.072
809.78	0.072
809.97	0.072
810.15	0.072
810.34	0.072
810.53	0.072
810.71	0.072
810.90	0.072
811.08	0.072
811.27	0.072
811.45	0.072
811.64	0.072
811.83	0.072
812.01	0.072
812.20	0.072
812.38	0.072
812.57	0.072
812.76	0.072
812.94	0.072
813.13	0.072
813.31	0.072
813.50	0.072
813.68	0.072
813.87	0.072
814.06	0.073
814.24	0.072
814.43	0.073
814.61	0.072
814.80	0.072
814.98	0.072
815.17	0.072
815.36	0.072
815.54	0.072
815.73	0.071
815.91	0.071
816.10	0.071
816.28	0.071
816.47	0.071
816.65	0.071
816.84	0.072
817.03	0.072
817.21	0.073
817.40	0.073
817.58	0.072
817.77	0.073
817.95	0.073
818.14	0.073
818.32	0.073
818.51	0.073
818.69	0.073
818.88	0.073
819.06	0.072
819.25	0.072
819.43	0.072
819.62	0.072
819.80	0.072
819.99	0.072
820.18	0.072
820.36	0.072
820.55	0.072
820.73	0.072
820.92	0.072
821.10	0.072
821.29	0.072
821.47	0.072
821.66	0.073
821.84	0.073
822.03	0.072
822.21	0.072
822.40	0.072
822.58	0.072
822.77	0.072
822.95	0.073
823.14	0.073
823.32	0.073
823.50	0.073
823.69	0.072
823.87	0.072
824.06	0.073
824.24	0.073
824.43	0.073
824.61	0.073
824.80	0.073
824.98	0.073
825.17	0.073
825.35	0.073
825.54	0.073
825.72	0.073
825.91	0.073
826.09	0.073
826.28	0.073
826.46	0.074
826.64	0.073
826.83	0.073
827.01	0.074
827.20	0.074
827.38	0.074
827.57	0.074
827.75	0.074
827.94	0.074
828.12	0.075
828.31	0.074
828.49	0.074
828.67	0.075
828.86	0.075
829.04	0.075
829.23	0.075
829.41	0.075
829.60	0.075
829.78	0.076
829.96	0.076
830.15	0.076
830.33	0.077
830.52	0.077
830.70	0.077
830.88	0.076
831.07	0.077
831.25	0.077
831.44	0.077
831.62	0.077
831.81	0.077
831.99	0.076
832.17	0.077
832.36	0.077
832.54	0.077
832.73	0.077
832.91	0.077
833.09	0.077
833.28	0.077
833.46	0.077
833.65	0.077
833.83	0.078
834.01	0.078
834.20	0.078
834.38	0.078
834.56	0.078
834.75	0.079
834.93	0.079
835.12	0.079
835.30	0.079
835.48	0.079
835.67	0.078
835.85	0.078
836.03	0.078
836.22	0.078
836.40	0.078
836.59	0.078
836.77	0.078
836.95	0.078
837.14	0.078
837.32	0.078
837.50	0.078
837.69	0.078
837.87	0.078
838.05	0.079
838.24	0.079
838.42	0.079
838.60	0.079
838.79	0.080
838.97	0.079
839.15	0.080
839.34	0.080
839.52	0.080
839.70	0.080
839.89	0.079
840.07	0.080
840.25	0.080
840.44	0.079
840.62	0.079
840.80	0.079
840.99	0.079
841.17	0.079
841.35	0.079
841.54	0.079
841.72	0.079
841.90	0.079
842.09	0.079
842.27	0.079
842.45	0.079
842.64	0.079
842.82	0.079
843.00	0.079
843.19	0.079
843.37	0.079
843.55	0.079
843.73	0.079
843.92	0.079
844.10	0.079
844.28	0.080
844.47	0.079
844.65	0.079
844.83	0.079
845.01	0.080
845.20	0.080
845.38	0.080
845.56	0.080
845.75	0.080
845.93	0.080
846.11	0.080
846.29	0.080
846.48	0.080
846.66	0.080
846.84	0.080
847.02	0.079
847.21	0.079
847.39	0.079
847.57	0.079
847.76	0.079
847.94	0.079
848.12	0.079
848.30	0.079
848.49	0.079
848.67	0.079
848.85	0.079
849.03	0.080
849.22	0.080
849.40	0.080
849.58	0.080
849.76	0.081
849.95	0.081
850.13	0.081
850.31	0.081
850.49	0.081
850.67	0.082
850.86	0.081
851.04	0.081
851.22	0.080
851.40	0.080
851.59	0.080
851.77	0.080
851.95	0.081
852.13	0.081
852.31	0.080
852.50	0.081
852.68	0.081
852.86	0.081
853.04	0.081
853.23	0.081
853.41	0.081
853.59	0.081
853.77	0.081
853.95	0.081
854.14	0.081
854.32	0.081
854.50	0.081
854.68	0.081
854.86	0.081
855.04	0.081
855.23	0.081
855.41	0.081
855.59	0.081
855.77	0.081
855.95	0.081
856.14	0.081
856.32	0.081
856.50	0.081
856.68	0.081
856.86	0.081
857.04	0.080
857.23	0.080
857.41	0.080
857.59	0.080
857.77	0.080
857.95	0.080
858.13	0.080
858.32	0.081
858.50	0.081
858.68	0.081
858.86	0.081
859.04	0.081
859.22	0.081
859.41	0.081
859.59	0.081
859.77	0.081
859.95	0.081
860.13	0.081
860.31	0.081
860.49	0.081
860.68	0.081
860.86	0.081
861.04	0.081
861.22	0.081
861.40	0.081
861.58	0.081
861.76	0.081
861.94	0.081
862.13	0.081
862.31	0.081
862.49	0.081
862.67	0.082
862.85	0.082
863.03	0.082
863.21	0.082
863.39	0.082
863.57	0.082
863.76	0.082
863.94	0.082
864.12	0.082
864.30	0.082
864.48	0.082
864.66	0.082
864.84	0.082
865.02	0.082
865.20	0.082
865.38	0.082
865.57	0.082
865.75	0.082
865.93	0.082
866.11	0.082
866.29	0.082
866.47	0.082
866.65	0.082
866.83	0.083
867.01	0.082
867.19	0.082
867.37	0.082
867.55	0.083
867.73	0.083
867.92	0.082
868.10	0.083
868.28	0.083
868.46	0.082
868.64	0.082
868.82	0.082
869.00	0.082
869.18	0.082
869.36	0.082
869.54	0.082
869.72	0.082
869.90	0.082
870.08	0.082
870.26	0.082
870.44	0.082
870.62	0.082
870.80	0.083
870.98	0.083
871.16	0.083
871.34	0.083
871.53	0.083
871.71	0.083
871.89	0.083
872.07	0.083
872.25	0.083
872.43	0.083
872.61	0.083
872.79	0.083
872.97	0.084
873.15	0.084
873.33	0.084
873.51	0.084
873.69	0.084
873.87	0.084
874.05	0.084
874.23	0.084
874.41	0.084
874.59	0.085
874.77	0.084
874.95	0.084
875.13	0.084
875.31	0.084
875.49	0.084
875.67	0.084
875.85	0.084
876.03	0.084
876.21	0.085
876.39	0.084
876.57	0.084
876.75	0.085
876.93	0.084
877.11	0.084
877.29	0.084
877.47	0.084
877.65	0.084
877.82	0.085
878.00	0.084
878.18	0.085
878.36	0.084
878.54	0.085
878.72	0.085
878.90	0.085
879.08	0.085
879.26	0.085
879.44	0.085
879.62	0.085
879.80	0.085
879.98	0.085
880.16	0.085
880.34	0.084
880.52	0.085
880.70	0.084
880.88	0.085
881.06	0.085
881.24	0.085
881.42	0.084
881.59	0.085
881.77	0.084
881.95	0.085
882.13	0.085
882.31	0.085
882.49	0.085
882.67	0.085
882.85	0.085
883.03	0.085
883.21	0.086
883.39	0.086
883.57	0.086
883.75	0.086
883.92	0.086
884.10	0.086
884.28	0.086
884.46	0.086
884.64	0.086
884.82	0.086
885.00	0.086
885.18	0.086
885.36	0.086
885.54	0.086
885.71	0.086
885.89	0.087
886.07	0.087
886.25	0.087
886.43	0.086
886.61	0.086
886.79	0.086
886.97	0.086
887.15	0.086
887.32	0.086
887.50	0.086
887.68	0.086
887.86	0.086
888.04	0.086
888.22	0.086
888.40	0.086
888.57	0.087
888.75	0.087
888.93	0.087
889.11	0.087
889.29	0.087
889.47	0.087
889.65	0.087
889.82	0.087
890.00	0.087
890.18	0.088
890.36	0.088
890.54	0.088
890.72	0.088
890.90	0.088
891.07	0.088
891.25	0.087
891.43	0.087
891.61	0.087
891.79	0.087
891.97	0.087
892.14	0.087
892.32	0.087
892.50	0.087
892.68	0.087
892.86	0.087
893.03	0.087
893.21	0.088
893.39	0.088
893.57	0.088
893.75	0.088
893.93	0.088
894.10	0.088
894.28	0.088
894.46	0.088
894.64	0.089
894.82	0.088
894.99	0.088
895.17	0.088
895.35	0.088
895.53	0.088
895.71	0.088
895.88	0.088
896.06	0.088
896.24	0.088
896.42	0.088
896.59	0.088
896.77	0.088
896.95	0.088
897.13	0.089
897.31	0.089
897.48	0.089
897.66	0.089
897.84	0.089
898.02	0.090
898.19	0.089
898.37	0.090
898.55	0.089
898.73	0.090
898.91	0.089
899.08	0.089
899.26	0.089
899.44	0.089
899.62	0.089
899.79	0.089
899.97	0.089
900.15	0.089
900.33	0.090
900.50	0.090
900.68	0.090
900.86	0.090
901.04	0.090
901.21	0.090
901.39	0.090
901.57	0.090
901.74	0.090
901.92	0.090
902.10	0.090
902.28	0.090
902.45	0.090
902.63	0.090
902.81	0.090
902.99	0.091
903.16	0.091
903.34	0.091
903.52	0.091
903.69	0.091
903.87	0.090
904.05	0.091
904.22	0.091
904.40	0.091
904.58	0.091
904.76	0.091
904.93	0.091
905.11	0.091
905.29	0.091
905.46	0.091
905.64	0.091
905.82	0.092
905.99	0.091
906.17	0.091
906.35	0.091
906.53	0.092
906.70	0.092
906.88	0.092
907.06	0.091
907.23	0.092
907.41	0.092
907.59	0.092
907.76	0.092
907.94	0.092
908.12	0.092
908.29	0.092
908.47	0.093
908.65	0.093
908.82	0.093
909.00	0.093
909.18	0.093
909.35	0.093
909.53	0.093
909.71	0.093
909.88	0.093
910.06	0.093
910.23	0.093
910.41	0.093
910.59	0.093
910.76	0.093
910.94	0.093
911.12	0.093
911.29	0.093
911.47	0.093
911.65	0.094
911.82	0.094
912.00	0.094
912.17	0.094
912.35	0.095
912.53	0.095
912.70	0.095
912.88	0.095
913.06	0.095
913.23	0.095
913.41	0.095
913.58	0.095
913.76	0.095
913.94	0.095
914.11	0.096
914.29	0.096
914.46	0.096
914.64	0.096
914.82	0.096
914.99	0.096
915.17	0.096
915.34	0.096
915.52	0.096
915.70	0.096
915.87	0.096
916.05	0.096
916.22	0.096
916.40	0.096
916.57	0.096
916.75	0.097
916.93	0.097
917.10	0.097
917.28	0.097
917.45	0.096
917.63	0.097
917.80	0.097
917.98	0.097
918.16	0.097
918.33	0.098
918.51	0.098
918.68	0.098
918.86	0.099
919.03	0.098
919.21	0.099
919.39	0.100
919.56	0.100
919.74	0.100
919.91	0.100
920.09	0.100
920.26	0.100
920.44	0.101
920.61	0.101
920.79	0.101
920.96	0.101
921.14	0.101
921.31	0.101
921.49	0.101
921.67	0.101
921.84	0.102
922.02	0.102
922.19	0.102
922.37	0.102
922.54	0.102
922.72	0.103
922.89	0.103
923.07	0.104
923.24	0.104
923.42	0.104
923.59	0.104
923.77	0.104
923.94	0.105
924.12	0.105
924.29	0.105
924.47	0.105
924.64	0.106
924.82	0.106
924.99	0.106
925.17	0.107
925.34	0.107
925.52	0.107
925.69	0.108
925.87	0.108
926.04	0.108
926.22	0.109
926.39	0.109
926.57	0.109
926.74	0.109
926.91	0.110
927.09	0.110
927.26	0.110
927.44	0.111
927.61	0.111
927.79	0.111
927.96	0.112
928.14	0.112
928.31	0.113
928.49	0.113
928.66	0.113
928.84	0.114
929.01	0.114
929.18	0.115
929.36	0.116
929.53	0.116
929.71	0.116
929.88	0.116
930.06	0.117
930.23	0.117
930.41	0.118
930.58	0.118
930.75	0.118
930.93	0.119
931.10	0.119
931.28	0.119
931.45	0.120
931.63	0.120
931.80	0.120
931.97	0.121
932.15	0.121
932.32	0.122
932.50	0.122
932.67	0.122
932.84	0.123
933.02	0.124
933.19	0.124
933.37	0.124
933.54	0.125
933.71	0.125
933.89	0.126
934.06	0.126
934.24	0.126
934.41	0.127
934.58	0.128
934.76	0.128
934.93	0.128
935.11	0.128
935.28	0.129
935.45	0.129
935.63	0.129
935.80	0.130
935.98	0.130
936.15	0.131
936.32	0.131
936.50	0.132
936.67	0.132
936.84	0.133
937.02	0.134
937.19	0.135
937.36	0.135
937.54	0.136
937.71	0.136
937.89	0.136
938.06	0.137
938.23	0.137
938.41	0.138
938.58	0.138
938.75	0.138
938.93	0.139
939.10	0.139
939.27	0.139
939.45	0.141
939.62	0.141
939.79	0.143
939.97	0.143
940.14	0.144
940.31	0.144
940.49	0.145
940.66	0.146
940.83	0.146
941.01	0.147
941.18	0.148
941.35	0.149
941.53	0.149
941.70	0.150
941.87	0.150
942.05	0.151
942.22	0.152
942.39	0.153
942.57	0.153
942.74	0.154
942.91	0.154
943.08	0.155
943.26	0.155
943.43	0.156
943.60	0.157
943.78	0.157
943.95	0.158
944.12	0.158
944.29	0.159
944.47	0.159
944.64	0.160
944.81	0.162
944.99	0.162
945.16	0.162
945.33	0.163
945.50	0.164
945.68	0.165
945.85	0.165
946.02	0.167
946.20	0.168
946.37	0.169
946.54	0.170
946.71	0.170
946.89	0.171
947.06	0.171
947.23	0.172
947.40	0.173
947.58	0.173
947.75	0.175
947.92	0.175
948.09	0.176
948.27	0.177
948.44	0.178
948.61	0.179
948.78	0.179
948.96	0.182
949.13	0.182
949.30	0.183
949.47	0.184
949.65	0.185
949.82	0.187
949.99	0.188
950.16	0.190
950.33	0.190
950.51	0.192
950.68	0.193
950.85	0.194
951.02	0.195
951.20	0.196
951.37	0.198
951.54	0.198
951.71	0.199
951.88	0.201
952.06	0.202
952.23	0.203
952.40	0.204
952.57	0.206
952.74	0.207
952.92	0.208
953.09	0.209
953.26	0.211
953.43	0.212
953.60	0.213
953.77	0.214
953.95	0.214
954.12	0.216
954.29	0.217
954.46	0.220
954.63	0.221
954.81	0.221
954.98	0.222
955.15	0.224
955.32	0.226
955.49	0.226
955.66	0.227
955.84	0.229
956.01	0.229
956.18	0.231
956.35	0.233
956.52	0.233
956.69	0.235
956.87	0.235
957.04	0.236
957.21	0.238
957.38	0.238
957.55	0.239
957.72	0.240
957.89	0.241
958.07	0.241
958.24	0.243
958.41	0.245
958.58	0.245
958.75	0.245
958.92	0.246
959.09	0.247
959.26	0.248
959.44	0.248
959.61	0.249
959.78	0.250
959.95	0.251
960.12	0.251
960.29	0.253
960.46	0.252
960.63	0.253
960.81	0.253
960.98	0.254
961.15	0.254
961.32	0.255
961.49	0.254
961.66	0.256
961.83	0.256
962.00	0.256
962.17	0.257
962.34	0.256
962.52	0.257
962.69	0.259
962.86	0.259
963.03	0.259
963.20	0.260
963.37	0.259
963.54	0.260
963.71	0.260
963.88	0.260
964.05	0.261
964.22	0.263
964.39	0.262
964.56	0.262
964.74	0.263
964.91	0.263
965.08	0.264
965.25	0.264
965.42	0.264
965.59	0.264
965.76	0.264
965.93	0.265
966.10	0.263
966.27	0.264
966.44	0.264
966.61	0.265
966.78	0.264
966.95	0.263
967.12	0.264
967.29	0.266
967.46	0.266
967.63	0.265
967.80	0.265
967.97	0.265
968.14	0.265
968.32	0.265
968.49	0.265
968.66	0.264
968.83	0.265
969.00	0.265
969.17	0.265
969.34	0.266
969.51	0.268
969.68	0.266
969.85	0.267
970.02	0.268
970.19	0.267
970.36	0.268
970.53	0.268
970.70	0.267
970.87	0.267
971.04	0.267
971.21	0.267
971.38	0.267
971.55	0.268
971.72	0.267
971.89	0.268
972.06	0.267
972.23	0.267
972.40	0.267
972.57	0.267
972.74	0.266
972.91	0.268
973.07	0.268
973.24	0.267
973.41	0.267
973.58	0.266
973.75	0.279
973.92	0.268
974.09	0.267
974.26	0.267
974.43	0.267
974.60	0.268
974.77	0.268
974.94	0.267
975.11	0.268
975.28	0.269
975.45	0.267
975.62	0.268
975.79	0.269
975.96	0.268
976.13	0.266
976.30	0.268
976.47	0.266
976.64	0.267
976.80	0.267
976.97	0.266
977.14	0.266
977.31	0.266
977.48	0.266
977.65	0.266
977.82	0.265
977.99	0.266
978.16	0.265
978.33	0.265
978.50	0.265
978.67	0.265
978.83	0.265
979.00	0.266
979.17	0.266
979.34	0.265
979.51	0.265
979.68	0.265
979.85	0.264
980.02	0.265
980.19	0.263
980.36	0.264
980.52	0.266
980.69	0.264
980.86	0.264
981.03	0.263
981.20	0.262
981.37	0.263
981.54	0.263
981.71	0.262
981.88	0.262
982.04	0.262
982.21	0.261
982.38	0.262
982.55	0.261
982.72	0.260
982.89	0.261
983.06	0.259
983.22	0.260
983.39	0.260
983.56	0.260
983.73	0.259
983.90	0.258
984.07	0.261
984.24	0.259
984.40	0.259
984.57	0.257
984.74	0.259
984.91	0.260
985.08	0.257
985.25	0.255
985.41	0.256
985.58	0.255
985.75	0.257
985.92	0.256
986.09	0.255
986.26	0.255
986.42	0.254
986.59	0.252
986.76	0.254
986.93	0.255
987.10	0.255
987.27	0.253
987.43	0.251
987.60	0.253
987.77	0.253
987.94	0.252
988.11	0.253
988.27	0.253
988.44	0.252
988.61	0.251
988.78	0.249
988.95	0.250
989.11	0.251
989.28	0.249
989.45	0.248
989.62	0.248
989.79	0.248
989.95	0.247
990.12	0.248
990.29	0.248
990.46	0.246
990.62	0.245
990.79	0.245
990.96	0.246
991.13	0.246
991.30	0.245
991.46	0.244
991.63	0.243
991.80	0.242
991.97	0.243
992.13	0.243
992.30	0.244
992.47	0.242
992.64	0.242
992.80	0.241
992.97	0.241
993.14	0.239
993.31	0.236
993.47	0.239
993.64	0.237
993.81	0.236
993.98	0.236
994.14	0.236
994.31	0.235
994.48	0.237
994.64	0.237
994.81	0.236
994.98	0.235
995.15	0.234
995.31	0.234
995.48	0.234
995.65	0.236
995.82	0.233
995.98	0.233
996.15	0.233
996.32	0.234
996.48	0.233
996.65	0.233
996.82	0.231
996.99	0.232
997.15	0.232
997.32	0.232
997.49	0.230
997.65	0.231
997.82	0.230
997.99	0.228
998.15	0.228
998.32	0.229
998.49	0.228
998.65	0.228
998.82	0.227
998.99	0.225
999.15	0.225
999.32	0.225
999.49	0.225
999.65	0.225
999.82	0.222
999.99	0.223
1000.15	0.223
1000.32	0.223
1000.49	0.223
1000.65	0.221
1000.82	0.221
1000.99	0.221
1001.15	0.221
1001.32	0.221
1001.49	0.221
1001.65	0.221
1001.82	0.223
1001.99	0.220
1002.15	0.220
1002.32	0.220
1002.49	0.220
1002.65	0.219
1002.82	0.218
1002.99	0.217
1003.15	0.219
1003.32	0.217
1003.48	0.217
1003.65	0.217
1003.82	0.216
1003.98	0.213
1004.15	0.213
1004.32	0.213
1004.48	0.212
1004.65	0.213
1004.81	0.210
1004.98	0.208
1005.15	0.210
1005.31	0.209
1005.48	0.207
1005.64	0.207
1005.81	0.209
1005.98	0.206
1006.14	0.206
1006.31	0.206
1006.47	0.205
1006.64	0.204
1006.81	0.205
1006.97	0.204
1007.14	0.204
1007.30	0.205
1007.47	0.205
1007.63	0.203
1007.80	0.202
1007.97	0.202
1008.13	0.203
1008.30	0.203
1008.46	0.202
1008.63	0.200
1008.79	0.201
1008.96	0.201
1009.13	0.201
1009.29	0.198
1009.46	0.198
1009.62	0.199
1009.79	0.196
1009.95	0.196
1010.12	0.197
1010.28	0.197
1010.45	0.196
1010.62	0.196
1010.78	0.194
1010.95	0.193
1011.11	0.194
1011.28	0.193
1011.44	0.195
1011.61	0.193
1011.77	0.192
1011.94	0.192
1012.10	0.192
1012.27	0.192
1012.43	0.192
1012.60	0.191
1012.76	0.192
1012.93	0.191
1013.10	0.189
1013.26	0.186
1013.43	0.188
1013.59	0.196
1013.76	0.188
1013.92	0.187
1014.09	0.185
1014.25	0.186
1014.42	0.186
1014.58	0.186
1014.75	0.187
1014.91	0.186
1015.08	0.188
1015.24	0.184
1015.41	0.186
1015.57	0.186
1015.73	0.185
1015.90	0.183
1016.06	0.186
1016.23	0.184
1016.39	0.184
1016.56	0.184
1016.72	0.183
1016.89	0.183
1017.05	0.185
1017.22	0.181
1017.38	0.181
1017.55	0.179
1017.71	0.181
1017.88	0.180
1018.04	0.181
1018.21	0.178
1018.37	0.179
1018.53	0.178
1018.70	0.177
1018.86	0.176
1019.03	0.179
1019.19	0.177
1019.36	0.177
1019.52	0.177
1019.69	0.178
1019.85	0.176
1020.01	0.177
1020.18	0.175
1020.34	0.176
1020.51	0.176
1020.67	0.177
1020.84	0.175
1021.00	0.176
1021.16	0.173
1021.33	0.173
1021.49	0.171
1021.66	0.172
1021.82	0.171
1021.98	0.170
1022.15	0.170
1022.31	0.169
1022.48	0.168
1022.64	0.170
1022.80	0.168
1022.97	0.167
1023.13	0.168
1023.30	0.168
1023.46	0.169
1023.62	0.166
1023.79	0.168
1023.95	0.169
1024.12	0.169
1024.28	0.167
1024.44	0.166
1024.61	0.164
1024.77	0.164
1024.93	0.163
1025.10	0.164
1025.26	0.162
1025.43	0.163
1025.59	0.159
1025.75	0.161
1025.92	0.160
1026.08	0.159
1026.24	0.160
1026.41	0.161
1026.57	0.160
1026.73	0.158
1026.90	0.160
1027.06	0.158
1027.23	0.159
1027.39	0.160
1027.55	0.160
1027.72	0.158
1027.88	0.157
1028.04	0.158
1028.21	0.158
1028.37	0.153
1028.53	0.158
1028.70	0.156
1028.86	0.154
1029.02	0.154
1029.19	0.155
1029.35	0.154
1029.51	0.154
1029.67	0.154
1029.84	0.155
1030.00	0.150
1030.16	0.150
1030.33	0.154
1030.49	0.150
1030.65	0.148
1030.82	0.163
1030.98	0.149
1031.14	0.149
1031.31	0.149
1031.47	0.147
1031.63	0.149
1031.79	0.149
1031.96	0.149
1032.12	0.151
1032.28	0.148
1032.45	0.153
1032.61	0.152
1032.77	0.151
1032.93	0.149
1033.10	0.150
1033.26	0.152
1033.42	0.150
1033.58	0.150
1033.75	0.153
1033.91	0.150
1034.07	0.153
1034.24	0.152
1034.40	0.150
1034.56	0.148
1034.72	0.149
1034.89	0.151
1035.05	0.149
1035.21	0.149
1035.37	0.147
1035.54	0.149
1035.70	0.147
1035.86	0.146
1036.02	0.148
1036.19	0.145
1036.35	0.143
1036.51	0.146
1036.67	0.143
1036.83	0.143
1037.00	0.142
1037.16	0.142
1037.32	0.143
1037.48	0.142
1037.65	0.147
1037.81	0.142
1037.97	0.142
1038.13	0.142
1038.29	0.141
1038.46	0.139
1038.62	0.143
1038.78	0.139
1038.94	0.136
1039.10	0.140
1039.27	0.136
1039.43	0.137
1039.59	0.137
1039.75	0.137
1039.91	0.137
1040.08	0.137
1040.24	0.140
1040.40	0.142
1040.56	0.140
1040.72	0.133
1040.89	0.136
1041.05	0.139
1041.21	0.138
1041.37	0.136
1041.53	0.141
1041.69	0.138
1041.86	0.136
1042.02	0.132
1042.18	0.132
1042.34	0.134
1042.50	0.139
1042.66	0.135
1042.83	0.132
1042.99	0.134
1043.15	0.130
1043.31	0.131
1043.47	0.135
1043.63	0.133
1043.79	0.132
1043.96	0.133
1044.12	0.135
1044.28	0.133
1044.44	0.135
1044.60	0.130
1044.76	0.128
1044.92	0.132
1045.09	0.133
1045.25	0.128
1045.41	0.129
1045.57	0.126
1045.73	0.126
1045.89	0.128
1046.05	0.129
1046.21	0.135
1046.38	0.137
1046.54	0.129
1046.70	0.126
1046.86	0.132
>>>>>End Processed Spectral Data<<<<<
