SpectraSuite Data File
++++++++++++++++++++++++++++++++++++
Date: Mon May 20 12:11:21 CDT 2013
User: Students
Dark Spectrum Present: Yes
Reference Spectrum Present: Yes
Number of Sampled Component Spectra: 1
Spectrometers: USB4H00887
Integration Time (usec): 60000 (USB4H00887)
Spectra Averaged: 5 (USB4H00887)
Boxcar Smoothing: 5 (USB4H00887)
Correct for Electrical Dark: No (USB4H00887)
Strobe/Lamp Enabled: No (USB4H00887)
Correct for Detector Non-linearity: No (USB4H00887)
Correct for Stray Light: No (USB4H00887)
Number of Pixels in Processed Spectrum: 3648
>>>>>Begin Processed Spectral Data<<<<<
345.83	1.273
346.05	1.273
346.26	1.273
346.48	-0.000
346.70	0.064
346.92	-0.001
347.14	0.028
347.35	0.051
347.57	0.423
347.79	-0.223
348.01	-0.160
348.23	-0.269
348.44	-0.000
348.66	0.272
348.88	-0.344
349.10	-0.111
349.32	0.053
349.53	0.012
349.75	0.035
349.97	0.023
350.19	0.059
350.41	0.065
350.62	-0.199
350.84	0.035
351.06	0.043
351.28	0.022
351.50	-0.070
351.71	0.014
351.93	-0.021
352.15	0.002
352.37	0.045
352.58	0.006
352.80	0.024
353.02	0.043
353.24	0.041
353.46	0.121
353.67	-0.058
353.89	0.030
354.11	0.033
354.33	0.025
354.54	0.057
354.76	0.105
354.98	0.103
355.20	0.085
355.41	0.062
355.63	0.119
355.85	0.073
356.07	0.797
356.28	0.076
356.50	0.137
356.72	0.070
356.94	0.176
357.15	0.215
357.37	-0.000
357.59	0.118
357.81	0.066
358.02	0.110
358.24	0.072
358.46	0.154
358.68	0.131
358.89	0.060
359.11	-0.000
359.33	0.051
359.55	-0.462
359.76	0.106
359.98	0.145
360.20	0.154
360.42	0.112
360.63	0.153
360.85	0.128
361.07	0.860
361.29	0.118
361.50	0.404
361.72	0.142
361.94	0.666
362.15	0.241
362.37	0.113
362.59	0.118
362.81	0.226
363.02	0.382
363.24	0.580
363.46	0.274
363.68	0.344
363.89	0.168
364.11	0.225
364.33	0.277
364.54	0.165
364.76	0.211
364.98	0.195
365.20	0.186
365.41	0.101
365.63	0.111
365.85	0.080
366.06	0.204
366.28	0.292
366.50	0.169
366.71	0.061
366.93	0.083
367.15	0.085
367.37	0.086
367.58	0.124
367.80	0.157
368.02	0.598
368.23	0.145
368.45	0.158
368.67	0.127
368.88	0.137
369.10	-0.000
369.32	0.158
369.53	0.100
369.75	0.162
369.97	0.616
370.19	0.355
370.40	0.124
370.62	0.572
370.84	0.154
371.05	-0.000
371.27	0.211
371.49	0.227
371.70	0.239
371.92	0.364
372.14	0.141
372.35	0.134
372.57	0.131
372.79	0.370
373.00	0.078
373.22	0.111
373.44	0.088
373.65	0.085
373.87	0.124
374.09	0.414
374.30	0.104
374.52	0.125
374.74	0.093
374.95	0.358
375.17	0.092
375.39	-0.000
375.60	0.155
375.82	0.312
376.04	0.122
376.25	0.136
376.47	0.094
376.68	0.203
376.90	0.119
377.12	0.214
377.33	0.135
377.55	0.310
377.77	0.140
377.98	0.210
378.20	0.131
378.42	0.172
378.63	0.227
378.85	-0.000
379.07	0.149
379.28	0.588
379.50	0.344
379.71	0.172
379.93	0.139
380.15	0.194
380.36	0.291
380.58	0.200
380.80	0.513
381.01	0.155
381.23	0.138
381.44	0.148
381.66	0.173
381.88	0.217
382.09	-0.094
382.31	0.133
382.53	0.130
382.74	0.702
382.96	0.189
383.17	0.164
383.39	0.208
383.61	0.273
383.82	0.202
384.04	0.238
384.25	0.294
384.47	0.278
384.69	0.275
384.90	0.279
385.12	0.622
385.33	0.376
385.55	0.280
385.77	0.423
385.98	0.203
386.20	0.271
386.41	0.213
386.63	0.265
386.85	0.205
387.06	0.246
387.28	0.328
387.49	0.218
387.71	0.145
387.93	0.142
388.14	0.438
388.36	0.200
388.57	0.180
388.79	0.224
389.01	1.415
389.22	0.263
389.44	0.230
389.65	0.196
389.87	0.199
390.08	0.249
390.30	0.173
390.52	0.355
390.73	0.348
390.95	0.248
391.16	0.226
391.38	-0.000
391.59	0.281
391.81	0.237
392.03	0.243
392.24	0.270
392.46	0.217
392.67	0.198
392.89	0.264
393.10	0.403
393.32	0.263
393.53	0.317
393.75	0.195
393.97	0.213
394.18	0.291
394.40	0.240
394.61	0.250
394.83	0.236
395.04	0.288
395.26	0.197
395.47	0.295
395.69	0.255
395.91	0.275
396.12	0.363
396.34	0.363
396.55	0.221
396.77	0.328
396.98	-0.000
397.20	0.444
397.41	0.516
397.63	0.354
397.84	0.311
398.06	0.282
398.27	0.287
398.49	0.325
398.71	0.244
398.92	0.306
399.14	0.410
399.35	0.514
399.57	0.443
399.78	0.293
400.00	0.274
400.21	0.357
400.43	0.308
400.64	0.312
400.86	0.767
401.07	0.382
401.29	0.334
401.50	0.340
401.72	0.493
401.93	0.321
402.15	0.385
402.36	0.351
402.58	0.285
402.79	0.306
403.01	0.538
403.22	0.388
403.44	0.264
403.65	0.421
403.87	0.490
404.08	0.373
404.30	0.621
404.51	0.329
404.73	0.418
404.94	0.370
405.16	0.374
405.37	0.299
405.59	0.565
405.80	0.337
406.02	0.411
406.23	0.425
406.45	0.484
406.66	0.492
406.88	0.316
407.09	0.482
407.31	0.360
407.52	0.447
407.74	0.356
407.95	0.434
408.17	0.401
408.38	0.423
408.60	0.271
408.81	0.462
409.03	0.356
409.24	0.367
409.45	0.430
409.67	0.411
409.88	0.374
410.10	0.462
410.31	0.383
410.53	0.375
410.74	0.548
410.96	0.549
411.17	0.573
411.39	0.440
411.60	0.407
411.82	0.456
412.03	0.454
412.24	0.427
412.46	0.652
412.67	0.536
412.89	0.525
413.10	0.528
413.32	0.470
413.53	0.538
413.75	0.539
413.96	0.402
414.17	0.557
414.39	0.551
414.60	0.451
414.82	0.588
415.03	0.437
415.25	0.493
415.46	0.332
415.68	0.469
415.89	0.864
416.10	0.720
416.32	0.383
416.53	0.447
416.75	0.441
416.96	0.534
417.18	0.460
417.39	0.435
417.60	0.430
417.82	0.625
418.03	0.542
418.25	0.456
418.46	0.474
418.67	0.425
418.89	0.454
419.10	0.462
419.32	0.622
419.53	0.587
419.75	0.495
419.96	0.438
420.17	0.541
420.39	0.506
420.60	0.531
420.82	0.648
421.03	0.529
421.24	0.452
421.46	0.501
421.67	0.554
421.89	0.468
422.10	0.517
422.31	0.521
422.53	0.748
422.74	0.543
422.96	0.430
423.17	0.479
423.38	0.594
423.60	0.492
423.81	0.620
424.03	0.533
424.24	0.591
424.45	0.584
424.67	0.570
424.88	0.512
425.09	0.561
425.31	0.510
425.52	0.534
425.74	0.613
425.95	0.676
426.16	0.515
426.38	0.583
426.59	0.542
426.80	0.624
427.02	0.655
427.23	0.512
427.45	0.664
427.66	0.658
427.87	0.506
428.09	0.525
428.30	0.573
428.51	0.564
428.73	0.627
428.94	0.546
429.15	0.538
429.37	0.508
429.58	0.534
429.79	0.499
430.01	0.595
430.22	0.597
430.44	0.618
430.65	0.556
430.86	0.603
431.08	0.596
431.29	0.545
431.50	0.642
431.72	0.878
431.93	0.701
432.14	0.523
432.36	0.581
432.57	0.594
432.78	0.628
433.00	0.575
433.21	0.563
433.42	0.690
433.64	0.613
433.85	0.696
434.06	0.561
434.28	0.592
434.49	0.602
434.70	0.612
434.92	0.623
435.13	0.656
435.34	0.665
435.56	0.627
435.77	0.632
435.98	0.804
436.20	0.675
436.41	0.579
436.62	0.569
436.83	0.647
437.05	0.725
437.26	0.631
437.47	0.568
437.69	0.624
437.90	0.577
438.11	0.570
438.33	0.627
438.54	0.642
438.75	0.830
438.97	0.813
439.18	0.604
439.39	0.638
439.60	0.697
439.82	0.647
440.03	0.595
440.24	0.885
440.46	0.647
440.67	0.621
440.88	0.667
441.10	0.624
441.31	0.627
441.52	0.683
441.73	0.766
441.95	0.679
442.16	0.622
442.37	0.998
442.58	0.603
442.80	0.589
443.01	0.766
443.22	0.699
443.44	0.587
443.65	0.695
443.86	0.694
444.07	0.739
444.29	0.632
444.50	0.803
444.71	0.615
444.92	0.578
445.14	0.741
445.35	0.789
445.56	0.622
445.78	0.739
445.99	0.728
446.20	0.629
446.41	0.719
446.63	0.723
446.84	0.686
447.05	0.692
447.26	0.841
447.48	0.704
447.69	0.663
447.90	0.765
448.11	0.674
448.33	0.706
448.54	0.733
448.75	0.768
448.96	0.781
449.18	0.828
449.39	0.725
449.60	0.705
449.81	0.852
450.03	0.735
450.24	0.797
450.45	0.752
450.66	0.732
450.87	0.762
451.09	0.701
451.30	0.673
451.51	0.741
451.72	0.759
451.94	0.780
452.15	0.853
452.36	0.705
452.57	0.720
452.78	0.720
453.00	0.754
453.21	0.705
453.42	0.682
453.63	0.788
453.85	0.760
454.06	0.745
454.27	0.888
454.48	0.783
454.69	0.710
454.91	0.784
455.12	0.680
455.33	0.762
455.54	0.783
455.75	0.750
455.97	0.780
456.18	0.767
456.39	0.774
456.60	0.795
456.81	0.736
457.03	0.744
457.24	0.748
457.45	0.845
457.66	0.786
457.87	0.743
458.09	0.769
458.30	0.676
458.51	0.803
458.72	0.838
458.93	0.846
459.15	0.743
459.36	0.815
459.57	0.837
459.78	0.883
459.99	0.792
460.20	0.748
460.42	0.837
460.63	0.786
460.84	0.771
461.05	0.784
461.26	0.851
461.47	0.767
461.69	0.820
461.90	0.858
462.11	0.811
462.32	0.872
462.53	0.801
462.74	0.903
462.96	0.779
463.17	0.767
463.38	0.815
463.59	0.937
463.80	0.766
464.01	0.790
464.23	0.876
464.44	0.840
464.65	0.846
464.86	0.873
465.07	0.879
465.28	0.838
465.49	0.866
465.71	0.814
465.92	0.847
466.13	0.904
466.34	0.836
466.55	0.898
466.76	0.854
466.97	0.874
467.19	0.865
467.40	0.906
467.61	0.907
467.82	0.816
468.03	0.800
468.24	0.882
468.45	0.924
468.66	0.904
468.88	0.908
469.09	0.908
469.30	0.957
469.51	0.877
469.72	0.921
469.93	0.890
470.14	0.870
470.35	0.973
470.57	0.909
470.78	0.839
470.99	0.976
471.20	0.915
471.41	0.869
471.62	0.927
471.83	0.894
472.04	0.924
472.25	0.973
472.47	0.886
472.68	0.888
472.89	0.896
473.10	0.935
473.31	0.884
473.52	0.949
473.73	0.974
473.94	0.890
474.15	0.924
474.36	0.926
474.57	0.954
474.79	0.923
475.00	0.925
475.21	0.909
475.42	1.013
475.63	0.907
475.84	0.939
476.05	0.946
476.26	0.911
476.47	0.941
476.68	0.992
476.89	0.915
477.10	0.969
477.32	0.951
477.53	1.006
477.74	0.921
477.95	0.960
478.16	0.906
478.37	0.950
478.58	0.955
478.79	0.970
479.00	0.970
479.21	0.925
479.42	0.963
479.63	0.973
479.84	0.934
480.05	0.933
480.26	0.965
480.47	0.984
480.69	0.985
480.90	0.951
481.11	0.946
481.32	1.014
481.53	0.953
481.74	1.020
481.95	0.978
482.16	0.995
482.37	1.005
482.58	0.969
482.79	0.986
483.00	1.016
483.21	0.955
483.42	0.928
483.63	1.007
483.84	1.034
484.05	1.018
484.26	0.990
484.47	0.989
484.68	0.947
484.89	0.956
485.10	1.013
485.31	0.994
485.52	1.000
485.73	1.003
485.94	1.047
486.15	0.990
486.37	1.007
486.58	0.970
486.79	0.984
487.00	1.042
487.21	1.028
487.42	1.017
487.63	1.021
487.84	1.045
488.05	1.035
488.26	0.991
488.47	0.995
488.68	1.023
488.89	0.995
489.10	0.989
489.31	0.998
489.52	1.032
489.73	1.001
489.94	1.039
490.15	0.991
490.36	1.039
490.57	0.987
490.78	0.971
490.99	1.012
491.20	1.097
491.41	1.049
491.62	0.990
491.83	1.022
492.04	1.017
492.25	1.023
492.45	1.023
492.66	1.046
492.87	1.037
493.08	1.023
493.29	1.009
493.50	0.996
493.71	1.003
493.92	1.000
494.13	1.016
494.34	1.039
494.55	1.046
494.76	1.077
494.97	1.067
495.18	1.025
495.39	1.043
495.60	0.990
495.81	0.994
496.02	1.015
496.23	1.008
496.44	1.041
496.65	1.030
496.86	1.035
497.07	1.065
497.28	1.062
497.49	1.011
497.70	1.010
497.91	1.029
498.12	1.012
498.32	1.057
498.53	1.040
498.74	1.028
498.95	1.053
499.16	1.007
499.37	1.010
499.58	1.017
499.79	1.049
500.00	1.046
500.21	1.079
500.42	1.018
500.63	1.018
500.84	1.040
501.05	1.016
501.26	1.047
501.46	1.088
501.67	1.048
501.88	1.052
502.09	1.025
502.30	1.038
502.51	1.090
502.72	1.042
502.93	1.060
503.14	1.082
503.35	1.051
503.56	1.044
503.77	1.078
503.97	1.052
504.18	1.050
504.39	1.088
504.60	1.051
504.81	1.078
505.02	1.065
505.23	1.066
505.44	1.046
505.65	1.054
505.86	1.033
506.07	1.102
506.27	1.059
506.48	1.065
506.69	1.047
506.90	1.070
507.11	1.069
507.32	1.043
507.53	1.053
507.74	1.046
507.95	1.062
508.15	1.069
508.36	1.072
508.57	1.085
508.78	1.067
508.99	1.067
509.20	1.039
509.41	1.067
509.62	1.056
509.82	1.051
510.03	1.063
510.24	1.065
510.45	1.089
510.66	1.081
510.87	1.073
511.08	1.030
511.29	1.074
511.49	1.048
511.70	1.096
511.91	1.027
512.12	1.026
512.33	1.060
512.54	1.074
512.75	1.056
512.95	1.084
513.16	1.076
513.37	1.051
513.58	1.088
513.79	1.049
514.00	1.055
514.20	1.073
514.41	1.061
514.62	1.026
514.83	1.070
515.04	1.062
515.25	1.041
515.46	1.053
515.66	1.056
515.87	1.071
516.08	1.039
516.29	1.064
516.50	1.044
516.71	1.036
516.91	1.048
517.12	1.066
517.33	1.050
517.54	1.037
517.75	1.041
517.95	1.054
518.16	1.067
518.37	1.032
518.58	1.037
518.79	1.009
519.00	1.043
519.20	1.050
519.41	1.021
519.62	1.043
519.83	1.051
520.04	1.014
520.24	1.012
520.45	1.021
520.66	1.047
520.87	1.007
521.08	1.007
521.28	1.013
521.49	1.032
521.70	1.000
521.91	1.012
522.12	0.993
522.32	1.017
522.53	0.997
522.74	0.986
522.95	0.996
523.16	0.996
523.36	1.006
523.57	0.985
523.78	0.978
523.99	0.985
524.20	0.977
524.40	0.991
524.61	0.996
524.82	0.969
525.03	0.975
525.23	0.975
525.44	0.961
525.65	0.959
525.86	0.982
526.06	0.954
526.27	0.954
526.48	0.964
526.69	0.944
526.90	0.948
527.10	0.986
527.31	0.938
527.52	0.931
527.73	0.922
527.93	0.932
528.14	0.937
528.35	0.927
528.56	0.928
528.76	0.921
528.97	0.912
529.18	0.903
529.39	0.904
529.59	0.908
529.80	0.940
530.01	0.912
530.22	0.911
530.42	0.880
530.63	0.898
530.84	0.875
531.05	0.889
531.25	0.892
531.46	0.885
531.67	0.861
531.88	0.880
532.08	0.871
532.29	0.868
532.50	0.860
532.70	0.852
532.91	0.843
533.12	0.846
533.33	0.871
533.53	0.839
533.74	0.837
533.95	0.844
534.15	0.832
534.36	0.836
534.57	0.817
534.78	0.818
534.98	0.829
535.19	0.799
535.40	0.800
535.60	0.819
535.81	0.799
536.02	0.802
536.23	0.793
536.43	0.796
536.64	0.781
536.85	0.788
537.05	0.798
537.26	0.774
537.47	0.776
537.67	0.766
537.88	0.759
538.09	0.767
538.30	0.756
538.50	0.746
538.71	0.758
538.92	0.743
539.12	0.739
539.33	0.735
539.54	0.734
539.74	0.739
539.95	0.729
540.16	0.727
540.36	0.718
540.57	0.719
540.78	0.711
540.98	0.710
541.19	0.709
541.40	0.696
541.60	0.705
541.81	0.700
542.02	0.699
542.22	0.689
542.43	0.683
542.64	0.678
542.84	0.677
543.05	0.668
543.26	0.668
543.46	0.671
543.67	0.670
543.88	0.666
544.08	0.655
544.29	0.650
544.50	0.650
544.70	0.651
544.91	0.642
545.12	0.643
545.32	0.638
545.53	0.642
545.74	0.630
545.94	0.627
546.15	0.625
546.35	0.622
546.56	0.618
546.77	0.615
546.97	0.612
547.18	0.605
547.39	0.605
547.59	0.604
547.80	0.599
548.01	0.603
548.21	0.598
548.42	0.590
548.62	0.590
548.83	0.587
549.04	0.583
549.24	0.576
549.45	0.574
549.65	0.571
549.86	0.566
550.07	0.565
550.27	0.563
550.48	0.571
550.69	0.557
550.89	0.556
551.10	0.551
551.30	0.550
551.51	0.549
551.72	0.538
551.92	0.539
552.13	0.538
552.33	0.538
552.54	0.532
552.75	0.525
552.95	0.526
553.16	0.521
553.36	0.519
553.57	0.518
553.78	0.515
553.98	0.516
554.19	0.508
554.39	0.505
554.60	0.508
554.80	0.507
555.01	0.500
555.22	0.501
555.42	0.498
555.63	0.491
555.83	0.495
556.04	0.489
556.25	0.491
556.45	0.482
556.66	0.480
556.86	0.483
557.07	0.481
557.27	0.480
557.48	0.475
557.68	0.473
557.89	0.474
558.10	0.470
558.30	0.466
558.51	0.464
558.71	0.462
558.92	0.458
559.12	0.460
559.33	0.462
559.54	0.457
559.74	0.452
559.95	0.450
560.15	0.449
560.36	0.448
560.56	0.443
560.77	0.443
560.97	0.442
561.18	0.436
561.38	0.435
561.59	0.439
561.79	0.434
562.00	0.431
562.21	0.427
562.41	0.425
562.62	0.425
562.82	0.422
563.03	0.419
563.23	0.419
563.44	0.419
563.64	0.415
563.85	0.416
564.05	0.409
564.26	0.408
564.46	0.407
564.67	0.408
564.87	0.403
565.08	0.400
565.28	0.399
565.49	0.400
565.69	0.397
565.90	0.395
566.10	0.397
566.31	0.391
566.51	0.393
566.72	0.394
566.92	0.387
567.13	0.387
567.33	0.386
567.54	0.385
567.74	0.383
567.95	0.379
568.15	0.379
568.36	0.379
568.56	0.378
568.77	0.373
568.97	0.372
569.18	0.371
569.38	0.369
569.59	0.370
569.79	0.367
570.00	0.365
570.20	0.363
570.41	0.362
570.61	0.360
570.82	0.360
571.02	0.357
571.23	0.358
571.43	0.354
571.64	0.353
571.84	0.352
572.05	0.351
572.25	0.350
572.45	0.348
572.66	0.346
572.86	0.345
573.07	0.344
573.27	0.344
573.48	0.343
573.68	0.339
573.89	0.338
574.09	0.338
574.30	0.336
574.50	0.335
574.70	0.336
574.91	0.332
575.11	0.332
575.32	0.332
575.52	0.328
575.73	0.328
575.93	0.327
576.14	0.326
576.34	0.325
576.54	0.324
576.75	0.321
576.95	0.320
577.16	0.318
577.36	0.317
577.57	0.316
577.77	0.315
577.97	0.312
578.18	0.313
578.38	0.310
578.59	0.308
578.79	0.307
579.00	0.308
579.20	0.306
579.40	0.306
579.61	0.305
579.81	0.304
580.02	0.301
580.22	0.301
580.42	0.300
580.63	0.300
580.83	0.299
581.04	0.296
581.24	0.295
581.45	0.294
581.65	0.293
581.85	0.292
582.06	0.290
582.26	0.290
582.47	0.288
582.67	0.287
582.87	0.287
583.08	0.284
583.28	0.285
583.48	0.283
583.69	0.280
583.89	0.280
584.10	0.281
584.30	0.279
584.50	0.278
584.71	0.277
584.91	0.277
585.12	0.275
585.32	0.276
585.52	0.274
585.73	0.272
585.93	0.272
586.13	0.272
586.34	0.271
586.54	0.270
586.75	0.268
586.95	0.267
587.15	0.268
587.36	0.266
587.56	0.265
587.76	0.264
587.97	0.264
588.17	0.263
588.37	0.263
588.58	0.262
588.78	0.260
588.98	0.260
589.19	0.259
589.39	0.257
589.60	0.258
589.80	0.256
590.00	0.255
590.21	0.255
590.41	0.253
590.61	0.252
590.82	0.252
591.02	0.251
591.22	0.249
591.43	0.250
591.63	0.248
591.83	0.248
592.04	0.247
592.24	0.248
592.44	0.245
592.65	0.244
592.85	0.244
593.05	0.244
593.26	0.242
593.46	0.242
593.66	0.242
593.86	0.241
594.07	0.239
594.27	0.239
594.47	0.237
594.68	0.236
594.88	0.237
595.08	0.236
595.29	0.236
595.49	0.234
595.69	0.233
595.90	0.232
596.10	0.232
596.30	0.232
596.50	0.231
596.71	0.231
596.91	0.230
597.11	0.229
597.32	0.228
597.52	0.228
597.72	0.227
597.93	0.227
598.13	0.225
598.33	0.225
598.53	0.224
598.74	0.224
598.94	0.223
599.14	0.223
599.35	0.223
599.55	0.222
599.75	0.221
599.95	0.220
600.16	0.221
600.36	0.219
600.56	0.220
600.76	0.219
600.97	0.217
601.17	0.217
601.37	0.217
601.58	0.216
601.78	0.216
601.98	0.215
602.18	0.214
602.39	0.214
602.59	0.214
602.79	0.212
602.99	0.213
603.20	0.211
603.40	0.211
603.60	0.211
603.80	0.210
604.01	0.210
604.21	0.209
604.41	0.209
604.61	0.208
604.82	0.207
605.02	0.207
605.22	0.206
605.42	0.205
605.62	0.206
605.83	0.205
606.03	0.204
606.23	0.204
606.43	0.203
606.64	0.203
606.84	0.202
607.04	0.202
607.24	0.202
607.45	0.202
607.65	0.201
607.85	0.201
608.05	0.199
608.25	0.199
608.46	0.198
608.66	0.198
608.86	0.198
609.06	0.197
609.26	0.196
609.47	0.196
609.67	0.195
609.87	0.196
610.07	0.195
610.28	0.194
610.48	0.194
610.68	0.195
610.88	0.193
611.08	0.194
611.29	0.193
611.49	0.192
611.69	0.193
611.89	0.191
612.09	0.190
612.29	0.190
612.50	0.189
612.70	0.189
612.90	0.188
613.10	0.187
613.30	0.186
613.51	0.186
613.71	0.186
613.91	0.190
614.11	0.185
614.31	0.185
614.51	0.185
614.72	0.184
614.92	0.183
615.12	0.183
615.32	0.184
615.52	0.183
615.72	0.184
615.93	0.183
616.13	0.182
616.33	0.182
616.53	0.182
616.73	0.182
616.93	0.180
617.14	0.181
617.34	0.181
617.54	0.181
617.74	0.181
617.94	0.180
618.14	0.179
618.34	0.179
618.55	0.178
618.75	0.179
618.95	0.179
619.15	0.179
619.35	0.178
619.55	0.177
619.75	0.177
619.96	0.176
620.16	0.176
620.36	0.176
620.56	0.176
620.76	0.176
620.96	0.175
621.16	0.175
621.36	0.175
621.57	0.176
621.77	0.176
621.97	0.175
622.17	0.175
622.37	0.175
622.57	0.176
622.77	0.175
622.97	0.174
623.18	0.174
623.38	0.174
623.58	0.173
623.78	0.172
623.98	0.172
624.18	0.172
624.38	0.171
624.58	0.171
624.78	0.171
624.98	0.171
625.19	0.171
625.39	0.171
625.59	0.170
625.79	0.170
625.99	0.170
626.19	0.169
626.39	0.169
626.59	0.169
626.79	0.169
626.99	0.169
627.19	0.168
627.40	0.169
627.60	0.168
627.80	0.168
628.00	0.168
628.20	0.167
628.40	0.167
628.60	0.167
628.80	0.165
629.00	0.165
629.20	0.164
629.40	0.164
629.60	0.163
629.80	0.164
630.00	0.163
630.20	0.163
630.41	0.163
630.61	0.163
630.81	0.162
631.01	0.163
631.21	0.162
631.41	0.162
631.61	0.163
631.81	0.162
632.01	0.162
632.21	0.162
632.41	0.160
632.61	0.160
632.81	0.160
633.01	0.160
633.21	0.160
633.41	0.160
633.61	0.159
633.81	0.158
634.01	0.158
634.21	0.158
634.41	0.157
634.61	0.158
634.81	0.158
635.01	0.157
635.22	0.158
635.42	0.157
635.62	0.157
635.82	0.158
636.02	0.157
636.22	0.157
636.42	0.157
636.62	0.157
636.82	0.156
637.02	0.156
637.22	0.156
637.42	0.156
637.62	0.155
637.82	0.156
638.02	0.155
638.22	0.155
638.42	0.154
638.62	0.153
638.82	0.153
639.02	0.153
639.22	0.153
639.42	0.152
639.62	0.152
639.82	0.151
640.02	0.151
640.22	0.151
640.42	0.151
640.62	0.151
640.82	0.152
641.02	0.151
641.22	0.152
641.42	0.151
641.61	0.151
641.81	0.151
642.01	0.151
642.21	0.151
642.41	0.151
642.61	0.150
642.81	0.149
643.01	0.149
643.21	0.149
643.41	0.149
643.61	0.149
643.81	0.148
644.01	0.147
644.21	0.147
644.41	0.147
644.61	0.147
644.81	0.147
645.01	0.147
645.21	0.146
645.41	0.147
645.61	0.146
645.81	0.146
646.01	0.146
646.21	0.147
646.40	0.146
646.60	0.146
646.80	0.147
647.00	0.146
647.20	0.145
647.40	0.145
647.60	0.144
647.80	0.144
648.00	0.144
648.20	0.143
648.40	0.143
648.60	0.143
648.80	0.143
649.00	0.143
649.20	0.143
649.39	0.142
649.59	0.142
649.79	0.142
649.99	0.142
650.19	0.141
650.39	0.141
650.59	0.141
650.79	0.140
650.99	0.140
651.19	0.139
651.39	0.140
651.58	0.139
651.78	0.139
651.98	0.139
652.18	0.139
652.38	0.138
652.58	0.139
652.78	0.139
652.98	0.138
653.18	0.139
653.38	0.139
653.57	0.138
653.77	0.138
653.97	0.138
654.17	0.138
654.37	0.137
654.57	0.137
654.77	0.137
654.97	0.136
655.16	0.136
655.36	0.136
655.56	0.135
655.76	0.135
655.96	0.136
656.16	0.135
656.36	0.135
656.56	0.134
656.75	0.134
656.95	0.134
657.15	0.134
657.35	0.133
657.55	0.133
657.75	0.133
657.95	0.133
658.14	0.132
658.34	0.133
658.54	0.132
658.74	0.132
658.94	0.132
659.14	0.132
659.34	0.131
659.53	0.131
659.73	0.131
659.93	0.130
660.13	0.130
660.33	0.130
660.53	0.129
660.72	0.130
660.92	0.129
661.12	0.129
661.32	0.129
661.52	0.128
661.72	0.128
661.91	0.128
662.11	0.128
662.31	0.128
662.51	0.128
662.71	0.128
662.90	0.127
663.10	0.127
663.30	0.126
663.50	0.127
663.70	0.126
663.90	0.126
664.09	0.126
664.29	0.126
664.49	0.126
664.69	0.125
664.89	0.125
665.08	0.125
665.28	0.125
665.48	0.125
665.68	0.124
665.88	0.124
666.07	0.124
666.27	0.124
666.47	0.124
666.67	0.124
666.87	0.124
667.06	0.123
667.26	0.123
667.46	0.123
667.66	0.123
667.85	0.123
668.05	0.123
668.25	0.123
668.45	0.122
668.65	0.122
668.84	0.122
669.04	0.122
669.24	0.121
669.44	0.121
669.63	0.121
669.83	0.121
670.03	0.120
670.23	0.119
670.42	0.119
670.62	0.119
670.82	0.119
671.02	0.118
671.22	0.118
671.41	0.117
671.61	0.118
671.81	0.118
672.01	0.118
672.20	0.117
672.40	0.117
672.60	0.116
672.80	0.117
672.99	0.117
673.19	0.116
673.39	0.116
673.58	0.116
673.78	0.116
673.98	0.115
674.18	0.115
674.37	0.115
674.57	0.115
674.77	0.115
674.97	0.115
675.16	0.115
675.36	0.115
675.56	0.114
675.75	0.114
675.95	0.114
676.15	0.114
676.35	0.113
676.54	0.114
676.74	0.113
676.94	0.113
677.13	0.112
677.33	0.112
677.53	0.112
677.73	0.112
677.92	0.111
678.12	0.111
678.32	0.110
678.51	0.111
678.71	0.111
678.91	0.111
679.11	0.110
679.30	0.111
679.50	0.110
679.70	0.110
679.89	0.110
680.09	0.111
680.29	0.110
680.48	0.110
680.68	0.109
680.88	0.109
681.07	0.109
681.27	0.109
681.47	0.109
681.66	0.108
681.86	0.108
682.06	0.108
682.25	0.107
682.45	0.107
682.65	0.107
682.84	0.107
683.04	0.107
683.24	0.107
683.43	0.107
683.63	0.106
683.83	0.106
684.02	0.106
684.22	0.106
684.42	0.106
684.61	0.106
684.81	0.106
685.01	0.106
685.20	0.105
685.40	0.105
685.60	0.105
685.79	0.105
685.99	0.105
686.19	0.104
686.38	0.104
686.58	0.104
686.77	0.104
686.97	0.103
687.17	0.103
687.36	0.103
687.56	0.103
687.76	0.102
687.95	0.102
688.15	0.102
688.34	0.102
688.54	0.102
688.74	0.101
688.93	0.101
689.13	0.101
689.33	0.101
689.52	0.101
689.72	0.101
689.91	0.101
690.11	0.100
690.31	0.100
690.50	0.100
690.70	0.100
690.89	0.100
691.09	0.100
691.29	0.100
691.48	0.099
691.68	0.099
691.87	0.099
692.07	0.099
692.27	0.099
692.46	0.099
692.66	0.099
692.85	0.098
693.05	0.099
693.25	0.098
693.44	0.098
693.64	0.098
693.83	0.098
694.03	0.098
694.22	0.097
694.42	0.097
694.62	0.097
694.81	0.097
695.01	0.097
695.20	0.096
695.40	0.096
695.59	0.096
695.79	0.095
695.99	0.095
696.18	0.095
696.38	0.095
696.57	0.095
696.77	0.095
696.96	0.096
697.16	0.096
697.36	0.096
697.55	0.096
697.75	0.096
697.94	0.095
698.14	0.096
698.33	0.095
698.53	0.095
698.72	0.095
698.92	0.095
699.11	0.094
699.31	0.094
699.51	0.094
699.70	0.094
699.90	0.094
700.09	0.094
700.29	0.094
700.48	0.094
700.68	0.093
700.87	0.093
701.07	0.093
701.26	0.093
701.46	0.093
701.65	0.093
701.85	0.092
702.04	0.092
702.24	0.092
702.43	0.092
702.63	0.092
702.82	0.092
703.02	0.091
703.21	0.092
703.41	0.091
703.60	0.091
703.80	0.091
703.99	0.091
704.19	0.091
704.38	0.090
704.58	0.089
704.77	0.089
704.97	0.089
705.16	0.089
705.36	0.089
705.55	0.089
705.75	0.089
705.94	0.089
706.14	0.089
706.33	0.089
706.53	0.089
706.72	0.090
706.92	0.089
707.11	0.089
707.31	0.089
707.50	0.089
707.70	0.089
707.89	0.089
708.09	0.089
708.28	0.089
708.48	0.089
708.67	0.088
708.86	0.088
709.06	0.088
709.25	0.088
709.45	0.088
709.64	0.088
709.84	0.087
710.03	0.087
710.23	0.087
710.42	0.087
710.62	0.087
710.81	0.087
711.00	0.088
711.20	0.087
711.39	0.087
711.59	0.087
711.78	0.087
711.98	0.087
712.17	0.087
712.37	0.087
712.56	0.087
712.75	0.087
712.95	0.087
713.14	0.087
713.34	0.087
713.53	0.088
713.73	0.087
713.92	0.087
714.11	0.087
714.31	0.087
714.50	0.087
714.70	0.087
714.89	0.087
715.08	0.086
715.28	0.086
715.47	0.086
715.67	0.086
715.86	0.086
716.06	0.087
716.25	0.087
716.44	0.086
716.64	0.086
716.83	0.086
717.03	0.086
717.22	0.086
717.41	0.086
717.61	0.085
717.80	0.086
717.99	0.086
718.19	0.085
718.38	0.086
718.58	0.085
718.77	0.085
718.96	0.085
719.16	0.085
719.35	0.085
719.55	0.084
719.74	0.084
719.93	0.084
720.13	0.084
720.32	0.083
720.51	0.083
720.71	0.084
720.90	0.084
721.10	0.083
721.29	0.083
721.48	0.083
721.68	0.083
721.87	0.083
722.06	0.083
722.26	0.084
722.45	0.084
722.64	0.084
722.84	0.084
723.03	0.083
723.22	0.084
723.42	0.084
723.61	0.083
723.80	0.084
724.00	0.084
724.19	0.084
724.38	0.083
724.58	0.083
724.77	0.083
724.96	0.083
725.16	0.083
725.35	0.083
725.54	0.083
725.74	0.083
725.93	0.083
726.12	0.083
726.32	0.083
726.51	0.084
726.70	0.083
726.90	0.084
727.09	0.084
727.28	0.084
727.48	0.084
727.67	0.084
727.86	0.084
728.06	0.084
728.25	0.084
728.44	0.084
728.64	0.084
728.83	0.084
729.02	0.084
729.21	0.084
729.41	0.084
729.60	0.084
729.79	0.084
729.99	0.083
730.18	0.084
730.37	0.083
730.56	0.083
730.76	0.083
730.95	0.083
731.14	0.083
731.34	0.083
731.53	0.083
731.72	0.083
731.91	0.083
732.11	0.083
732.30	0.083
732.49	0.083
732.69	0.084
732.88	0.084
733.07	0.084
733.26	0.084
733.46	0.084
733.65	0.084
733.84	0.084
734.03	0.084
734.23	0.084
734.42	0.084
734.61	0.084
734.80	0.083
735.00	0.083
735.19	0.083
735.38	0.083
735.57	0.083
735.77	0.084
735.96	0.083
736.15	0.084
736.34	0.084
736.54	0.084
736.73	0.084
736.92	0.084
737.11	0.084
737.31	0.083
737.50	0.084
737.69	0.084
737.88	0.083
738.07	0.083
738.27	0.083
738.46	0.083
738.65	0.083
738.84	0.083
739.04	0.084
739.23	0.084
739.42	0.084
739.61	0.084
739.80	0.084
740.00	0.084
740.19	0.084
740.38	0.084
740.57	0.084
740.76	0.083
740.96	0.083
741.15	0.083
741.34	0.083
741.53	0.083
741.72	0.083
741.92	0.083
742.11	0.083
742.30	0.082
742.49	0.082
742.68	0.083
742.88	0.083
743.07	0.082
743.26	0.082
743.45	0.082
743.64	0.082
743.84	0.081
744.03	0.081
744.22	0.082
744.41	0.081
744.60	0.081
744.79	0.081
744.99	0.081
745.18	0.081
745.37	0.081
745.56	0.081
745.75	0.081
745.94	0.081
746.14	0.081
746.33	0.081
746.52	0.081
746.71	0.081
746.90	0.081
747.09	0.081
747.28	0.080
747.48	0.080
747.67	0.080
747.86	0.080
748.05	0.081
748.24	0.080
748.43	0.080
748.62	0.079
748.82	0.079
749.01	0.079
749.20	0.079
749.39	0.079
749.58	0.079
749.77	0.079
749.96	0.079
750.16	0.079
750.35	0.079
750.54	0.079
750.73	0.079
750.92	0.079
751.11	0.079
751.30	0.079
751.49	0.079
751.68	0.079
751.88	0.079
752.07	0.079
752.26	0.079
752.45	0.079
752.64	0.079
752.83	0.079
753.02	0.079
753.21	0.079
753.40	0.079
753.60	0.079
753.79	0.079
753.98	0.079
754.17	0.079
754.36	0.079
754.55	0.079
754.74	0.079
754.93	0.078
755.12	0.079
755.31	0.079
755.50	0.078
755.70	0.078
755.89	0.078
756.08	0.078
756.27	0.078
756.46	0.078
756.65	0.077
756.84	0.077
757.03	0.077
757.22	0.076
757.41	0.077
757.60	0.077
757.79	0.077
757.98	0.077
758.17	0.077
758.36	0.077
758.56	0.077
758.75	0.077
758.94	0.077
759.13	0.077
759.32	0.077
759.51	0.077
759.70	0.077
759.89	0.077
760.08	0.077
760.27	0.077
760.46	0.077
760.65	0.077
760.84	0.077
761.03	0.077
761.22	0.077
761.41	0.077
761.60	0.077
761.79	0.077
761.98	0.077
762.17	0.077
762.36	0.076
762.55	0.076
762.74	0.076
762.93	0.076
763.12	0.076
763.31	0.076
763.50	0.076
763.69	0.076
763.88	0.076
764.07	0.076
764.26	0.076
764.45	0.076
764.64	0.076
764.83	0.076
765.02	0.076
765.21	0.076
765.40	0.076
765.59	0.076
765.78	0.076
765.97	0.076
766.16	0.076
766.35	0.076
766.54	0.076
766.73	0.076
766.92	0.076
767.11	0.075
767.30	0.076
767.49	0.076
767.68	0.076
767.87	0.075
768.06	0.075
768.25	0.075
768.44	0.075
768.63	0.075
768.82	0.075
769.01	0.075
769.20	0.075
769.39	0.075
769.58	0.075
769.77	0.075
769.96	0.075
770.15	0.075
770.34	0.075
770.53	0.074
770.72	0.074
770.91	0.074
771.10	0.074
771.29	0.074
771.47	0.074
771.66	0.073
771.85	0.074
772.04	0.074
772.23	0.074
772.42	0.074
772.61	0.074
772.80	0.074
772.99	0.074
773.18	0.074
773.37	0.074
773.56	0.074
773.75	0.075
773.94	0.074
774.13	0.074
774.31	0.074
774.50	0.074
774.69	0.074
774.88	0.074
775.07	0.074
775.26	0.074
775.45	0.073
775.64	0.073
775.83	0.073
776.02	0.073
776.21	0.073
776.40	0.073
776.58	0.073
776.77	0.073
776.96	0.073
777.15	0.073
777.34	0.073
777.53	0.073
777.72	0.074
777.91	0.073
778.10	0.073
778.28	0.073
778.47	0.073
778.66	0.073
778.85	0.073
779.04	0.073
779.23	0.072
779.42	0.072
779.61	0.072
779.79	0.072
779.98	0.072
780.17	0.072
780.36	0.072
780.55	0.071
780.74	0.071
780.93	0.071
781.12	0.071
781.30	0.071
781.49	0.071
781.68	0.071
781.87	0.071
782.06	0.071
782.25	0.071
782.44	0.071
782.62	0.071
782.81	0.072
783.00	0.072
783.19	0.072
783.38	0.071
783.57	0.071
783.75	0.071
783.94	0.071
784.13	0.071
784.32	0.071
784.51	0.071
784.70	0.071
784.88	0.071
785.07	0.071
785.26	0.070
785.45	0.071
785.64	0.070
785.83	0.071
786.01	0.070
786.20	0.070
786.39	0.071
786.58	0.070
786.77	0.070
786.95	0.070
787.14	0.070
787.33	0.070
787.52	0.070
787.71	0.071
787.90	0.070
788.08	0.070
788.27	0.070
788.46	0.070
788.65	0.070
788.84	0.070
789.02	0.070
789.21	0.070
789.40	0.070
789.59	0.070
789.77	0.070
789.96	0.070
790.15	0.070
790.34	0.070
790.53	0.070
790.71	0.070
790.90	0.069
791.09	0.069
791.28	0.070
791.46	0.070
791.65	0.070
791.84	0.069
792.03	0.069
792.22	0.069
792.40	0.069
792.59	0.069
792.78	0.069
792.97	0.070
793.15	0.070
793.34	0.070
793.53	0.070
793.72	0.070
793.90	0.070
794.09	0.070
794.28	0.070
794.47	0.070
794.65	0.069
794.84	0.069
795.03	0.069
795.22	0.069
795.40	0.068
795.59	0.068
795.78	0.068
795.97	0.068
796.15	0.068
796.34	0.068
796.53	0.068
796.71	0.069
796.90	0.068
797.09	0.069
797.28	0.069
797.46	0.069
797.65	0.069
797.84	0.069
798.02	0.068
798.21	0.068
798.40	0.068
798.59	0.068
798.77	0.068
798.96	0.067
799.15	0.067
799.33	0.067
799.52	0.067
799.71	0.067
799.90	0.067
800.08	0.067
800.27	0.067
800.46	0.067
800.64	0.067
800.83	0.067
801.02	0.067
801.20	0.068
801.39	0.067
801.58	0.068
801.76	0.068
801.95	0.068
802.14	0.068
802.32	0.068
802.51	0.068
802.70	0.068
802.88	0.068
803.07	0.068
803.26	0.067
803.44	0.067
803.63	0.067
803.82	0.067
804.00	0.067
804.19	0.068
804.38	0.068
804.56	0.068
804.75	0.068
804.94	0.068
805.12	0.068
805.31	0.068
805.50	0.068
805.68	0.068
805.87	0.068
806.06	0.068
806.24	0.068
806.43	0.068
806.62	0.068
806.80	0.068
806.99	0.067
807.17	0.067
807.36	0.067
807.55	0.067
807.73	0.067
807.92	0.067
808.11	0.067
808.29	0.067
808.48	0.066
808.66	0.066
808.85	0.066
809.04	0.066
809.22	0.066
809.41	0.066
809.59	0.066
809.78	0.066
809.97	0.066
810.15	0.066
810.34	0.066
810.53	0.066
810.71	0.066
810.90	0.066
811.08	0.066
811.27	0.066
811.45	0.066
811.64	0.066
811.83	0.066
812.01	0.065
812.20	0.065
812.38	0.066
812.57	0.066
812.76	0.066
812.94	0.065
813.13	0.065
813.31	0.065
813.50	0.065
813.68	0.066
813.87	0.065
814.06	0.066
814.24	0.065
814.43	0.066
814.61	0.066
814.80	0.066
814.98	0.066
815.17	0.066
815.36	0.066
815.54	0.066
815.73	0.066
815.91	0.066
816.10	0.067
816.28	0.067
816.47	0.066
816.65	0.067
816.84	0.067
817.03	0.068
817.21	0.068
817.40	0.067
817.58	0.067
817.77	0.067
817.95	0.067
818.14	0.067
818.32	0.067
818.51	0.068
818.69	0.067
818.88	0.067
819.06	0.067
819.25	0.067
819.43	0.067
819.62	0.067
819.80	0.067
819.99	0.067
820.18	0.067
820.36	0.066
820.55	0.066
820.73	0.066
820.92	0.066
821.10	0.066
821.29	0.066
821.47	0.066
821.66	0.066
821.84	0.066
822.03	0.066
822.21	0.066
822.40	0.066
822.58	0.067
822.77	0.067
822.95	0.067
823.14	0.067
823.32	0.067
823.50	0.067
823.69	0.067
823.87	0.067
824.06	0.067
824.24	0.067
824.43	0.067
824.61	0.067
824.80	0.067
824.98	0.068
825.17	0.068
825.35	0.068
825.54	0.068
825.72	0.068
825.91	0.068
826.09	0.068
826.28	0.068
826.46	0.069
826.64	0.068
826.83	0.068
827.01	0.068
827.20	0.068
827.38	0.068
827.57	0.068
827.75	0.068
827.94	0.069
828.12	0.069
828.31	0.069
828.49	0.069
828.67	0.069
828.86	0.069
829.04	0.069
829.23	0.069
829.41	0.070
829.60	0.070
829.78	0.070
829.96	0.070
830.15	0.071
830.33	0.071
830.52	0.071
830.70	0.071
830.88	0.071
831.07	0.071
831.25	0.071
831.44	0.071
831.62	0.071
831.81	0.071
831.99	0.071
832.17	0.071
832.36	0.072
832.54	0.072
832.73	0.072
832.91	0.072
833.09	0.072
833.28	0.072
833.46	0.072
833.65	0.072
833.83	0.072
834.01	0.072
834.20	0.072
834.38	0.072
834.56	0.072
834.75	0.073
834.93	0.073
835.12	0.073
835.30	0.073
835.48	0.073
835.67	0.073
835.85	0.073
836.03	0.073
836.22	0.073
836.40	0.073
836.59	0.073
836.77	0.073
836.95	0.073
837.14	0.073
837.32	0.073
837.50	0.073
837.69	0.073
837.87	0.073
838.05	0.073
838.24	0.073
838.42	0.073
838.60	0.073
838.79	0.074
838.97	0.073
839.15	0.073
839.34	0.073
839.52	0.073
839.70	0.073
839.89	0.074
840.07	0.074
840.25	0.074
840.44	0.074
840.62	0.074
840.80	0.073
840.99	0.073
841.17	0.073
841.35	0.074
841.54	0.074
841.72	0.074
841.90	0.074
842.09	0.074
842.27	0.074
842.45	0.074
842.64	0.074
842.82	0.075
843.00	0.075
843.19	0.074
843.37	0.074
843.55	0.074
843.73	0.074
843.92	0.074
844.10	0.074
844.28	0.074
844.47	0.074
844.65	0.074
844.83	0.074
845.01	0.074
845.20	0.074
845.38	0.074
845.56	0.074
845.75	0.074
845.93	0.074
846.11	0.074
846.29	0.074
846.48	0.075
846.66	0.075
846.84	0.074
847.02	0.074
847.21	0.074
847.39	0.074
847.57	0.074
847.76	0.074
847.94	0.074
848.12	0.074
848.30	0.074
848.49	0.074
848.67	0.074
848.85	0.074
849.03	0.074
849.22	0.074
849.40	0.075
849.58	0.075
849.76	0.075
849.95	0.075
850.13	0.075
850.31	0.075
850.49	0.076
850.67	0.076
850.86	0.076
851.04	0.076
851.22	0.076
851.40	0.076
851.59	0.075
851.77	0.075
851.95	0.075
852.13	0.075
852.31	0.075
852.50	0.076
852.68	0.076
852.86	0.076
853.04	0.076
853.23	0.076
853.41	0.075
853.59	0.075
853.77	0.075
853.95	0.075
854.14	0.076
854.32	0.075
854.50	0.075
854.68	0.075
854.86	0.075
855.04	0.075
855.23	0.075
855.41	0.075
855.59	0.076
855.77	0.076
855.95	0.076
856.14	0.076
856.32	0.075
856.50	0.075
856.68	0.075
856.86	0.076
857.04	0.075
857.23	0.075
857.41	0.075
857.59	0.075
857.77	0.075
857.95	0.075
858.13	0.075
858.32	0.075
858.50	0.076
858.68	0.075
858.86	0.076
859.04	0.076
859.22	0.076
859.41	0.076
859.59	0.076
859.77	0.076
859.95	0.076
860.13	0.076
860.31	0.076
860.49	0.076
860.68	0.076
860.86	0.076
861.04	0.076
861.22	0.076
861.40	0.076
861.58	0.076
861.76	0.076
861.94	0.076
862.13	0.076
862.31	0.076
862.49	0.076
862.67	0.076
862.85	0.076
863.03	0.076
863.21	0.077
863.39	0.077
863.57	0.077
863.76	0.077
863.94	0.077
864.12	0.077
864.30	0.077
864.48	0.077
864.66	0.077
864.84	0.077
865.02	0.077
865.20	0.077
865.38	0.077
865.57	0.077
865.75	0.077
865.93	0.077
866.11	0.077
866.29	0.077
866.47	0.077
866.65	0.078
866.83	0.077
867.01	0.077
867.19	0.077
867.37	0.077
867.55	0.077
867.73	0.077
867.92	0.077
868.10	0.077
868.28	0.077
868.46	0.077
868.64	0.077
868.82	0.077
869.00	0.078
869.18	0.078
869.36	0.078
869.54	0.078
869.72	0.078
869.90	0.078
870.08	0.078
870.26	0.078
870.44	0.078
870.62	0.078
870.80	0.078
870.98	0.078
871.16	0.077
871.34	0.077
871.53	0.078
871.71	0.077
871.89	0.077
872.07	0.078
872.25	0.078
872.43	0.078
872.61	0.078
872.79	0.078
872.97	0.078
873.15	0.078
873.33	0.079
873.51	0.079
873.69	0.079
873.87	0.078
874.05	0.079
874.23	0.078
874.41	0.078
874.59	0.079
874.77	0.078
874.95	0.078
875.13	0.078
875.31	0.078
875.49	0.078
875.67	0.078
875.85	0.078
876.03	0.078
876.21	0.079
876.39	0.079
876.57	0.079
876.75	0.079
876.93	0.079
877.11	0.079
877.29	0.079
877.47	0.079
877.65	0.079
877.82	0.080
878.00	0.080
878.18	0.079
878.36	0.079
878.54	0.080
878.72	0.080
878.90	0.080
879.08	0.080
879.26	0.080
879.44	0.080
879.62	0.080
879.80	0.080
879.98	0.080
880.16	0.080
880.34	0.080
880.52	0.080
880.70	0.079
880.88	0.079
881.06	0.080
881.24	0.079
881.42	0.080
881.59	0.079
881.77	0.079
881.95	0.079
882.13	0.079
882.31	0.079
882.49	0.079
882.67	0.080
882.85	0.079
883.03	0.080
883.21	0.080
883.39	0.080
883.57	0.080
883.75	0.080
883.92	0.080
884.10	0.081
884.28	0.080
884.46	0.080
884.64	0.080
884.82	0.081
885.00	0.080
885.18	0.081
885.36	0.081
885.54	0.081
885.71	0.081
885.89	0.081
886.07	0.081
886.25	0.081
886.43	0.081
886.61	0.081
886.79	0.081
886.97	0.081
887.15	0.081
887.32	0.081
887.50	0.081
887.68	0.081
887.86	0.081
888.04	0.081
888.22	0.081
888.40	0.081
888.57	0.082
888.75	0.082
888.93	0.082
889.11	0.082
889.29	0.082
889.47	0.082
889.65	0.082
889.82	0.082
890.00	0.082
890.18	0.082
890.36	0.083
890.54	0.083
890.72	0.083
890.90	0.083
891.07	0.083
891.25	0.082
891.43	0.082
891.61	0.082
891.79	0.082
891.97	0.082
892.14	0.082
892.32	0.082
892.50	0.082
892.68	0.082
892.86	0.082
893.03	0.082
893.21	0.083
893.39	0.083
893.57	0.084
893.75	0.084
893.93	0.083
894.10	0.083
894.28	0.083
894.46	0.083
894.64	0.083
894.82	0.083
894.99	0.083
895.17	0.083
895.35	0.083
895.53	0.083
895.71	0.083
895.88	0.083
896.06	0.083
896.24	0.083
896.42	0.083
896.59	0.083
896.77	0.083
896.95	0.083
897.13	0.084
897.31	0.084
897.48	0.083
897.66	0.084
897.84	0.084
898.02	0.084
898.19	0.084
898.37	0.084
898.55	0.084
898.73	0.084
898.91	0.084
899.08	0.084
899.26	0.084
899.44	0.084
899.62	0.084
899.79	0.085
899.97	0.085
900.15	0.085
900.33	0.085
900.50	0.085
900.68	0.084
900.86	0.085
901.04	0.085
901.21	0.085
901.39	0.085
901.57	0.085
901.74	0.085
901.92	0.084
902.10	0.085
902.28	0.084
902.45	0.084
902.63	0.084
902.81	0.084
902.99	0.085
903.16	0.085
903.34	0.085
903.52	0.085
903.69	0.085
903.87	0.085
904.05	0.085
904.22	0.086
904.40	0.086
904.58	0.086
904.76	0.086
904.93	0.086
905.11	0.086
905.29	0.086
905.46	0.086
905.64	0.086
905.82	0.086
905.99	0.086
906.17	0.086
906.35	0.086
906.53	0.086
906.70	0.086
906.88	0.086
907.06	0.086
907.23	0.086
907.41	0.087
907.59	0.087
907.76	0.087
907.94	0.087
908.12	0.087
908.29	0.087
908.47	0.088
908.65	0.088
908.82	0.088
909.00	0.088
909.18	0.088
909.35	0.088
909.53	0.088
909.71	0.088
909.88	0.088
910.06	0.088
910.23	0.088
910.41	0.088
910.59	0.088
910.76	0.088
910.94	0.088
911.12	0.088
911.29	0.088
911.47	0.088
911.65	0.088
911.82	0.088
912.00	0.088
912.17	0.088
912.35	0.088
912.53	0.088
912.70	0.088
912.88	0.089
913.06	0.089
913.23	0.090
913.41	0.090
913.58	0.090
913.76	0.090
913.94	0.090
914.11	0.090
914.29	0.090
914.46	0.091
914.64	0.090
914.82	0.090
914.99	0.090
915.17	0.090
915.34	0.090
915.52	0.090
915.70	0.090
915.87	0.090
916.05	0.090
916.22	0.090
916.40	0.091
916.57	0.092
916.75	0.092
916.93	0.092
917.10	0.092
917.28	0.092
917.45	0.092
917.63	0.092
917.80	0.092
917.98	0.092
918.16	0.092
918.33	0.093
918.51	0.093
918.68	0.093
918.86	0.093
919.03	0.093
919.21	0.093
919.39	0.094
919.56	0.094
919.74	0.095
919.91	0.094
920.09	0.095
920.26	0.095
920.44	0.095
920.61	0.095
920.79	0.095
920.96	0.095
921.14	0.095
921.31	0.095
921.49	0.095
921.67	0.096
921.84	0.096
922.02	0.096
922.19	0.097
922.37	0.097
922.54	0.097
922.72	0.097
922.89	0.098
923.07	0.098
923.24	0.098
923.42	0.098
923.59	0.099
923.77	0.099
923.94	0.099
924.12	0.100
924.29	0.100
924.47	0.100
924.64	0.101
924.82	0.101
924.99	0.101
925.17	0.102
925.34	0.102
925.52	0.102
925.69	0.103
925.87	0.103
926.04	0.103
926.22	0.104
926.39	0.104
926.57	0.104
926.74	0.104
926.91	0.104
927.09	0.105
927.26	0.105
927.44	0.105
927.61	0.105
927.79	0.106
927.96	0.106
928.14	0.107
928.31	0.107
928.49	0.107
928.66	0.108
928.84	0.109
929.01	0.109
929.18	0.110
929.36	0.110
929.53	0.111
929.71	0.111
929.88	0.111
930.06	0.111
930.23	0.112
930.41	0.112
930.58	0.112
930.75	0.113
930.93	0.113
931.10	0.113
931.28	0.114
931.45	0.114
931.63	0.114
931.80	0.114
931.97	0.115
932.15	0.116
932.32	0.116
932.50	0.116
932.67	0.117
932.84	0.118
933.02	0.118
933.19	0.118
933.37	0.119
933.54	0.119
933.71	0.120
933.89	0.121
934.06	0.121
934.24	0.121
934.41	0.122
934.58	0.122
934.76	0.123
934.93	0.123
935.11	0.123
935.28	0.124
935.45	0.124
935.63	0.125
935.80	0.126
935.98	0.126
936.15	0.126
936.32	0.127
936.50	0.128
936.67	0.128
936.84	0.128
937.02	0.130
937.19	0.130
937.36	0.131
937.54	0.131
937.71	0.132
937.89	0.132
938.06	0.132
938.23	0.133
938.41	0.133
938.58	0.133
938.75	0.134
938.93	0.135
939.10	0.135
939.27	0.135
939.45	0.136
939.62	0.136
939.79	0.137
939.97	0.137
940.14	0.138
940.31	0.139
940.49	0.139
940.66	0.140
940.83	0.140
941.01	0.141
941.18	0.142
941.35	0.143
941.53	0.144
941.70	0.144
941.87	0.144
942.05	0.145
942.22	0.146
942.39	0.147
942.57	0.147
942.74	0.148
942.91	0.148
943.08	0.149
943.26	0.149
943.43	0.150
943.60	0.150
943.78	0.151
943.95	0.152
944.12	0.152
944.29	0.153
944.47	0.154
944.64	0.155
944.81	0.156
944.99	0.157
945.16	0.157
945.33	0.158
945.50	0.158
945.68	0.159
945.85	0.160
946.02	0.161
946.20	0.162
946.37	0.163
946.54	0.164
946.71	0.165
946.89	0.165
947.06	0.166
947.23	0.167
947.40	0.169
947.58	0.169
947.75	0.170
947.92	0.171
948.09	0.171
948.27	0.172
948.44	0.174
948.61	0.175
948.78	0.175
948.96	0.177
949.13	0.177
949.30	0.178
949.47	0.179
949.65	0.180
949.82	0.182
949.99	0.182
950.16	0.184
950.33	0.185
950.51	0.186
950.68	0.188
950.85	0.188
951.02	0.190
951.20	0.191
951.37	0.192
951.54	0.193
951.71	0.195
951.88	0.196
952.06	0.197
952.23	0.197
952.40	0.199
952.57	0.200
952.74	0.202
952.92	0.202
953.09	0.204
953.26	0.205
953.43	0.206
953.60	0.207
953.77	0.208
953.95	0.208
954.12	0.211
954.29	0.212
954.46	0.214
954.63	0.215
954.81	0.216
954.98	0.217
955.15	0.219
955.32	0.220
955.49	0.220
955.66	0.222
955.84	0.223
956.01	0.223
956.18	0.226
956.35	0.227
956.52	0.227
956.69	0.229
956.87	0.229
957.04	0.230
957.21	0.233
957.38	0.232
957.55	0.234
957.72	0.235
957.89	0.236
958.07	0.236
958.24	0.238
958.41	0.240
958.58	0.239
958.75	0.240
958.92	0.241
959.09	0.241
959.26	0.242
959.44	0.243
959.61	0.244
959.78	0.245
959.95	0.246
960.12	0.246
960.29	0.248
960.46	0.248
960.63	0.248
960.81	0.248
960.98	0.249
961.15	0.250
961.32	0.250
961.49	0.250
961.66	0.251
961.83	0.251
962.00	0.251
962.17	0.253
962.34	0.252
962.52	0.253
962.69	0.254
962.86	0.254
963.03	0.254
963.20	0.255
963.37	0.254
963.54	0.255
963.71	0.255
963.88	0.255
964.05	0.255
964.22	0.257
964.39	0.256
964.56	0.256
964.74	0.256
964.91	0.256
965.08	0.256
965.25	0.257
965.42	0.257
965.59	0.258
965.76	0.257
965.93	0.259
966.10	0.257
966.27	0.258
966.44	0.257
966.61	0.259
966.78	0.258
966.95	0.258
967.12	0.259
967.29	0.261
967.46	0.260
967.63	0.260
967.80	0.261
967.97	0.260
968.14	0.261
968.32	0.261
968.49	0.262
968.66	0.261
968.83	0.261
969.00	0.261
969.17	0.261
969.34	0.262
969.51	0.264
969.68	0.263
969.85	0.263
970.02	0.263
970.19	0.263
970.36	0.264
970.53	0.264
970.70	0.262
970.87	0.263
971.04	0.262
971.21	0.262
971.38	0.262
971.55	0.262
971.72	0.262
971.89	0.263
972.06	0.262
972.23	0.262
972.40	0.262
972.57	0.262
972.74	0.262
972.91	0.263
973.07	0.263
973.24	0.262
973.41	0.262
973.58	0.261
973.75	0.273
973.92	0.262
974.09	0.261
974.26	0.261
974.43	0.260
974.60	0.261
974.77	0.262
974.94	0.261
975.11	0.262
975.28	0.263
975.45	0.261
975.62	0.262
975.79	0.263
975.96	0.261
976.13	0.260
976.30	0.262
976.47	0.261
976.64	0.261
976.80	0.261
976.97	0.262
977.14	0.261
977.31	0.262
977.48	0.262
977.65	0.262
977.82	0.261
977.99	0.263
978.16	0.262
978.33	0.261
978.50	0.260
978.67	0.261
978.83	0.260
979.00	0.260
979.17	0.260
979.34	0.259
979.51	0.258
979.68	0.259
979.85	0.258
980.02	0.259
980.19	0.257
980.36	0.259
980.52	0.260
980.69	0.258
980.86	0.258
981.03	0.258
981.20	0.256
981.37	0.257
981.54	0.258
981.71	0.257
981.88	0.257
982.04	0.257
982.21	0.256
982.38	0.258
982.55	0.257
982.72	0.256
982.89	0.258
983.06	0.256
983.22	0.256
983.39	0.256
983.56	0.255
983.73	0.254
983.90	0.253
984.07	0.255
984.24	0.253
984.40	0.253
984.57	0.251
984.74	0.253
984.91	0.254
985.08	0.252
985.25	0.250
985.41	0.252
985.58	0.252
985.75	0.254
985.92	0.252
986.09	0.251
986.26	0.251
986.42	0.250
986.59	0.248
986.76	0.250
986.93	0.251
987.10	0.251
987.27	0.248
987.43	0.247
987.60	0.248
987.77	0.248
987.94	0.246
988.11	0.247
988.27	0.248
988.44	0.247
988.61	0.245
988.78	0.244
988.95	0.244
989.11	0.246
989.28	0.244
989.45	0.243
989.62	0.243
989.79	0.244
989.95	0.243
990.12	0.244
990.29	0.244
990.46	0.243
990.62	0.241
990.79	0.242
990.96	0.242
991.13	0.242
991.30	0.240
991.46	0.240
991.63	0.238
991.80	0.237
991.97	0.237
992.13	0.238
992.30	0.239
992.47	0.237
992.64	0.237
992.80	0.237
992.97	0.237
993.14	0.235
993.31	0.232
993.47	0.235
993.64	0.233
993.81	0.233
993.98	0.233
994.14	0.232
994.31	0.231
994.48	0.233
994.64	0.233
994.81	0.231
994.98	0.232
995.15	0.230
995.31	0.230
995.48	0.230
995.65	0.232
995.82	0.228
995.98	0.228
996.15	0.229
996.32	0.230
996.48	0.229
996.65	0.228
996.82	0.226
996.99	0.227
997.15	0.227
997.32	0.227
997.49	0.225
997.65	0.226
997.82	0.225
997.99	0.223
998.15	0.224
998.32	0.225
998.49	0.224
998.65	0.224
998.82	0.223
998.99	0.221
999.15	0.222
999.32	0.221
999.49	0.221
999.65	0.221
999.82	0.219
999.99	0.219
1000.15	0.219
1000.32	0.219
1000.49	0.219
1000.65	0.217
1000.82	0.216
1000.99	0.216
1001.15	0.217
1001.32	0.216
1001.49	0.216
1001.65	0.216
1001.82	0.218
1001.99	0.215
1002.15	0.214
1002.32	0.214
1002.49	0.215
1002.65	0.214
1002.82	0.212
1002.99	0.211
1003.15	0.213
1003.32	0.212
1003.48	0.212
1003.65	0.211
1003.82	0.210
1003.98	0.208
1004.15	0.207
1004.32	0.208
1004.48	0.208
1004.65	0.209
1004.81	0.206
1004.98	0.204
1005.15	0.205
1005.31	0.205
1005.48	0.203
1005.64	0.203
1005.81	0.206
1005.98	0.203
1006.14	0.203
1006.31	0.203
1006.47	0.202
1006.64	0.200
1006.81	0.200
1006.97	0.200
1007.14	0.200
1007.30	0.201
1007.47	0.200
1007.63	0.197
1007.80	0.196
1007.97	0.196
1008.13	0.197
1008.30	0.197
1008.46	0.197
1008.63	0.196
1008.79	0.197
1008.96	0.197
1009.13	0.198
1009.29	0.196
1009.46	0.196
1009.62	0.196
1009.79	0.194
1009.95	0.193
1010.12	0.194
1010.28	0.194
1010.45	0.193
1010.62	0.192
1010.78	0.191
1010.95	0.189
1011.11	0.190
1011.28	0.189
1011.44	0.192
1011.61	0.189
1011.77	0.189
1011.94	0.188
1012.10	0.189
1012.27	0.188
1012.43	0.188
1012.60	0.187
1012.76	0.187
1012.93	0.186
1013.10	0.184
1013.26	0.182
1013.43	0.184
1013.59	0.191
1013.76	0.184
1013.92	0.183
1014.09	0.181
1014.25	0.182
1014.42	0.183
1014.58	0.183
1014.75	0.185
1014.91	0.184
1015.08	0.186
1015.24	0.182
1015.41	0.183
1015.57	0.182
1015.73	0.181
1015.90	0.180
1016.06	0.183
1016.23	0.181
1016.39	0.181
1016.56	0.181
1016.72	0.179
1016.89	0.179
1017.05	0.180
1017.22	0.177
1017.38	0.177
1017.55	0.175
1017.71	0.177
1017.88	0.175
1018.04	0.176
1018.21	0.173
1018.37	0.174
1018.53	0.174
1018.70	0.172
1018.86	0.172
1019.03	0.174
1019.19	0.172
1019.36	0.172
1019.52	0.173
1019.69	0.173
1019.85	0.172
1020.01	0.171
1020.18	0.170
1020.34	0.170
1020.51	0.169
1020.67	0.170
1020.84	0.169
1021.00	0.169
1021.16	0.167
1021.33	0.168
1021.49	0.167
1021.66	0.167
1021.82	0.166
1021.98	0.166
1022.15	0.166
1022.31	0.165
1022.48	0.164
1022.64	0.165
1022.80	0.163
1022.97	0.161
1023.13	0.160
1023.30	0.161
1023.46	0.162
1023.62	0.159
1023.79	0.160
1023.95	0.161
1024.12	0.161
1024.28	0.160
1024.44	0.161
1024.61	0.160
1024.77	0.160
1024.93	0.159
1025.10	0.161
1025.26	0.159
1025.43	0.160
1025.59	0.156
1025.75	0.159
1025.92	0.158
1026.08	0.157
1026.24	0.156
1026.41	0.157
1026.57	0.156
1026.73	0.154
1026.90	0.155
1027.06	0.153
1027.23	0.154
1027.39	0.154
1027.55	0.154
1027.72	0.153
1027.88	0.153
1028.04	0.154
1028.21	0.156
1028.37	0.149
1028.53	0.154
1028.70	0.152
1028.86	0.150
1029.02	0.150
1029.19	0.151
1029.35	0.149
1029.51	0.148
1029.67	0.147
1029.84	0.148
1030.00	0.144
1030.16	0.145
1030.33	0.148
1030.49	0.145
1030.65	0.144
1030.82	0.159
1030.98	0.146
1031.14	0.147
1031.31	0.147
1031.47	0.144
1031.63	0.147
1031.79	0.145
1031.96	0.146
1032.12	0.147
1032.28	0.146
1032.45	0.149
1032.61	0.147
1032.77	0.147
1032.93	0.144
1033.10	0.145
1033.26	0.148
1033.42	0.145
1033.58	0.145
1033.75	0.146
1033.91	0.145
1034.07	0.147
1034.24	0.145
1034.40	0.144
1034.56	0.143
1034.72	0.144
1034.89	0.144
1035.05	0.141
1035.21	0.142
1035.37	0.141
1035.54	0.144
1035.70	0.141
1035.86	0.139
1036.02	0.141
1036.19	0.139
1036.35	0.137
1036.51	0.140
1036.67	0.138
1036.83	0.137
1037.00	0.136
1037.16	0.136
1037.32	0.136
1037.48	0.136
1037.65	0.140
1037.81	0.136
1037.97	0.136
1038.13	0.135
1038.29	0.135
1038.46	0.133
1038.62	0.136
1038.78	0.135
1038.94	0.133
1039.10	0.137
1039.27	0.133
1039.43	0.134
1039.59	0.133
1039.75	0.132
1039.91	0.132
1040.08	0.130
1040.24	0.132
1040.40	0.133
1040.56	0.131
1040.72	0.125
1040.89	0.127
1041.05	0.129
1041.21	0.128
1041.37	0.128
1041.53	0.133
1041.69	0.131
1041.86	0.130
1042.02	0.128
1042.18	0.128
1042.34	0.130
1042.50	0.134
1042.66	0.130
1042.83	0.128
1042.99	0.131
1043.15	0.127
1043.31	0.127
1043.47	0.131
1043.63	0.129
1043.79	0.128
1043.96	0.130
1044.12	0.134
1044.28	0.130
1044.44	0.133
1044.60	0.129
1044.76	0.127
1044.92	0.130
1045.09	0.133
1045.25	0.130
1045.41	0.131
1045.57	0.126
1045.73	0.126
1045.89	0.127
1046.05	0.130
1046.21	0.133
1046.38	0.126
1046.54	0.127
1046.70	0.130
1046.86	0.124
>>>>>End Processed Spectral Data<<<<<
