SpectraSuite Data File
++++++++++++++++++++++++++++++++++++
Date: Mon May 20 12:12:03 CDT 2013
User: Students
Dark Spectrum Present: Yes
Reference Spectrum Present: Yes
Number of Sampled Component Spectra: 1
Spectrometers: USB4H00887
Integration Time (usec): 60000 (USB4H00887)
Spectra Averaged: 5 (USB4H00887)
Boxcar Smoothing: 5 (USB4H00887)
Correct for Electrical Dark: No (USB4H00887)
Strobe/Lamp Enabled: No (USB4H00887)
Correct for Detector Non-linearity: No (USB4H00887)
Correct for Stray Light: No (USB4H00887)
Number of Pixels in Processed Spectrum: 3648
>>>>>Begin Processed Spectral Data<<<<<
345.83	-0.116
346.05	-0.116
346.26	-0.116
346.48	-0.000
346.70	0.138
346.92	0.122
347.14	0.082
347.35	0.090
347.57	0.576
347.79	-0.315
348.01	-0.223
348.23	-0.379
348.44	-0.000
348.66	0.415
348.88	-0.430
349.10	-0.187
349.32	0.063
349.53	-0.030
349.75	-0.021
349.97	-0.026
350.19	0.033
350.41	0.008
350.62	-0.258
350.84	0.038
351.06	0.042
351.28	0.037
351.50	-0.014
351.71	0.046
351.93	0.031
352.15	-0.006
352.37	-0.016
352.58	-0.003
352.80	0.023
353.02	0.026
353.24	0.027
353.46	0.097
353.67	-0.083
353.89	0.021
354.11	0.012
354.33	0.038
354.54	0.100
354.76	0.180
354.98	0.267
355.20	0.198
355.41	0.091
355.63	0.175
355.85	0.074
356.07	0.762
356.28	0.077
356.50	0.137
356.72	0.049
356.94	0.116
357.15	0.144
357.37	-0.000
357.59	0.091
357.81	0.033
358.02	0.101
358.24	0.087
358.46	0.185
358.68	0.196
358.89	0.113
359.11	-0.000
359.33	0.112
359.55	-0.645
359.76	0.158
359.98	0.231
360.20	0.247
360.42	0.175
360.63	0.216
360.85	0.158
361.07	1.540
361.29	0.125
361.50	0.300
361.72	0.109
361.94	0.480
362.15	0.181
362.37	0.089
362.59	0.100
362.81	0.144
363.02	0.215
363.24	0.321
363.46	0.192
363.68	0.262
363.89	0.177
364.11	0.244
364.33	0.331
364.54	0.195
364.76	0.218
364.98	0.195
365.20	0.235
365.41	0.137
365.63	0.161
365.85	0.105
366.06	0.301
366.28	0.340
366.50	0.228
366.71	0.087
366.93	0.118
367.15	0.104
367.37	0.122
367.58	0.151
367.80	0.176
368.02	0.569
368.23	0.197
368.45	0.199
368.67	0.191
368.88	0.180
369.10	-0.000
369.32	0.188
369.53	0.108
369.75	0.158
369.97	0.472
370.19	0.274
370.40	0.102
370.62	0.264
370.84	0.096
371.05	0.555
371.27	0.163
371.49	0.210
371.70	0.219
371.92	0.425
372.14	0.161
372.35	0.183
372.57	0.219
372.79	0.804
373.00	0.130
373.22	0.233
373.44	0.225
373.65	0.156
373.87	0.219
374.09	-0.000
374.30	0.185
374.52	0.190
374.74	0.117
374.95	0.519
375.17	0.132
375.39	-0.000
375.60	0.180
375.82	0.267
376.04	0.102
376.25	0.130
376.47	0.080
376.68	0.154
376.90	0.098
377.12	0.215
377.33	0.119
377.55	0.320
377.77	0.150
377.98	0.204
378.20	0.135
378.42	0.170
378.63	0.197
378.85	-0.000
379.07	0.146
379.28	0.621
379.50	0.352
379.71	0.174
379.93	0.121
380.15	0.167
380.36	0.273
380.58	0.202
380.80	0.691
381.01	0.167
381.23	0.147
381.44	0.151
381.66	0.166
381.88	0.204
382.09	-0.092
382.31	0.141
382.53	0.147
382.74	0.859
382.96	0.194
383.17	0.154
383.39	0.242
383.61	0.316
383.82	0.212
384.04	0.252
384.25	0.328
384.47	0.308
384.69	0.284
384.90	0.246
385.12	0.482
385.33	0.293
385.55	0.218
385.77	0.298
385.98	0.146
386.20	0.205
386.41	0.179
386.63	0.181
386.85	0.146
387.06	0.175
387.28	0.255
387.49	0.188
387.71	0.147
387.93	0.140
388.14	0.412
388.36	0.187
388.57	0.181
388.79	0.208
389.01	1.542
389.22	0.277
389.44	0.248
389.65	0.211
389.87	0.209
390.08	0.252
390.30	0.188
390.52	0.376
390.73	0.403
390.95	0.272
391.16	0.269
391.38	-0.000
391.59	0.321
391.81	0.262
392.03	0.250
392.24	0.308
392.46	0.246
392.67	0.220
392.89	0.308
393.10	0.509
393.32	0.312
393.53	0.366
393.75	0.230
393.97	0.260
394.18	0.363
394.40	0.325
394.61	0.326
394.83	0.277
395.04	0.321
395.26	0.206
395.47	0.285
395.69	0.242
395.91	0.255
396.12	0.300
396.34	0.312
396.55	0.205
396.77	0.291
396.98	1.122
397.20	0.352
397.41	0.424
397.63	0.301
397.84	0.266
398.06	0.257
398.27	0.252
398.49	0.304
398.71	0.229
398.92	0.277
399.14	0.372
399.35	0.460
399.57	0.470
399.78	0.313
400.00	0.300
400.21	0.402
400.43	0.330
400.64	0.351
400.86	0.912
401.07	0.436
401.29	0.376
401.50	0.393
401.72	0.594
401.93	0.341
402.15	0.395
402.36	0.370
402.58	0.295
402.79	0.318
403.01	0.552
403.22	0.403
403.44	0.261
403.65	0.392
403.87	0.425
404.08	0.337
404.30	0.562
404.51	0.317
404.73	0.376
404.94	0.325
405.16	0.331
405.37	0.254
405.59	0.462
405.80	0.296
406.02	0.376
406.23	0.391
406.45	0.447
406.66	0.453
406.88	0.297
407.09	0.464
407.31	0.371
407.52	0.457
407.74	0.367
407.95	0.432
408.17	0.399
408.38	0.417
408.60	0.277
408.81	0.464
409.03	0.357
409.24	0.363
409.45	0.406
409.67	0.382
409.88	0.342
410.10	0.438
410.31	0.365
410.53	0.356
410.74	0.523
410.96	0.495
411.17	0.503
411.39	0.384
411.60	0.352
411.82	0.415
412.03	0.415
412.24	0.398
412.46	0.588
412.67	0.477
412.89	0.475
413.10	0.464
413.32	0.420
413.53	0.476
413.75	0.496
413.96	0.378
414.17	0.504
414.39	0.503
414.60	0.417
414.82	0.544
415.03	0.429
415.25	0.472
415.46	0.326
415.68	0.465
415.89	0.902
416.10	0.701
416.32	0.380
416.53	0.458
416.75	0.432
416.96	0.525
417.18	0.446
417.39	0.427
417.60	0.423
417.82	0.605
418.03	0.529
418.25	0.441
418.46	0.465
418.67	0.426
418.89	0.453
419.10	0.471
419.32	0.627
419.53	0.573
419.75	0.483
419.96	0.421
420.17	0.517
420.39	0.481
420.60	0.507
420.82	0.623
421.03	0.506
421.24	0.423
421.46	0.478
421.67	0.511
421.89	0.448
422.10	0.485
422.31	0.485
422.53	0.716
422.74	0.526
422.96	0.415
423.17	0.459
423.38	0.560
423.60	0.471
423.81	0.584
424.03	0.505
424.24	0.555
424.45	0.561
424.67	0.553
424.88	0.494
425.09	0.533
425.31	0.488
425.52	0.515
425.74	0.588
425.95	0.644
426.16	0.497
426.38	0.590
426.59	0.540
426.80	0.608
427.02	0.628
427.23	0.485
427.45	0.628
427.66	0.616
427.87	0.481
428.09	0.512
428.30	0.572
428.51	0.556
428.73	0.599
428.94	0.527
429.15	0.519
429.37	0.509
429.58	0.526
429.79	0.490
430.01	0.590
430.22	0.581
430.44	0.594
430.65	0.532
430.86	0.571
431.08	0.556
431.29	0.513
431.50	0.594
431.72	0.804
431.93	0.667
432.14	0.500
432.36	0.541
432.57	0.565
432.78	0.574
433.00	0.530
433.21	0.530
433.42	0.667
433.64	0.586
433.85	0.671
434.06	0.538
434.28	0.559
434.49	0.574
434.70	0.590
434.92	0.594
435.13	0.638
435.34	0.652
435.56	0.607
435.77	0.601
435.98	0.767
436.20	0.646
436.41	0.548
436.62	0.550
436.83	0.627
437.05	0.703
437.26	0.613
437.47	0.551
437.69	0.596
437.90	0.543
438.11	0.536
438.33	0.585
438.54	0.607
438.75	0.779
438.97	0.747
439.18	0.565
439.39	0.598
439.60	0.653
439.82	0.605
440.03	0.557
440.24	0.812
440.46	0.612
440.67	0.592
440.88	0.634
441.10	0.592
441.31	0.594
441.52	0.644
441.73	0.726
441.95	0.644
442.16	0.606
442.37	0.956
442.58	0.602
442.80	0.584
443.01	0.753
443.22	0.680
443.44	0.577
443.65	0.682
443.86	0.681
444.07	0.719
444.29	0.620
444.50	0.774
444.71	0.601
444.92	0.556
445.14	0.703
445.35	0.742
445.56	0.594
445.78	0.697
445.99	0.703
446.20	0.606
446.41	0.687
446.63	0.695
446.84	0.659
447.05	0.657
447.26	0.786
447.48	0.673
447.69	0.637
447.90	0.718
448.11	0.637
448.33	0.661
448.54	0.679
448.75	0.702
448.96	0.708
449.18	0.746
449.39	0.666
449.60	0.654
449.81	0.776
450.03	0.676
450.24	0.732
450.45	0.702
450.66	0.681
450.87	0.710
451.09	0.667
451.30	0.644
451.51	0.711
451.72	0.724
451.94	0.740
452.15	0.806
452.36	0.674
452.57	0.689
452.78	0.681
453.00	0.714
453.21	0.676
453.42	0.652
453.63	0.749
453.85	0.712
454.06	0.705
454.27	0.825
454.48	0.743
454.69	0.678
454.91	0.747
455.12	0.657
455.33	0.734
455.54	0.749
455.75	0.720
455.97	0.737
456.18	0.728
456.39	0.734
456.60	0.757
456.81	0.703
457.03	0.712
457.24	0.711
457.45	0.787
457.66	0.732
457.87	0.692
458.09	0.709
458.30	0.637
458.51	0.757
458.72	0.779
458.93	0.797
459.15	0.699
459.36	0.762
459.57	0.788
459.78	0.835
459.99	0.756
460.20	0.721
460.42	0.807
460.63	0.761
460.84	0.737
461.05	0.755
461.26	0.809
461.47	0.729
461.69	0.775
461.90	0.811
462.11	0.766
462.32	0.819
462.53	0.762
462.74	0.852
462.96	0.743
463.17	0.737
463.38	0.778
463.59	0.884
463.80	0.743
464.01	0.765
464.23	0.846
464.44	0.807
464.65	0.814
464.86	0.834
465.07	0.836
465.28	0.794
465.49	0.817
465.71	0.774
465.92	0.808
466.13	0.849
466.34	0.793
466.55	0.843
466.76	0.809
466.97	0.829
467.19	0.814
467.40	0.848
467.61	0.853
467.82	0.773
468.03	0.757
468.24	0.820
468.45	0.854
468.66	0.837
468.88	0.844
469.09	0.842
469.30	0.889
469.51	0.826
469.72	0.867
469.93	0.842
470.14	0.824
470.35	0.911
470.57	0.869
470.78	0.808
470.99	0.932
471.20	0.875
471.41	0.837
471.62	0.886
471.83	0.857
472.04	0.889
472.25	0.928
472.47	0.842
472.68	0.847
472.89	0.847
473.10	0.886
473.31	0.839
473.52	0.892
473.73	0.912
473.94	0.838
474.15	0.860
474.36	0.859
474.57	0.884
474.79	0.865
475.00	0.864
475.21	0.853
475.42	0.938
475.63	0.848
475.84	0.880
476.05	0.889
476.26	0.859
476.47	0.892
476.68	0.934
476.89	0.866
477.10	0.912
477.32	0.903
477.53	0.950
477.74	0.878
477.95	0.916
478.16	0.866
478.37	0.902
478.58	0.908
478.79	0.923
479.00	0.924
479.21	0.884
479.42	0.920
479.63	0.922
479.84	0.886
480.05	0.887
480.26	0.912
480.47	0.932
480.69	0.933
480.90	0.904
481.11	0.899
481.32	0.956
481.53	0.897
481.74	0.946
481.95	0.916
482.16	0.933
482.37	0.936
482.58	0.904
482.79	0.919
483.00	0.947
483.21	0.894
483.42	0.870
483.63	0.937
483.84	0.967
484.05	0.956
484.26	0.929
484.47	0.930
484.68	0.896
484.89	0.906
485.10	0.951
485.31	0.928
485.52	0.935
485.73	0.935
485.94	0.973
486.15	0.923
486.37	0.940
486.58	0.908
486.79	0.918
487.00	0.963
487.21	0.953
487.42	0.950
487.63	0.955
487.84	0.972
488.05	0.969
488.26	0.930
488.47	0.934
488.68	0.960
488.89	0.939
489.10	0.931
489.31	0.942
489.52	0.973
489.73	0.944
489.94	0.980
490.15	0.938
490.36	0.978
490.57	0.934
490.78	0.920
490.99	0.955
491.20	1.025
491.41	0.986
491.62	0.931
491.83	0.958
492.04	0.950
492.25	0.957
492.45	0.959
492.66	0.980
492.87	0.973
493.08	0.961
493.29	0.948
493.50	0.940
493.71	0.947
493.92	0.946
494.13	0.960
494.34	0.981
494.55	0.987
494.76	1.015
494.97	1.007
495.18	0.973
495.39	0.989
495.60	0.944
495.81	0.944
496.02	0.963
496.23	0.956
496.44	0.985
496.65	0.978
496.86	0.981
497.07	1.003
497.28	1.000
497.49	0.955
497.70	0.957
497.91	0.975
498.12	0.960
498.32	1.000
498.53	0.986
498.74	0.977
498.95	0.999
499.16	0.960
499.37	0.965
499.58	0.971
499.79	0.997
500.00	0.992
500.21	1.020
500.42	0.968
500.63	0.969
500.84	0.987
501.05	0.969
501.26	0.993
501.46	1.028
501.67	0.993
501.88	0.996
502.09	0.975
502.30	0.983
502.51	1.028
502.72	0.987
502.93	1.000
503.14	1.020
503.35	0.992
503.56	0.990
503.77	1.018
503.97	0.998
504.18	0.998
504.39	1.030
504.60	1.000
504.81	1.027
505.02	1.017
505.23	1.019
505.44	0.999
505.65	1.007
505.86	0.988
506.07	1.048
506.27	1.008
506.48	1.012
506.69	0.997
506.90	1.015
507.11	1.011
507.32	0.987
507.53	0.996
507.74	0.993
507.95	1.004
508.15	1.011
508.36	1.015
508.57	1.026
508.78	1.011
508.99	1.009
509.20	0.985
509.41	1.008
509.62	0.996
509.82	0.993
510.03	0.999
510.24	0.998
510.45	1.016
510.66	1.008
510.87	1.004
511.08	0.968
511.29	1.010
511.49	0.989
511.70	1.033
511.91	0.975
512.12	0.973
512.33	1.004
512.54	1.019
512.75	1.004
512.95	1.031
513.16	1.023
513.37	1.002
513.58	1.034
513.79	1.002
514.00	1.006
514.20	1.022
514.41	1.011
514.62	0.980
514.83	1.018
515.04	1.009
515.25	0.988
515.46	0.999
515.66	1.000
515.87	1.013
516.08	0.982
516.29	1.005
516.50	0.990
516.71	0.986
516.91	0.997
517.12	1.013
517.33	1.000
517.54	0.988
517.75	0.989
517.95	1.003
518.16	1.013
518.37	0.983
518.58	0.989
518.79	0.963
519.00	0.990
519.20	0.995
519.41	0.970
519.62	0.988
519.83	0.995
520.04	0.964
520.24	0.959
520.45	0.969
520.66	0.988
520.87	0.953
521.08	0.951
521.28	0.956
521.49	0.972
521.70	0.943
521.91	0.954
522.12	0.937
522.32	0.957
522.53	0.941
522.74	0.929
522.95	0.939
523.16	0.940
523.36	0.949
523.57	0.933
523.78	0.928
523.99	0.932
524.20	0.926
524.40	0.938
524.61	0.945
524.82	0.921
525.03	0.926
525.23	0.928
525.44	0.914
525.65	0.912
525.86	0.930
526.06	0.905
526.27	0.907
526.48	0.915
526.69	0.897
526.90	0.900
527.10	0.933
527.31	0.891
527.52	0.884
527.73	0.877
527.93	0.887
528.14	0.892
528.35	0.883
528.56	0.884
528.76	0.878
528.97	0.870
529.18	0.864
529.39	0.862
529.59	0.865
529.80	0.895
530.01	0.870
530.22	0.868
530.42	0.839
530.63	0.855
530.84	0.833
531.05	0.846
531.25	0.849
531.46	0.839
531.67	0.819
531.88	0.837
532.08	0.830
532.29	0.826
532.50	0.820
532.70	0.814
532.91	0.806
533.12	0.809
533.33	0.831
533.53	0.804
533.74	0.804
533.95	0.811
534.15	0.799
534.36	0.800
534.57	0.784
534.78	0.785
534.98	0.793
535.19	0.767
535.40	0.767
535.60	0.783
535.81	0.764
536.02	0.766
536.23	0.757
536.43	0.759
536.64	0.747
536.85	0.754
537.05	0.762
537.26	0.741
537.47	0.744
537.67	0.734
537.88	0.729
538.09	0.737
538.30	0.727
538.50	0.719
538.71	0.730
538.92	0.717
539.12	0.712
539.33	0.709
539.54	0.708
539.74	0.711
539.95	0.702
540.16	0.700
540.36	0.692
540.57	0.692
540.78	0.685
540.98	0.684
541.19	0.681
541.40	0.669
541.60	0.677
541.81	0.672
542.02	0.672
542.22	0.663
542.43	0.658
542.64	0.653
542.84	0.652
543.05	0.644
543.26	0.644
543.46	0.647
543.67	0.645
543.88	0.642
544.08	0.632
544.29	0.627
544.50	0.627
544.70	0.628
544.91	0.620
545.12	0.621
545.32	0.617
545.53	0.621
545.74	0.610
545.94	0.607
546.15	0.603
546.35	0.600
546.56	0.598
546.77	0.594
546.97	0.591
547.18	0.584
547.39	0.584
547.59	0.582
547.80	0.578
548.01	0.581
548.21	0.578
548.42	0.571
548.62	0.571
548.83	0.568
549.04	0.565
549.24	0.559
549.45	0.558
549.65	0.554
549.86	0.550
550.07	0.550
550.27	0.548
550.48	0.555
550.69	0.543
550.89	0.542
551.10	0.539
551.30	0.537
551.51	0.537
551.72	0.526
551.92	0.527
552.13	0.527
552.33	0.527
552.54	0.522
552.75	0.516
552.95	0.517
553.16	0.511
553.36	0.509
553.57	0.507
553.78	0.505
553.98	0.506
554.19	0.497
554.39	0.495
554.60	0.497
554.80	0.497
555.01	0.490
555.22	0.491
555.42	0.489
555.63	0.483
555.83	0.486
556.04	0.480
556.25	0.482
556.45	0.473
556.66	0.471
556.86	0.473
557.07	0.470
557.27	0.469
557.48	0.463
557.68	0.462
557.89	0.463
558.10	0.459
558.30	0.457
558.51	0.455
558.71	0.453
558.92	0.448
559.12	0.451
559.33	0.454
559.54	0.449
559.74	0.445
559.95	0.443
560.15	0.443
560.36	0.441
560.56	0.435
560.77	0.435
560.97	0.435
561.18	0.430
561.38	0.429
561.59	0.431
561.79	0.426
562.00	0.424
562.21	0.421
562.41	0.419
562.62	0.418
562.82	0.416
563.03	0.412
563.23	0.412
563.44	0.412
563.64	0.409
563.85	0.411
564.05	0.405
564.26	0.404
564.46	0.404
564.67	0.404
564.87	0.400
565.08	0.398
565.28	0.398
565.49	0.398
565.69	0.395
565.90	0.392
566.10	0.394
566.31	0.388
566.51	0.390
566.72	0.389
566.92	0.384
567.13	0.384
567.33	0.382
567.54	0.380
567.74	0.380
567.95	0.375
568.15	0.376
568.36	0.376
568.56	0.374
568.77	0.369
568.97	0.368
569.18	0.367
569.38	0.365
569.59	0.367
569.79	0.364
570.00	0.362
570.20	0.361
570.41	0.359
570.61	0.357
570.82	0.358
571.02	0.354
571.23	0.356
571.43	0.352
571.64	0.351
571.84	0.350
572.05	0.348
572.25	0.348
572.45	0.346
572.66	0.343
572.86	0.343
573.07	0.341
573.27	0.341
573.48	0.340
573.68	0.336
573.89	0.335
574.09	0.336
574.30	0.335
574.50	0.333
574.70	0.333
574.91	0.331
575.11	0.331
575.32	0.331
575.52	0.327
575.73	0.327
575.93	0.327
576.14	0.326
576.34	0.324
576.54	0.323
576.75	0.322
576.95	0.321
577.16	0.319
577.36	0.317
577.57	0.317
577.77	0.315
577.97	0.312
578.18	0.314
578.38	0.310
578.59	0.309
578.79	0.307
579.00	0.308
579.20	0.306
579.40	0.306
579.61	0.305
579.81	0.303
580.02	0.301
580.22	0.301
580.42	0.299
580.63	0.299
580.83	0.298
581.04	0.296
581.24	0.295
581.45	0.294
581.65	0.294
581.85	0.293
582.06	0.291
582.26	0.291
582.47	0.290
582.67	0.290
582.87	0.289
583.08	0.287
583.28	0.287
583.48	0.286
583.69	0.283
583.89	0.283
584.10	0.284
584.30	0.282
584.50	0.280
584.71	0.279
584.91	0.278
585.12	0.277
585.32	0.278
585.52	0.275
585.73	0.274
585.93	0.274
586.13	0.273
586.34	0.272
586.54	0.271
586.75	0.270
586.95	0.269
587.15	0.269
587.36	0.268
587.56	0.267
587.76	0.265
587.97	0.264
588.17	0.263
588.37	0.263
588.58	0.263
588.78	0.261
588.98	0.261
589.19	0.260
589.39	0.258
589.60	0.260
589.80	0.258
590.00	0.257
590.21	0.257
590.41	0.256
590.61	0.256
590.82	0.255
591.02	0.254
591.22	0.252
591.43	0.253
591.63	0.251
591.83	0.250
592.04	0.248
592.24	0.249
592.44	0.246
592.65	0.244
592.85	0.245
593.05	0.245
593.26	0.243
593.46	0.242
593.66	0.242
593.86	0.242
594.07	0.240
594.27	0.240
594.47	0.240
594.68	0.239
594.88	0.240
595.08	0.238
595.29	0.239
595.49	0.237
595.69	0.237
595.90	0.236
596.10	0.236
596.30	0.236
596.50	0.235
596.71	0.235
596.91	0.234
597.11	0.233
597.32	0.233
597.52	0.231
597.72	0.231
597.93	0.230
598.13	0.228
598.33	0.229
598.53	0.227
598.74	0.227
598.94	0.226
599.14	0.226
599.35	0.226
599.55	0.226
599.75	0.225
599.95	0.224
600.16	0.224
600.36	0.222
600.56	0.222
600.76	0.221
600.97	0.219
601.17	0.219
601.37	0.219
601.58	0.217
601.78	0.217
601.98	0.217
602.18	0.215
602.39	0.215
602.59	0.215
602.79	0.215
602.99	0.215
603.20	0.214
603.40	0.213
603.60	0.214
603.80	0.214
604.01	0.213
604.21	0.212
604.41	0.212
604.61	0.210
604.82	0.210
605.02	0.211
605.22	0.210
605.42	0.210
605.62	0.210
605.83	0.208
606.03	0.208
606.23	0.208
606.43	0.208
606.64	0.207
606.84	0.207
607.04	0.206
607.24	0.206
607.45	0.205
607.65	0.203
607.85	0.204
608.05	0.203
608.25	0.202
608.46	0.202
608.66	0.202
608.86	0.201
609.06	0.200
609.26	0.199
609.47	0.200
609.67	0.199
609.87	0.200
610.07	0.199
610.28	0.197
610.48	0.197
610.68	0.198
610.88	0.196
611.08	0.197
611.29	0.196
611.49	0.196
611.69	0.197
611.89	0.195
612.09	0.195
612.29	0.194
612.50	0.194
612.70	0.194
612.90	0.192
613.10	0.191
613.30	0.191
613.51	0.191
613.71	0.190
613.91	0.194
614.11	0.189
614.31	0.189
614.51	0.189
614.72	0.188
614.92	0.188
615.12	0.188
615.32	0.188
615.52	0.187
615.72	0.188
615.93	0.188
616.13	0.187
616.33	0.188
616.53	0.187
616.73	0.187
616.93	0.186
617.14	0.187
617.34	0.187
617.54	0.187
617.74	0.187
617.94	0.185
618.14	0.185
618.34	0.184
618.55	0.184
618.75	0.184
618.95	0.184
619.15	0.183
619.35	0.182
619.55	0.181
619.75	0.182
619.96	0.181
620.16	0.181
620.36	0.181
620.56	0.180
620.76	0.180
620.96	0.180
621.16	0.180
621.36	0.180
621.57	0.180
621.77	0.180
621.97	0.178
622.17	0.178
622.37	0.179
622.57	0.179
622.77	0.178
622.97	0.177
623.18	0.177
623.38	0.177
623.58	0.177
623.78	0.176
623.98	0.176
624.18	0.175
624.38	0.175
624.58	0.175
624.78	0.175
624.98	0.175
625.19	0.174
625.39	0.174
625.59	0.174
625.79	0.174
625.99	0.173
626.19	0.174
626.39	0.174
626.59	0.173
626.79	0.173
626.99	0.173
627.19	0.172
627.40	0.173
627.60	0.172
627.80	0.172
628.00	0.173
628.20	0.172
628.40	0.172
628.60	0.171
628.80	0.170
629.00	0.171
629.20	0.170
629.40	0.170
629.60	0.168
629.80	0.168
630.00	0.168
630.20	0.167
630.41	0.167
630.61	0.167
630.81	0.166
631.01	0.166
631.21	0.165
631.41	0.165
631.61	0.166
631.81	0.166
632.01	0.166
632.21	0.166
632.41	0.164
632.61	0.164
632.81	0.164
633.01	0.165
633.21	0.165
633.41	0.165
633.61	0.164
633.81	0.164
634.01	0.163
634.21	0.163
634.41	0.163
634.61	0.164
634.81	0.163
635.01	0.163
635.22	0.163
635.42	0.162
635.62	0.162
635.82	0.162
636.02	0.162
636.22	0.161
636.42	0.161
636.62	0.161
636.82	0.161
637.02	0.160
637.22	0.160
637.42	0.160
637.62	0.159
637.82	0.159
638.02	0.158
638.22	0.158
638.42	0.157
638.62	0.157
638.82	0.157
639.02	0.157
639.22	0.157
639.42	0.156
639.62	0.157
639.82	0.156
640.02	0.156
640.22	0.156
640.42	0.156
640.62	0.156
640.82	0.156
641.02	0.155
641.22	0.155
641.42	0.154
641.61	0.154
641.81	0.154
642.01	0.154
642.21	0.154
642.41	0.154
642.61	0.154
642.81	0.153
643.01	0.152
643.21	0.153
643.41	0.153
643.61	0.152
643.81	0.152
644.01	0.151
644.21	0.151
644.41	0.151
644.61	0.150
644.81	0.151
645.01	0.151
645.21	0.151
645.41	0.150
645.61	0.150
645.81	0.150
646.01	0.149
646.21	0.150
646.40	0.149
646.60	0.149
646.80	0.150
647.00	0.149
647.20	0.148
647.40	0.148
647.60	0.147
647.80	0.147
648.00	0.147
648.20	0.147
648.40	0.147
648.60	0.146
648.80	0.146
649.00	0.145
649.20	0.146
649.39	0.145
649.59	0.145
649.79	0.144
649.99	0.144
650.19	0.143
650.39	0.144
650.59	0.144
650.79	0.144
650.99	0.144
651.19	0.143
651.39	0.143
651.58	0.143
651.78	0.143
651.98	0.143
652.18	0.143
652.38	0.143
652.58	0.142
652.78	0.142
652.98	0.141
653.18	0.142
653.38	0.142
653.57	0.141
653.77	0.142
653.97	0.141
654.17	0.141
654.37	0.140
654.57	0.140
654.77	0.140
654.97	0.140
655.16	0.140
655.36	0.139
655.56	0.139
655.76	0.138
655.96	0.139
656.16	0.137
656.36	0.138
656.56	0.137
656.75	0.137
656.95	0.137
657.15	0.137
657.35	0.136
657.55	0.136
657.75	0.136
657.95	0.136
658.14	0.136
658.34	0.136
658.54	0.136
658.74	0.135
658.94	0.135
659.14	0.135
659.34	0.135
659.53	0.134
659.73	0.134
659.93	0.133
660.13	0.133
660.33	0.133
660.53	0.132
660.72	0.133
660.92	0.133
661.12	0.132
661.32	0.132
661.52	0.132
661.72	0.132
661.91	0.132
662.11	0.132
662.31	0.132
662.51	0.132
662.71	0.132
662.90	0.131
663.10	0.130
663.30	0.130
663.50	0.130
663.70	0.129
663.90	0.129
664.09	0.129
664.29	0.128
664.49	0.128
664.69	0.128
664.89	0.128
665.08	0.128
665.28	0.127
665.48	0.127
665.68	0.127
665.88	0.127
666.07	0.127
666.27	0.127
666.47	0.127
666.67	0.127
666.87	0.127
667.06	0.126
667.26	0.126
667.46	0.125
667.66	0.125
667.85	0.125
668.05	0.125
668.25	0.125
668.45	0.125
668.65	0.125
668.84	0.125
669.04	0.125
669.24	0.124
669.44	0.124
669.63	0.123
669.83	0.123
670.03	0.122
670.23	0.122
670.42	0.122
670.62	0.121
670.82	0.121
671.02	0.121
671.22	0.120
671.41	0.120
671.61	0.121
671.81	0.121
672.01	0.121
672.20	0.121
672.40	0.120
672.60	0.120
672.80	0.121
672.99	0.121
673.19	0.120
673.39	0.120
673.58	0.119
673.78	0.119
673.98	0.118
674.18	0.118
674.37	0.117
674.57	0.117
674.77	0.117
674.97	0.117
675.16	0.117
675.36	0.117
675.56	0.117
675.75	0.116
675.95	0.116
676.15	0.116
676.35	0.116
676.54	0.116
676.74	0.116
676.94	0.116
677.13	0.115
677.33	0.115
677.53	0.115
677.73	0.115
677.92	0.115
678.12	0.115
678.32	0.114
678.51	0.114
678.71	0.114
678.91	0.114
679.11	0.113
679.30	0.113
679.50	0.113
679.70	0.112
679.89	0.112
680.09	0.112
680.29	0.112
680.48	0.112
680.68	0.111
680.88	0.111
681.07	0.112
681.27	0.111
681.47	0.111
681.66	0.112
681.86	0.111
682.06	0.111
682.25	0.111
682.45	0.111
682.65	0.111
682.84	0.110
683.04	0.110
683.24	0.109
683.43	0.110
683.63	0.109
683.83	0.109
684.02	0.109
684.22	0.109
684.42	0.109
684.61	0.109
684.81	0.108
685.01	0.108
685.20	0.107
685.40	0.108
685.60	0.108
685.79	0.107
685.99	0.108
686.19	0.107
686.38	0.106
686.58	0.107
686.77	0.107
686.97	0.106
687.17	0.106
687.36	0.106
687.56	0.105
687.76	0.105
687.95	0.105
688.15	0.105
688.34	0.105
688.54	0.105
688.74	0.105
688.93	0.104
689.13	0.104
689.33	0.105
689.52	0.104
689.72	0.104
689.91	0.104
690.11	0.103
690.31	0.103
690.50	0.103
690.70	0.103
690.89	0.103
691.09	0.102
691.29	0.102
691.48	0.102
691.68	0.102
691.87	0.102
692.07	0.102
692.27	0.102
692.46	0.102
692.66	0.101
692.85	0.101
693.05	0.101
693.25	0.101
693.44	0.100
693.64	0.100
693.83	0.101
694.03	0.100
694.22	0.100
694.42	0.100
694.62	0.100
694.81	0.100
695.01	0.100
695.20	0.100
695.40	0.099
695.59	0.099
695.79	0.099
695.99	0.099
696.18	0.099
696.38	0.099
696.57	0.099
696.77	0.098
696.96	0.098
697.16	0.098
697.36	0.098
697.55	0.098
697.75	0.098
697.94	0.097
698.14	0.098
698.33	0.097
698.53	0.097
698.72	0.097
698.92	0.097
699.11	0.097
699.31	0.097
699.51	0.097
699.70	0.096
699.90	0.096
700.09	0.096
700.29	0.096
700.48	0.096
700.68	0.096
700.87	0.095
701.07	0.095
701.26	0.095
701.46	0.095
701.65	0.095
701.85	0.095
702.04	0.094
702.24	0.094
702.43	0.094
702.63	0.094
702.82	0.094
703.02	0.093
703.21	0.094
703.41	0.093
703.60	0.093
703.80	0.093
703.99	0.093
704.19	0.093
704.38	0.093
704.58	0.093
704.77	0.093
704.97	0.093
705.16	0.093
705.36	0.092
705.55	0.092
705.75	0.093
705.94	0.093
706.14	0.093
706.33	0.092
706.53	0.092
706.72	0.092
706.92	0.092
707.11	0.092
707.31	0.091
707.50	0.091
707.70	0.092
707.89	0.091
708.09	0.091
708.28	0.091
708.48	0.091
708.67	0.091
708.86	0.091
709.06	0.090
709.25	0.090
709.45	0.090
709.64	0.090
709.84	0.090
710.03	0.090
710.23	0.090
710.42	0.090
710.62	0.089
710.81	0.089
711.00	0.089
711.20	0.089
711.39	0.088
711.59	0.088
711.78	0.089
711.98	0.089
712.17	0.089
712.37	0.088
712.56	0.089
712.75	0.089
712.95	0.089
713.14	0.089
713.34	0.089
713.53	0.090
713.73	0.090
713.92	0.090
714.11	0.090
714.31	0.090
714.50	0.090
714.70	0.090
714.89	0.090
715.08	0.090
715.28	0.089
715.47	0.089
715.67	0.089
715.86	0.089
716.06	0.089
716.25	0.088
716.44	0.088
716.64	0.088
716.83	0.087
717.03	0.087
717.22	0.087
717.41	0.087
717.61	0.087
717.80	0.087
717.99	0.087
718.19	0.087
718.38	0.087
718.58	0.087
718.77	0.086
718.96	0.087
719.16	0.087
719.35	0.087
719.55	0.086
719.74	0.086
719.93	0.086
720.13	0.086
720.32	0.085
720.51	0.085
720.71	0.086
720.90	0.086
721.10	0.086
721.29	0.086
721.48	0.086
721.68	0.085
721.87	0.085
722.06	0.086
722.26	0.086
722.45	0.086
722.64	0.086
722.84	0.085
723.03	0.086
723.22	0.086
723.42	0.086
723.61	0.085
723.80	0.086
724.00	0.086
724.19	0.086
724.38	0.086
724.58	0.085
724.77	0.086
724.96	0.085
725.16	0.085
725.35	0.085
725.54	0.086
725.74	0.086
725.93	0.085
726.12	0.085
726.32	0.085
726.51	0.085
726.70	0.085
726.90	0.085
727.09	0.085
727.28	0.085
727.48	0.085
727.67	0.085
727.86	0.085
728.06	0.085
728.25	0.085
728.44	0.085
728.64	0.085
728.83	0.085
729.02	0.085
729.21	0.086
729.41	0.086
729.60	0.086
729.79	0.086
729.99	0.085
730.18	0.085
730.37	0.085
730.56	0.085
730.76	0.085
730.95	0.085
731.14	0.085
731.34	0.085
731.53	0.085
731.72	0.085
731.91	0.085
732.11	0.085
732.30	0.085
732.49	0.085
732.69	0.086
732.88	0.086
733.07	0.086
733.26	0.086
733.46	0.086
733.65	0.086
733.84	0.086
734.03	0.086
734.23	0.086
734.42	0.086
734.61	0.086
734.80	0.085
735.00	0.085
735.19	0.085
735.38	0.085
735.57	0.085
735.77	0.086
735.96	0.085
736.15	0.085
736.34	0.085
736.54	0.086
736.73	0.085
736.92	0.085
737.11	0.085
737.31	0.085
737.50	0.085
737.69	0.085
737.88	0.085
738.07	0.085
738.27	0.085
738.46	0.085
738.65	0.085
738.84	0.085
739.04	0.085
739.23	0.085
739.42	0.085
739.61	0.085
739.80	0.084
740.00	0.084
740.19	0.085
740.38	0.084
740.57	0.084
740.76	0.084
740.96	0.084
741.15	0.084
741.34	0.084
741.53	0.084
741.72	0.084
741.92	0.084
742.11	0.084
742.30	0.084
742.49	0.084
742.68	0.084
742.88	0.084
743.07	0.084
743.26	0.084
743.45	0.084
743.64	0.083
743.84	0.083
744.03	0.083
744.22	0.084
744.41	0.083
744.60	0.083
744.79	0.083
744.99	0.082
745.18	0.083
745.37	0.082
745.56	0.082
745.75	0.082
745.94	0.082
746.14	0.082
746.33	0.082
746.52	0.082
746.71	0.082
746.90	0.082
747.09	0.082
747.28	0.082
747.48	0.082
747.67	0.082
747.86	0.082
748.05	0.082
748.24	0.082
748.43	0.082
748.62	0.082
748.82	0.082
749.01	0.082
749.20	0.082
749.39	0.082
749.58	0.082
749.77	0.082
749.96	0.082
750.16	0.082
750.35	0.082
750.54	0.082
750.73	0.082
750.92	0.082
751.11	0.082
751.30	0.082
751.49	0.082
751.68	0.081
751.88	0.081
752.07	0.081
752.26	0.081
752.45	0.081
752.64	0.081
752.83	0.081
753.02	0.081
753.21	0.081
753.40	0.080
753.60	0.080
753.79	0.080
753.98	0.080
754.17	0.080
754.36	0.080
754.55	0.080
754.74	0.080
754.93	0.080
755.12	0.080
755.31	0.080
755.50	0.080
755.70	0.079
755.89	0.079
756.08	0.079
756.27	0.079
756.46	0.079
756.65	0.079
756.84	0.079
757.03	0.078
757.22	0.078
757.41	0.078
757.60	0.078
757.79	0.078
757.98	0.078
758.17	0.078
758.36	0.078
758.56	0.078
758.75	0.078
758.94	0.078
759.13	0.078
759.32	0.078
759.51	0.078
759.70	0.078
759.89	0.078
760.08	0.078
760.27	0.077
760.46	0.077
760.65	0.078
760.84	0.078
761.03	0.078
761.22	0.078
761.41	0.078
761.60	0.078
761.79	0.078
761.98	0.078
762.17	0.078
762.36	0.078
762.55	0.078
762.74	0.078
762.93	0.077
763.12	0.077
763.31	0.077
763.50	0.076
763.69	0.076
763.88	0.076
764.07	0.076
764.26	0.076
764.45	0.076
764.64	0.076
764.83	0.076
765.02	0.077
765.21	0.077
765.40	0.077
765.59	0.077
765.78	0.077
765.97	0.077
766.16	0.077
766.35	0.077
766.54	0.077
766.73	0.077
766.92	0.077
767.11	0.077
767.30	0.077
767.49	0.076
767.68	0.076
767.87	0.076
768.06	0.076
768.25	0.076
768.44	0.076
768.63	0.076
768.82	0.076
769.01	0.076
769.20	0.076
769.39	0.076
769.58	0.077
769.77	0.077
769.96	0.077
770.15	0.077
770.34	0.077
770.53	0.077
770.72	0.076
770.91	0.076
771.10	0.076
771.29	0.076
771.47	0.076
771.66	0.075
771.85	0.075
772.04	0.075
772.23	0.075
772.42	0.075
772.61	0.075
772.80	0.075
772.99	0.075
773.18	0.075
773.37	0.075
773.56	0.075
773.75	0.075
773.94	0.075
774.13	0.074
774.31	0.074
774.50	0.075
774.69	0.075
774.88	0.074
775.07	0.075
775.26	0.075
775.45	0.074
775.64	0.074
775.83	0.074
776.02	0.074
776.21	0.074
776.40	0.075
776.58	0.074
776.77	0.075
776.96	0.075
777.15	0.075
777.34	0.075
777.53	0.075
777.72	0.074
777.91	0.074
778.10	0.074
778.28	0.074
778.47	0.074
778.66	0.074
778.85	0.073
779.04	0.073
779.23	0.073
779.42	0.073
779.61	0.073
779.79	0.073
779.98	0.073
780.17	0.073
780.36	0.073
780.55	0.073
780.74	0.073
780.93	0.072
781.12	0.072
781.30	0.072
781.49	0.072
781.68	0.072
781.87	0.072
782.06	0.072
782.25	0.072
782.44	0.072
782.62	0.073
782.81	0.073
783.00	0.073
783.19	0.073
783.38	0.072
783.57	0.072
783.75	0.072
783.94	0.073
784.13	0.073
784.32	0.072
784.51	0.073
784.70	0.073
784.88	0.072
785.07	0.072
785.26	0.072
785.45	0.072
785.64	0.072
785.83	0.072
786.01	0.071
786.20	0.071
786.39	0.072
786.58	0.071
786.77	0.071
786.95	0.071
787.14	0.071
787.33	0.071
787.52	0.071
787.71	0.071
787.90	0.071
788.08	0.071
788.27	0.071
788.46	0.071
788.65	0.071
788.84	0.071
789.02	0.071
789.21	0.071
789.40	0.071
789.59	0.071
789.77	0.072
789.96	0.071
790.15	0.071
790.34	0.071
790.53	0.071
790.71	0.071
790.90	0.070
791.09	0.070
791.28	0.070
791.46	0.070
791.65	0.070
791.84	0.070
792.03	0.070
792.22	0.070
792.40	0.070
792.59	0.070
792.78	0.070
792.97	0.070
793.15	0.070
793.34	0.070
793.53	0.070
793.72	0.070
793.90	0.069
794.09	0.070
794.28	0.070
794.47	0.070
794.65	0.069
794.84	0.069
795.03	0.070
795.22	0.069
795.40	0.069
795.59	0.069
795.78	0.070
795.97	0.070
796.15	0.070
796.34	0.070
796.53	0.070
796.71	0.070
796.90	0.070
797.09	0.071
797.28	0.071
797.46	0.070
797.65	0.070
797.84	0.070
798.02	0.069
798.21	0.069
798.40	0.069
798.59	0.069
798.77	0.069
798.96	0.069
799.15	0.068
799.33	0.068
799.52	0.068
799.71	0.068
799.90	0.069
800.08	0.069
800.27	0.069
800.46	0.069
800.64	0.069
800.83	0.069
801.02	0.069
801.20	0.069
801.39	0.069
801.58	0.069
801.76	0.069
801.95	0.069
802.14	0.069
802.32	0.069
802.51	0.069
802.70	0.068
802.88	0.068
803.07	0.068
803.26	0.068
803.44	0.068
803.63	0.068
803.82	0.068
804.00	0.068
804.19	0.068
804.38	0.068
804.56	0.068
804.75	0.069
804.94	0.069
805.12	0.069
805.31	0.069
805.50	0.069
805.68	0.069
805.87	0.069
806.06	0.069
806.24	0.068
806.43	0.068
806.62	0.068
806.80	0.069
806.99	0.069
807.17	0.068
807.36	0.068
807.55	0.069
807.73	0.069
807.92	0.069
808.11	0.069
808.29	0.068
808.48	0.068
808.66	0.068
808.85	0.068
809.04	0.068
809.22	0.068
809.41	0.068
809.59	0.067
809.78	0.068
809.97	0.067
810.15	0.067
810.34	0.067
810.53	0.067
810.71	0.067
810.90	0.067
811.08	0.067
811.27	0.067
811.45	0.067
811.64	0.067
811.83	0.067
812.01	0.067
812.20	0.067
812.38	0.067
812.57	0.067
812.76	0.067
812.94	0.067
813.13	0.067
813.31	0.068
813.50	0.068
813.68	0.068
813.87	0.067
814.06	0.068
814.24	0.068
814.43	0.068
814.61	0.068
814.80	0.067
814.98	0.068
815.17	0.067
815.36	0.067
815.54	0.067
815.73	0.067
815.91	0.067
816.10	0.067
816.28	0.067
816.47	0.067
816.65	0.067
816.84	0.067
817.03	0.068
817.21	0.068
817.40	0.067
817.58	0.067
817.77	0.067
817.95	0.068
818.14	0.068
818.32	0.068
818.51	0.068
818.69	0.068
818.88	0.068
819.06	0.068
819.25	0.068
819.43	0.068
819.62	0.068
819.80	0.068
819.99	0.068
820.18	0.067
820.36	0.067
820.55	0.067
820.73	0.067
820.92	0.067
821.10	0.067
821.29	0.067
821.47	0.067
821.66	0.067
821.84	0.067
822.03	0.067
822.21	0.067
822.40	0.067
822.58	0.067
822.77	0.067
822.95	0.067
823.14	0.068
823.32	0.068
823.50	0.068
823.69	0.068
823.87	0.069
824.06	0.069
824.24	0.069
824.43	0.069
824.61	0.069
824.80	0.070
824.98	0.070
825.17	0.070
825.35	0.070
825.54	0.070
825.72	0.069
825.91	0.069
826.09	0.069
826.28	0.069
826.46	0.070
826.64	0.070
826.83	0.070
827.01	0.070
827.20	0.070
827.38	0.070
827.57	0.070
827.75	0.070
827.94	0.070
828.12	0.071
828.31	0.070
828.49	0.070
828.67	0.071
828.86	0.070
829.04	0.070
829.23	0.070
829.41	0.071
829.60	0.071
829.78	0.071
829.96	0.072
830.15	0.072
830.33	0.072
830.52	0.072
830.70	0.072
830.88	0.072
831.07	0.072
831.25	0.072
831.44	0.072
831.62	0.072
831.81	0.072
831.99	0.072
832.17	0.072
832.36	0.072
832.54	0.072
832.73	0.073
832.91	0.073
833.09	0.073
833.28	0.073
833.46	0.073
833.65	0.073
833.83	0.074
834.01	0.073
834.20	0.073
834.38	0.074
834.56	0.074
834.75	0.073
834.93	0.074
835.12	0.074
835.30	0.074
835.48	0.074
835.67	0.074
835.85	0.074
836.03	0.074
836.22	0.073
836.40	0.073
836.59	0.074
836.77	0.074
836.95	0.074
837.14	0.073
837.32	0.073
837.50	0.073
837.69	0.073
837.87	0.073
838.05	0.073
838.24	0.074
838.42	0.074
838.60	0.074
838.79	0.075
838.97	0.074
839.15	0.075
839.34	0.075
839.52	0.075
839.70	0.075
839.89	0.075
840.07	0.075
840.25	0.075
840.44	0.075
840.62	0.074
840.80	0.074
840.99	0.074
841.17	0.075
841.35	0.074
841.54	0.074
841.72	0.074
841.90	0.074
842.09	0.075
842.27	0.075
842.45	0.075
842.64	0.075
842.82	0.075
843.00	0.075
843.19	0.075
843.37	0.075
843.55	0.075
843.73	0.075
843.92	0.075
844.10	0.075
844.28	0.075
844.47	0.075
844.65	0.075
844.83	0.075
845.01	0.075
845.20	0.075
845.38	0.076
845.56	0.076
845.75	0.076
845.93	0.076
846.11	0.075
846.29	0.076
846.48	0.076
846.66	0.076
846.84	0.076
847.02	0.075
847.21	0.075
847.39	0.075
847.57	0.075
847.76	0.075
847.94	0.075
848.12	0.075
848.30	0.075
848.49	0.075
848.67	0.075
848.85	0.075
849.03	0.076
849.22	0.076
849.40	0.076
849.58	0.076
849.76	0.077
849.95	0.076
850.13	0.077
850.31	0.077
850.49	0.077
850.67	0.077
850.86	0.077
851.04	0.076
851.22	0.076
851.40	0.076
851.59	0.076
851.77	0.076
851.95	0.076
852.13	0.076
852.31	0.076
852.50	0.076
852.68	0.076
852.86	0.076
853.04	0.076
853.23	0.076
853.41	0.076
853.59	0.076
853.77	0.077
853.95	0.077
854.14	0.077
854.32	0.077
854.50	0.077
854.68	0.076
854.86	0.076
855.04	0.077
855.23	0.077
855.41	0.077
855.59	0.077
855.77	0.077
855.95	0.077
856.14	0.077
856.32	0.077
856.50	0.077
856.68	0.077
856.86	0.077
857.04	0.076
857.23	0.076
857.41	0.076
857.59	0.076
857.77	0.076
857.95	0.076
858.13	0.076
858.32	0.076
858.50	0.076
858.68	0.076
858.86	0.076
859.04	0.076
859.22	0.076
859.41	0.076
859.59	0.076
859.77	0.076
859.95	0.076
860.13	0.077
860.31	0.077
860.49	0.077
860.68	0.077
860.86	0.077
861.04	0.077
861.22	0.077
861.40	0.077
861.58	0.077
861.76	0.077
861.94	0.078
862.13	0.077
862.31	0.077
862.49	0.077
862.67	0.077
862.85	0.077
863.03	0.077
863.21	0.077
863.39	0.077
863.57	0.077
863.76	0.077
863.94	0.077
864.12	0.077
864.30	0.077
864.48	0.077
864.66	0.077
864.84	0.077
865.02	0.077
865.20	0.077
865.38	0.077
865.57	0.078
865.75	0.078
865.93	0.078
866.11	0.078
866.29	0.078
866.47	0.079
866.65	0.079
866.83	0.078
867.01	0.078
867.19	0.078
867.37	0.077
867.55	0.078
867.73	0.078
867.92	0.077
868.10	0.078
868.28	0.078
868.46	0.078
868.64	0.078
868.82	0.078
869.00	0.078
869.18	0.078
869.36	0.078
869.54	0.079
869.72	0.079
869.90	0.079
870.08	0.079
870.26	0.079
870.44	0.079
870.62	0.079
870.80	0.079
870.98	0.079
871.16	0.079
871.34	0.078
871.53	0.079
871.71	0.078
871.89	0.078
872.07	0.078
872.25	0.078
872.43	0.078
872.61	0.079
872.79	0.079
872.97	0.079
873.15	0.079
873.33	0.079
873.51	0.079
873.69	0.079
873.87	0.079
874.05	0.079
874.23	0.079
874.41	0.079
874.59	0.080
874.77	0.079
874.95	0.079
875.13	0.079
875.31	0.079
875.49	0.079
875.67	0.079
875.85	0.079
876.03	0.079
876.21	0.080
876.39	0.079
876.57	0.079
876.75	0.079
876.93	0.079
877.11	0.079
877.29	0.079
877.47	0.079
877.65	0.080
877.82	0.080
878.00	0.080
878.18	0.080
878.36	0.080
878.54	0.080
878.72	0.080
878.90	0.081
879.08	0.081
879.26	0.080
879.44	0.081
879.62	0.081
879.80	0.081
879.98	0.081
880.16	0.081
880.34	0.080
880.52	0.080
880.70	0.080
880.88	0.080
881.06	0.080
881.24	0.080
881.42	0.080
881.59	0.080
881.77	0.080
881.95	0.080
882.13	0.081
882.31	0.081
882.49	0.081
882.67	0.081
882.85	0.081
883.03	0.081
883.21	0.081
883.39	0.081
883.57	0.081
883.75	0.081
883.92	0.081
884.10	0.081
884.28	0.081
884.46	0.081
884.64	0.081
884.82	0.081
885.00	0.081
885.18	0.081
885.36	0.081
885.54	0.081
885.71	0.081
885.89	0.081
886.07	0.081
886.25	0.081
886.43	0.081
886.61	0.081
886.79	0.081
886.97	0.081
887.15	0.081
887.32	0.081
887.50	0.082
887.68	0.082
887.86	0.082
888.04	0.082
888.22	0.082
888.40	0.082
888.57	0.082
888.75	0.082
888.93	0.082
889.11	0.082
889.29	0.082
889.47	0.082
889.65	0.082
889.82	0.082
890.00	0.082
890.18	0.082
890.36	0.082
890.54	0.083
890.72	0.083
890.90	0.083
891.07	0.083
891.25	0.083
891.43	0.082
891.61	0.083
891.79	0.083
891.97	0.083
892.14	0.083
892.32	0.083
892.50	0.083
892.68	0.083
892.86	0.083
893.03	0.083
893.21	0.084
893.39	0.084
893.57	0.084
893.75	0.084
893.93	0.084
894.10	0.084
894.28	0.084
894.46	0.083
894.64	0.084
894.82	0.084
894.99	0.084
895.17	0.083
895.35	0.083
895.53	0.083
895.71	0.083
895.88	0.083
896.06	0.083
896.24	0.084
896.42	0.084
896.59	0.084
896.77	0.084
896.95	0.084
897.13	0.084
897.31	0.084
897.48	0.084
897.66	0.085
897.84	0.085
898.02	0.085
898.19	0.085
898.37	0.085
898.55	0.085
898.73	0.085
898.91	0.086
899.08	0.086
899.26	0.086
899.44	0.086
899.62	0.086
899.79	0.086
899.97	0.086
900.15	0.086
900.33	0.086
900.50	0.085
900.68	0.085
900.86	0.085
901.04	0.086
901.21	0.085
901.39	0.085
901.57	0.085
901.74	0.085
901.92	0.085
902.10	0.086
902.28	0.086
902.45	0.086
902.63	0.085
902.81	0.085
902.99	0.086
903.16	0.086
903.34	0.086
903.52	0.086
903.69	0.086
903.87	0.086
904.05	0.087
904.22	0.087
904.40	0.087
904.58	0.087
904.76	0.087
904.93	0.087
905.11	0.087
905.29	0.087
905.46	0.087
905.64	0.087
905.82	0.087
905.99	0.087
906.17	0.087
906.35	0.087
906.53	0.087
906.70	0.088
906.88	0.088
907.06	0.088
907.23	0.088
907.41	0.088
907.59	0.088
907.76	0.088
907.94	0.088
908.12	0.088
908.29	0.088
908.47	0.088
908.65	0.088
908.82	0.088
909.00	0.088
909.18	0.089
909.35	0.089
909.53	0.089
909.71	0.089
909.88	0.089
910.06	0.089
910.23	0.089
910.41	0.089
910.59	0.089
910.76	0.089
910.94	0.089
911.12	0.089
911.29	0.089
911.47	0.089
911.65	0.089
911.82	0.089
912.00	0.090
912.17	0.090
912.35	0.091
912.53	0.091
912.70	0.091
912.88	0.091
913.06	0.092
913.23	0.091
913.41	0.091
913.58	0.092
913.76	0.091
913.94	0.091
914.11	0.092
914.29	0.091
914.46	0.091
914.64	0.091
914.82	0.091
914.99	0.092
915.17	0.091
915.34	0.091
915.52	0.092
915.70	0.092
915.87	0.092
916.05	0.092
916.22	0.092
916.40	0.092
916.57	0.092
916.75	0.093
916.93	0.093
917.10	0.093
917.28	0.093
917.45	0.092
917.63	0.092
917.80	0.093
917.98	0.093
918.16	0.093
918.33	0.093
918.51	0.093
918.68	0.093
918.86	0.093
919.03	0.094
919.21	0.094
919.39	0.094
919.56	0.095
919.74	0.095
919.91	0.095
920.09	0.095
920.26	0.095
920.44	0.096
920.61	0.096
920.79	0.096
920.96	0.096
921.14	0.096
921.31	0.096
921.49	0.096
921.67	0.097
921.84	0.097
922.02	0.097
922.19	0.097
922.37	0.097
922.54	0.097
922.72	0.098
922.89	0.098
923.07	0.098
923.24	0.099
923.42	0.099
923.59	0.100
923.77	0.100
923.94	0.101
924.12	0.101
924.29	0.102
924.47	0.102
924.64	0.102
924.82	0.102
924.99	0.103
925.17	0.103
925.34	0.103
925.52	0.103
925.69	0.104
925.87	0.104
926.04	0.104
926.22	0.105
926.39	0.104
926.57	0.105
926.74	0.105
926.91	0.105
927.09	0.105
927.26	0.105
927.44	0.106
927.61	0.106
927.79	0.106
927.96	0.107
928.14	0.107
928.31	0.107
928.49	0.108
928.66	0.108
928.84	0.109
929.01	0.109
929.18	0.110
929.36	0.110
929.53	0.110
929.71	0.111
929.88	0.111
930.06	0.112
930.23	0.113
930.41	0.112
930.58	0.113
930.75	0.113
930.93	0.114
931.10	0.114
931.28	0.114
931.45	0.115
931.63	0.115
931.80	0.115
931.97	0.116
932.15	0.117
932.32	0.117
932.50	0.118
932.67	0.118
932.84	0.119
933.02	0.119
933.19	0.119
933.37	0.120
933.54	0.121
933.71	0.121
933.89	0.122
934.06	0.122
934.24	0.122
934.41	0.123
934.58	0.123
934.76	0.123
934.93	0.124
935.11	0.124
935.28	0.125
935.45	0.125
935.63	0.126
935.80	0.126
935.98	0.127
936.15	0.126
936.32	0.127
936.50	0.128
936.67	0.128
936.84	0.128
937.02	0.130
937.19	0.131
937.36	0.131
937.54	0.131
937.71	0.132
937.89	0.132
938.06	0.133
938.23	0.134
938.41	0.134
938.58	0.135
938.75	0.135
938.93	0.135
939.10	0.136
939.27	0.136
939.45	0.137
939.62	0.137
939.79	0.138
939.97	0.138
940.14	0.139
940.31	0.140
940.49	0.140
940.66	0.140
940.83	0.141
941.01	0.142
941.18	0.142
941.35	0.143
941.53	0.143
941.70	0.144
941.87	0.144
942.05	0.145
942.22	0.146
942.39	0.147
942.57	0.148
942.74	0.149
942.91	0.149
943.08	0.149
943.26	0.150
943.43	0.151
943.60	0.152
943.78	0.152
943.95	0.153
944.12	0.153
944.29	0.154
944.47	0.155
944.64	0.156
944.81	0.157
944.99	0.158
945.16	0.158
945.33	0.159
945.50	0.160
945.68	0.161
945.85	0.161
946.02	0.163
946.20	0.164
946.37	0.165
946.54	0.165
946.71	0.166
946.89	0.167
947.06	0.167
947.23	0.168
947.40	0.170
947.58	0.170
947.75	0.171
947.92	0.172
948.09	0.172
948.27	0.174
948.44	0.175
948.61	0.176
948.78	0.177
948.96	0.179
949.13	0.179
949.30	0.180
949.47	0.180
949.65	0.181
949.82	0.183
949.99	0.183
950.16	0.185
950.33	0.186
950.51	0.187
950.68	0.189
950.85	0.189
951.02	0.191
951.20	0.192
951.37	0.193
951.54	0.194
951.71	0.195
951.88	0.196
952.06	0.197
952.23	0.197
952.40	0.199
952.57	0.200
952.74	0.202
952.92	0.202
953.09	0.204
953.26	0.205
953.43	0.206
953.60	0.207
953.77	0.208
953.95	0.209
954.12	0.211
954.29	0.212
954.46	0.215
954.63	0.215
954.81	0.216
954.98	0.217
955.15	0.219
955.32	0.221
955.49	0.222
955.66	0.223
955.84	0.225
956.01	0.225
956.18	0.228
956.35	0.229
956.52	0.229
956.69	0.231
956.87	0.231
957.04	0.232
957.21	0.234
957.38	0.234
957.55	0.235
957.72	0.235
957.89	0.236
958.07	0.236
958.24	0.239
958.41	0.240
958.58	0.240
958.75	0.241
958.92	0.242
959.09	0.242
959.26	0.243
959.44	0.243
959.61	0.244
959.78	0.245
959.95	0.247
960.12	0.247
960.29	0.249
960.46	0.248
960.63	0.249
960.81	0.249
960.98	0.250
961.15	0.250
961.32	0.251
961.49	0.251
961.66	0.252
961.83	0.252
962.00	0.252
962.17	0.253
962.34	0.253
962.52	0.254
962.69	0.255
962.86	0.255
963.03	0.255
963.20	0.255
963.37	0.255
963.54	0.255
963.71	0.255
963.88	0.255
964.05	0.256
964.22	0.257
964.39	0.256
964.56	0.256
964.74	0.257
964.91	0.257
965.08	0.258
965.25	0.258
965.42	0.259
965.59	0.260
965.76	0.259
965.93	0.261
966.10	0.259
966.27	0.260
966.44	0.259
966.61	0.260
966.78	0.260
966.95	0.259
967.12	0.260
967.29	0.262
967.46	0.261
967.63	0.261
967.80	0.262
967.97	0.261
968.14	0.261
968.32	0.262
968.49	0.262
968.66	0.261
968.83	0.262
969.00	0.262
969.17	0.262
969.34	0.264
969.51	0.264
969.68	0.263
969.85	0.264
970.02	0.264
970.19	0.264
970.36	0.265
970.53	0.265
970.70	0.263
970.87	0.263
971.04	0.263
971.21	0.263
971.38	0.263
971.55	0.264
971.72	0.263
971.89	0.264
972.06	0.263
972.23	0.263
972.40	0.263
972.57	0.263
972.74	0.263
972.91	0.264
973.07	0.264
973.24	0.264
973.41	0.264
973.58	0.263
973.75	0.275
973.92	0.263
974.09	0.263
974.26	0.262
974.43	0.261
974.60	0.262
974.77	0.263
974.94	0.262
975.11	0.263
975.28	0.264
975.45	0.262
975.62	0.263
975.79	0.265
975.96	0.263
976.13	0.261
976.30	0.263
976.47	0.261
976.64	0.262
976.80	0.262
976.97	0.261
977.14	0.261
977.31	0.261
977.48	0.262
977.65	0.261
977.82	0.260
977.99	0.262
978.16	0.262
978.33	0.261
978.50	0.260
978.67	0.260
978.83	0.260
979.00	0.261
979.17	0.260
979.34	0.259
979.51	0.259
979.68	0.259
979.85	0.259
980.02	0.260
980.19	0.257
980.36	0.259
980.52	0.260
980.69	0.258
980.86	0.258
981.03	0.258
981.20	0.256
981.37	0.258
981.54	0.258
981.71	0.256
981.88	0.257
982.04	0.257
982.21	0.257
982.38	0.258
982.55	0.257
982.72	0.256
982.89	0.258
983.06	0.257
983.22	0.256
983.39	0.257
983.56	0.257
983.73	0.255
983.90	0.254
984.07	0.256
984.24	0.255
984.40	0.254
984.57	0.252
984.74	0.255
984.91	0.255
985.08	0.253
985.25	0.251
985.41	0.252
985.58	0.252
985.75	0.253
985.92	0.252
986.09	0.251
986.26	0.251
986.42	0.250
986.59	0.248
986.76	0.250
986.93	0.250
987.10	0.251
987.27	0.248
987.43	0.247
987.60	0.249
987.77	0.249
987.94	0.247
988.11	0.248
988.27	0.248
988.44	0.248
988.61	0.246
988.78	0.245
988.95	0.245
989.11	0.247
989.28	0.245
989.45	0.245
989.62	0.244
989.79	0.245
989.95	0.244
990.12	0.245
990.29	0.246
990.46	0.244
990.62	0.242
990.79	0.243
990.96	0.242
991.13	0.243
991.30	0.241
991.46	0.240
991.63	0.239
991.80	0.238
991.97	0.237
992.13	0.238
992.30	0.239
992.47	0.237
992.64	0.237
992.80	0.237
992.97	0.237
993.14	0.235
993.31	0.233
993.47	0.235
993.64	0.233
993.81	0.233
993.98	0.232
994.14	0.231
994.31	0.230
994.48	0.231
994.64	0.232
994.81	0.230
994.98	0.230
995.15	0.228
995.31	0.228
995.48	0.228
995.65	0.230
995.82	0.228
995.98	0.227
996.15	0.229
996.32	0.230
996.48	0.228
996.65	0.228
996.82	0.225
996.99	0.226
997.15	0.226
997.32	0.227
997.49	0.225
997.65	0.227
997.82	0.226
997.99	0.224
998.15	0.224
998.32	0.226
998.49	0.225
998.65	0.225
998.82	0.225
998.99	0.222
999.15	0.223
999.32	0.221
999.49	0.221
999.65	0.221
999.82	0.217
999.99	0.218
1000.15	0.218
1000.32	0.217
1000.49	0.218
1000.65	0.216
1000.82	0.215
1000.99	0.216
1001.15	0.216
1001.32	0.215
1001.49	0.216
1001.65	0.216
1001.82	0.219
1001.99	0.215
1002.15	0.214
1002.32	0.214
1002.49	0.215
1002.65	0.213
1002.82	0.211
1002.99	0.211
1003.15	0.213
1003.32	0.212
1003.48	0.212
1003.65	0.212
1003.82	0.211
1003.98	0.208
1004.15	0.208
1004.32	0.208
1004.48	0.208
1004.65	0.210
1004.81	0.207
1004.98	0.206
1005.15	0.207
1005.31	0.206
1005.48	0.204
1005.64	0.205
1005.81	0.207
1005.98	0.204
1006.14	0.203
1006.31	0.204
1006.47	0.203
1006.64	0.202
1006.81	0.201
1006.97	0.201
1007.14	0.201
1007.30	0.203
1007.47	0.202
1007.63	0.200
1007.80	0.198
1007.97	0.198
1008.13	0.199
1008.30	0.198
1008.46	0.199
1008.63	0.197
1008.79	0.197
1008.96	0.198
1009.13	0.199
1009.29	0.196
1009.46	0.196
1009.62	0.195
1009.79	0.194
1009.95	0.194
1010.12	0.195
1010.28	0.195
1010.45	0.194
1010.62	0.193
1010.78	0.191
1010.95	0.189
1011.11	0.190
1011.28	0.189
1011.44	0.192
1011.61	0.191
1011.77	0.189
1011.94	0.189
1012.10	0.188
1012.27	0.189
1012.43	0.189
1012.60	0.188
1012.76	0.188
1012.93	0.188
1013.10	0.187
1013.26	0.184
1013.43	0.185
1013.59	0.192
1013.76	0.184
1013.92	0.183
1014.09	0.182
1014.25	0.183
1014.42	0.184
1014.58	0.183
1014.75	0.186
1014.91	0.183
1015.08	0.185
1015.24	0.182
1015.41	0.184
1015.57	0.184
1015.73	0.182
1015.90	0.181
1016.06	0.182
1016.23	0.180
1016.39	0.181
1016.56	0.181
1016.72	0.180
1016.89	0.180
1017.05	0.182
1017.22	0.179
1017.38	0.179
1017.55	0.178
1017.71	0.179
1017.88	0.178
1018.04	0.178
1018.21	0.175
1018.37	0.175
1018.53	0.175
1018.70	0.173
1018.86	0.172
1019.03	0.175
1019.19	0.173
1019.36	0.172
1019.52	0.174
1019.69	0.174
1019.85	0.173
1020.01	0.173
1020.18	0.171
1020.34	0.171
1020.51	0.171
1020.67	0.172
1020.84	0.170
1021.00	0.171
1021.16	0.169
1021.33	0.169
1021.49	0.168
1021.66	0.169
1021.82	0.168
1021.98	0.168
1022.15	0.167
1022.31	0.166
1022.48	0.165
1022.64	0.167
1022.80	0.165
1022.97	0.163
1023.13	0.162
1023.30	0.163
1023.46	0.163
1023.62	0.161
1023.79	0.162
1023.95	0.163
1024.12	0.163
1024.28	0.162
1024.44	0.162
1024.61	0.161
1024.77	0.162
1024.93	0.161
1025.10	0.162
1025.26	0.160
1025.43	0.160
1025.59	0.156
1025.75	0.160
1025.92	0.160
1026.08	0.159
1026.24	0.158
1026.41	0.159
1026.57	0.157
1026.73	0.155
1026.90	0.156
1027.06	0.155
1027.23	0.156
1027.39	0.156
1027.55	0.155
1027.72	0.153
1027.88	0.153
1028.04	0.154
1028.21	0.154
1028.37	0.148
1028.53	0.153
1028.70	0.151
1028.86	0.149
1029.02	0.150
1029.19	0.151
1029.35	0.149
1029.51	0.149
1029.67	0.149
1029.84	0.150
1030.00	0.145
1030.16	0.146
1030.33	0.148
1030.49	0.145
1030.65	0.143
1030.82	0.158
1030.98	0.145
1031.14	0.145
1031.31	0.145
1031.47	0.142
1031.63	0.145
1031.79	0.144
1031.96	0.146
1032.12	0.146
1032.28	0.144
1032.45	0.148
1032.61	0.147
1032.77	0.146
1032.93	0.144
1033.10	0.144
1033.26	0.147
1033.42	0.144
1033.58	0.145
1033.75	0.147
1033.91	0.144
1034.07	0.147
1034.24	0.145
1034.40	0.143
1034.56	0.143
1034.72	0.143
1034.89	0.144
1035.05	0.143
1035.21	0.142
1035.37	0.140
1035.54	0.143
1035.70	0.142
1035.86	0.141
1036.02	0.142
1036.19	0.140
1036.35	0.138
1036.51	0.142
1036.67	0.139
1036.83	0.138
1037.00	0.137
1037.16	0.137
1037.32	0.137
1037.48	0.136
1037.65	0.141
1037.81	0.137
1037.97	0.136
1038.13	0.137
1038.29	0.135
1038.46	0.132
1038.62	0.137
1038.78	0.135
1038.94	0.132
1039.10	0.135
1039.27	0.132
1039.43	0.133
1039.59	0.134
1039.75	0.133
1039.91	0.132
1040.08	0.133
1040.24	0.136
1040.40	0.138
1040.56	0.137
1040.72	0.131
1040.89	0.134
1041.05	0.135
1041.21	0.132
1041.37	0.129
1041.53	0.136
1041.69	0.133
1041.86	0.131
1042.02	0.128
1042.18	0.128
1042.34	0.129
1042.50	0.134
1042.66	0.130
1042.83	0.129
1042.99	0.133
1043.15	0.128
1043.31	0.128
1043.47	0.131
1043.63	0.128
1043.79	0.129
1043.96	0.130
1044.12	0.133
1044.28	0.128
1044.44	0.131
1044.60	0.125
1044.76	0.124
1044.92	0.127
1045.09	0.128
1045.25	0.127
1045.41	0.128
1045.57	0.123
1045.73	0.123
1045.89	0.124
1046.05	0.128
1046.21	0.133
1046.38	0.134
1046.54	0.127
1046.70	0.129
1046.86	0.136
>>>>>End Processed Spectral Data<<<<<
