SpectraSuite Data File
++++++++++++++++++++++++++++++++++++
Date: Mon May 20 12:13:40 CDT 2013
User: Students
Dark Spectrum Present: Yes
Reference Spectrum Present: Yes
Number of Sampled Component Spectra: 1
Spectrometers: USB4H00887
Integration Time (usec): 60000 (USB4H00887)
Spectra Averaged: 5 (USB4H00887)
Boxcar Smoothing: 5 (USB4H00887)
Correct for Electrical Dark: No (USB4H00887)
Strobe/Lamp Enabled: No (USB4H00887)
Correct for Detector Non-linearity: No (USB4H00887)
Correct for Stray Light: No (USB4H00887)
Number of Pixels in Processed Spectrum: 3648
>>>>>Begin Processed Spectral Data<<<<<
345.83	0.370
346.05	0.370
346.26	0.370
346.48	-0.000
346.70	0.740
346.92	-0.021
347.14	0.004
347.35	0.004
347.57	0.076
347.79	-0.091
348.01	-0.087
348.23	-0.216
348.44	-0.000
348.66	0.155
348.88	-0.198
349.10	0.004
349.32	-0.003
349.53	0.032
349.75	0.029
349.97	0.025
350.19	0.064
350.41	0.027
350.62	-0.155
350.84	0.001
351.06	0.007
351.28	-0.013
351.50	-0.152
351.71	-0.044
351.93	-0.079
352.15	-0.011
352.37	-0.047
352.58	-0.012
352.80	0.009
353.02	0.042
353.24	0.099
353.46	1.442
353.67	-0.280
353.89	0.123
354.11	0.081
354.33	0.105
354.54	0.140
354.76	0.284
354.98	0.525
355.20	0.343
355.41	0.096
355.63	0.188
355.85	0.094
356.07	0.656
356.28	0.071
356.50	0.143
356.72	0.052
356.94	0.201
357.15	0.225
357.37	-0.000
357.59	0.153
357.81	0.129
358.02	0.163
358.24	0.084
358.46	0.201
358.68	0.164
358.89	0.094
359.11	-0.000
359.33	0.057
359.55	-0.505
359.76	0.092
359.98	0.119
360.20	0.119
360.42	0.120
360.63	0.155
360.85	0.122
361.07	0.860
361.29	0.107
361.50	0.304
361.72	0.150
361.94	0.613
362.15	0.216
362.37	0.113
362.59	0.112
362.81	0.175
363.02	0.325
363.24	0.471
363.46	0.243
363.68	0.276
363.89	0.172
364.11	0.211
364.33	0.249
364.54	0.165
364.76	0.207
364.98	0.221
365.20	0.234
365.41	0.118
365.63	0.139
365.85	0.097
366.06	0.301
366.28	0.284
366.50	0.165
366.71	0.085
366.93	0.118
367.15	0.115
367.37	0.107
367.58	0.168
367.80	0.205
368.02	0.855
368.23	0.193
368.45	0.214
368.67	0.204
368.88	0.202
369.10	-0.000
369.32	0.177
369.53	0.087
369.75	0.132
369.97	0.254
370.19	0.163
370.40	0.063
370.62	0.172
370.84	0.067
371.05	0.317
371.27	0.081
371.49	0.082
371.70	0.121
371.92	0.186
372.14	0.072
372.35	0.091
372.57	0.096
372.79	0.258
373.00	0.067
373.22	0.089
373.44	0.086
373.65	0.081
373.87	0.108
374.09	0.430
374.30	0.120
374.52	0.154
374.74	0.107
374.95	0.390
375.17	0.108
375.39	-0.000
375.60	0.137
375.82	0.239
376.04	0.109
376.25	0.135
376.47	0.077
376.68	0.189
376.90	0.119
377.12	0.288
377.33	0.175
377.55	0.402
377.77	0.195
377.98	0.276
378.20	0.148
378.42	0.186
378.63	0.235
378.85	-0.000
379.07	0.154
379.28	0.579
379.50	0.301
379.71	0.155
379.93	0.116
380.15	0.147
380.36	0.228
380.58	0.177
380.80	0.497
381.01	0.143
381.23	0.124
381.44	0.141
381.66	0.168
381.88	0.210
382.09	-0.093
382.31	0.144
382.53	0.172
382.74	-0.000
382.96	0.260
383.17	0.193
383.39	0.288
383.61	0.391
383.82	0.248
384.04	0.277
384.25	0.338
384.47	0.311
384.69	0.296
384.90	0.270
385.12	0.578
385.33	0.350
385.55	0.254
385.77	0.365
385.98	0.193
386.20	0.276
386.41	0.248
386.63	0.295
386.85	0.238
387.06	0.299
387.28	0.457
387.49	0.296
387.71	0.209
387.93	0.196
388.14	0.613
388.36	0.225
388.57	0.203
388.79	0.218
389.01	1.650
389.22	0.271
389.44	0.231
389.65	0.184
389.87	0.178
390.08	0.210
390.30	0.165
390.52	0.350
390.73	0.366
390.95	0.254
391.16	0.244
391.38	-0.000
391.59	0.274
391.81	0.241
392.03	0.234
392.24	0.272
392.46	0.226
392.67	0.196
392.89	0.267
393.10	0.391
393.32	0.260
393.53	0.299
393.75	0.207
393.97	0.240
394.18	0.339
394.40	0.292
394.61	0.309
394.83	0.267
395.04	0.317
395.26	0.214
395.47	0.324
395.69	0.275
395.91	0.293
396.12	0.359
396.34	0.349
396.55	0.212
396.77	0.320
396.98	1.828
397.20	0.387
397.41	0.461
397.63	0.323
397.84	0.298
398.06	0.270
398.27	0.290
398.49	0.313
398.71	0.229
398.92	0.278
399.14	0.353
399.35	0.444
399.57	0.441
399.78	0.296
400.00	0.283
400.21	0.344
400.43	0.297
400.64	0.302
400.86	0.711
401.07	0.395
401.29	0.332
401.50	0.366
401.72	0.523
401.93	0.322
402.15	0.401
402.36	0.368
402.58	0.304
402.79	0.330
403.01	0.602
403.22	0.453
403.44	0.279
403.65	0.477
403.87	0.513
404.08	0.399
404.30	0.712
404.51	0.360
404.73	0.448
404.94	0.394
405.16	0.406
405.37	0.310
405.59	0.598
405.80	0.375
406.02	0.455
406.23	0.448
406.45	0.518
406.66	0.517
406.88	0.325
407.09	0.495
407.31	0.380
407.52	0.472
407.74	0.373
407.95	0.435
408.17	0.397
408.38	0.419
408.60	0.283
408.81	0.462
409.03	0.366
409.24	0.372
409.45	0.431
409.67	0.426
409.88	0.391
410.10	0.509
410.31	0.422
410.53	0.408
410.74	0.599
410.96	0.578
411.17	0.606
411.39	0.459
411.60	0.412
411.82	0.484
412.03	0.458
412.24	0.430
412.46	0.648
412.67	0.540
412.89	0.531
413.10	0.529
413.32	0.484
413.53	0.573
413.75	0.566
413.96	0.421
414.17	0.570
414.39	0.582
414.60	0.455
414.82	0.595
415.03	0.443
415.25	0.482
415.46	0.338
415.68	0.466
415.89	0.859
416.10	0.705
416.32	0.382
416.53	0.455
416.75	0.420
416.96	0.522
417.18	0.453
417.39	0.439
417.60	0.443
417.82	0.638
418.03	0.560
418.25	0.470
418.46	0.480
418.67	0.437
418.89	0.476
419.10	0.502
419.32	0.693
419.53	0.629
419.75	0.512
419.96	0.449
420.17	0.545
420.39	0.514
420.60	0.536
420.82	0.676
421.03	0.541
421.24	0.448
421.46	0.494
421.67	0.538
421.89	0.463
422.10	0.504
422.31	0.498
422.53	0.751
422.74	0.545
422.96	0.433
423.17	0.480
423.38	0.596
423.60	0.497
423.81	0.628
424.03	0.529
424.24	0.594
424.45	0.593
424.67	0.596
424.88	0.530
425.09	0.578
425.31	0.519
425.52	0.551
425.74	0.630
425.95	0.681
426.16	0.522
426.38	0.617
426.59	0.559
426.80	0.646
427.02	0.681
427.23	0.512
427.45	0.671
427.66	0.665
427.87	0.511
428.09	0.540
428.30	0.607
428.51	0.591
428.73	0.647
428.94	0.570
429.15	0.552
429.37	0.532
429.58	0.568
429.79	0.521
430.01	0.632
430.22	0.622
430.44	0.640
430.65	0.578
430.86	0.624
431.08	0.597
431.29	0.541
431.50	0.665
431.72	0.910
431.93	0.707
432.14	0.524
432.36	0.568
432.57	0.584
432.78	0.608
433.00	0.546
433.21	0.546
433.42	0.689
433.64	0.604
433.85	0.677
434.06	0.539
434.28	0.569
434.49	0.590
434.70	0.609
434.92	0.622
435.13	0.660
435.34	0.683
435.56	0.636
435.77	0.633
435.98	0.811
436.20	0.667
436.41	0.583
436.62	0.583
436.83	0.662
437.05	0.748
437.26	0.654
437.47	0.585
437.69	0.645
437.90	0.592
438.11	0.581
438.33	0.637
438.54	0.659
438.75	0.857
438.97	0.822
439.18	0.610
439.39	0.642
439.60	0.686
439.82	0.640
440.03	0.580
440.24	0.856
440.46	0.637
440.67	0.618
440.88	0.662
441.10	0.611
441.31	0.605
441.52	0.658
441.73	0.735
441.95	0.654
442.16	0.606
442.37	0.967
442.58	0.599
442.80	0.585
443.01	0.761
443.22	0.699
443.44	0.604
443.65	0.724
443.86	0.722
444.07	0.778
444.29	0.672
444.50	0.873
444.71	0.656
444.92	0.602
445.14	0.780
445.35	0.823
445.56	0.633
445.78	0.742
445.99	0.740
446.20	0.637
446.41	0.720
446.63	0.717
446.84	0.669
447.05	0.670
447.26	0.822
447.48	0.690
447.69	0.660
447.90	0.758
448.11	0.665
448.33	0.693
448.54	0.710
448.75	0.751
448.96	0.758
449.18	0.817
449.39	0.719
449.60	0.693
449.81	0.839
450.03	0.720
450.24	0.787
450.45	0.744
450.66	0.727
450.87	0.758
451.09	0.695
451.30	0.681
451.51	0.747
451.72	0.760
451.94	0.788
452.15	0.864
452.36	0.716
452.57	0.741
452.78	0.734
453.00	0.765
453.21	0.720
453.42	0.696
453.63	0.797
453.85	0.756
454.06	0.753
454.27	0.896
454.48	0.795
454.69	0.717
454.91	0.786
455.12	0.689
455.33	0.782
455.54	0.799
455.75	0.768
455.97	0.802
456.18	0.788
456.39	0.799
456.60	0.821
456.81	0.753
457.03	0.766
457.24	0.763
457.45	0.857
457.66	0.793
457.87	0.747
458.09	0.770
458.30	0.673
458.51	0.810
458.72	0.831
458.93	0.842
459.15	0.736
459.36	0.801
459.57	0.827
459.78	0.879
459.99	0.785
460.20	0.751
460.42	0.832
460.63	0.785
460.84	0.763
461.05	0.777
461.26	0.838
461.47	0.757
461.69	0.811
461.90	0.853
462.11	0.805
462.32	0.864
462.53	0.792
462.74	0.904
462.96	0.776
463.17	0.766
463.38	0.814
463.59	0.936
463.80	0.770
464.01	0.797
464.23	0.880
464.44	0.842
464.65	0.852
464.86	0.876
465.07	0.878
465.28	0.840
465.49	0.869
465.71	0.819
465.92	0.856
466.13	0.908
466.34	0.830
466.55	0.885
466.76	0.845
466.97	0.871
467.19	0.864
467.40	0.904
467.61	0.915
467.82	0.824
468.03	0.809
468.24	0.886
468.45	0.924
468.66	0.908
468.88	0.929
469.09	0.927
469.30	0.981
469.51	0.891
469.72	0.939
469.93	0.904
470.14	0.876
470.35	0.969
470.57	0.912
470.78	0.846
470.99	0.990
471.20	0.913
471.41	0.869
471.62	0.921
471.83	0.893
472.04	0.922
472.25	0.957
472.47	0.875
472.68	0.882
472.89	0.886
473.10	0.925
473.31	0.876
473.52	0.941
473.73	0.965
473.94	0.884
474.15	0.909
474.36	0.910
474.57	0.944
474.79	0.915
475.00	0.916
475.21	0.901
475.42	1.003
475.63	0.899
475.84	0.932
476.05	0.934
476.26	0.897
476.47	0.929
476.68	0.978
476.89	0.904
477.10	0.955
477.32	0.943
477.53	1.001
477.74	0.918
477.95	0.958
478.16	0.904
478.37	0.955
478.58	0.964
478.79	0.981
479.00	0.981
479.21	0.934
479.42	0.980
479.63	0.986
479.84	0.948
480.05	0.945
480.26	0.973
480.47	0.992
480.69	0.987
480.90	0.951
481.11	0.950
481.32	1.014
481.53	0.952
481.74	1.005
481.95	0.968
482.16	0.983
482.37	0.992
482.58	0.957
482.79	0.977
483.00	1.014
483.21	0.953
483.42	0.925
483.63	1.008
483.84	1.039
484.05	1.027
484.26	0.995
484.47	0.993
484.68	0.953
484.89	0.961
485.10	1.013
485.31	0.987
485.52	0.996
485.73	0.994
485.94	1.037
486.15	0.980
486.37	0.999
486.58	0.963
486.79	0.979
487.00	1.033
487.21	1.023
487.42	1.018
487.63	1.025
487.84	1.041
488.05	1.036
488.26	0.991
488.47	0.996
488.68	1.027
488.89	0.997
489.10	0.988
489.31	0.998
489.52	1.037
489.73	1.001
489.94	1.037
490.15	0.992
490.36	1.032
490.57	0.983
490.78	0.967
490.99	1.008
491.20	1.092
491.41	1.046
491.62	0.984
491.83	1.012
492.04	1.006
492.25	1.015
492.45	1.017
492.66	1.045
492.87	1.034
493.08	1.017
493.29	1.003
493.50	0.994
493.71	1.000
493.92	1.001
494.13	1.016
494.34	1.038
494.55	1.046
494.76	1.079
494.97	1.069
495.18	1.029
495.39	1.047
495.60	0.993
495.81	0.995
496.02	1.016
496.23	1.008
496.44	1.042
496.65	1.031
496.86	1.037
497.07	1.064
497.28	1.061
497.49	1.007
497.70	1.009
497.91	1.030
498.12	1.010
498.32	1.058
498.53	1.042
498.74	1.035
498.95	1.062
499.16	1.015
499.37	1.019
499.58	1.030
499.79	1.065
500.00	1.062
500.21	1.094
500.42	1.032
500.63	1.033
500.84	1.055
501.05	1.028
501.26	1.056
501.46	1.097
501.67	1.056
501.88	1.060
502.09	1.033
502.30	1.041
502.51	1.094
502.72	1.045
502.93	1.061
503.14	1.080
503.35	1.051
503.56	1.049
503.77	1.081
503.97	1.055
504.18	1.050
504.39	1.087
504.60	1.053
504.81	1.081
505.02	1.070
505.23	1.073
505.44	1.053
505.65	1.058
505.86	1.036
506.07	1.107
506.27	1.061
506.48	1.069
506.69	1.052
506.90	1.075
507.11	1.074
507.32	1.047
507.53	1.054
507.74	1.046
507.95	1.063
508.15	1.071
508.36	1.075
508.57	1.089
508.78	1.068
508.99	1.067
509.20	1.038
509.41	1.063
509.62	1.048
509.82	1.047
510.03	1.058
510.24	1.058
510.45	1.082
510.66	1.073
510.87	1.068
511.08	1.028
511.29	1.071
511.49	1.050
511.70	1.102
511.91	1.033
512.12	1.030
512.33	1.066
512.54	1.083
512.75	1.064
512.95	1.092
513.16	1.083
513.37	1.058
513.58	1.101
513.79	1.058
514.00	1.065
514.20	1.083
514.41	1.068
514.62	1.033
514.83	1.074
515.04	1.066
515.25	1.044
515.46	1.057
515.66	1.060
515.87	1.073
516.08	1.039
516.29	1.064
516.50	1.045
516.71	1.040
516.91	1.053
517.12	1.071
517.33	1.057
517.54	1.040
517.75	1.041
517.95	1.054
518.16	1.066
518.37	1.032
518.58	1.038
518.79	1.010
519.00	1.044
519.20	1.051
519.41	1.024
519.62	1.041
519.83	1.054
520.04	1.016
520.24	1.014
520.45	1.022
520.66	1.047
520.87	1.007
521.08	1.006
521.28	1.011
521.49	1.028
521.70	0.996
521.91	1.012
522.12	0.993
522.32	1.017
522.53	0.996
522.74	0.986
522.95	0.996
523.16	0.998
523.36	1.007
523.57	0.987
523.78	0.982
523.99	0.987
524.20	0.980
524.40	0.992
524.61	0.998
524.82	0.974
525.03	0.981
525.23	0.982
525.44	0.965
525.65	0.965
525.86	0.990
526.06	0.959
526.27	0.959
526.48	0.968
526.69	0.949
526.90	0.953
527.10	0.990
527.31	0.941
527.52	0.934
527.73	0.926
527.93	0.936
528.14	0.941
528.35	0.932
528.56	0.931
528.76	0.924
528.97	0.913
529.18	0.905
529.39	0.905
529.59	0.909
529.80	0.942
530.01	0.914
530.22	0.913
530.42	0.880
530.63	0.897
530.84	0.876
531.05	0.890
531.25	0.893
531.46	0.885
531.67	0.862
531.88	0.880
532.08	0.871
532.29	0.867
532.50	0.859
532.70	0.854
532.91	0.845
533.12	0.849
533.33	0.875
533.53	0.846
533.74	0.844
533.95	0.850
534.15	0.837
534.36	0.840
534.57	0.821
534.78	0.823
534.98	0.833
535.19	0.801
535.40	0.802
535.60	0.820
535.81	0.799
536.02	0.804
536.23	0.795
536.43	0.798
536.64	0.784
536.85	0.793
537.05	0.802
537.26	0.779
537.47	0.782
537.67	0.771
537.88	0.766
538.09	0.773
538.30	0.762
538.50	0.752
538.71	0.764
538.92	0.750
539.12	0.746
539.33	0.742
539.54	0.743
539.74	0.748
539.95	0.739
540.16	0.737
540.36	0.728
540.57	0.727
540.78	0.720
540.98	0.719
541.19	0.718
541.40	0.705
541.60	0.715
541.81	0.709
542.02	0.709
542.22	0.699
542.43	0.693
542.64	0.687
542.84	0.687
543.05	0.680
543.26	0.681
543.46	0.684
543.67	0.682
543.88	0.677
544.08	0.666
544.29	0.660
544.50	0.660
544.70	0.661
544.91	0.652
545.12	0.653
545.32	0.648
545.53	0.652
545.74	0.641
545.94	0.638
546.15	0.635
546.35	0.633
546.56	0.630
546.77	0.627
546.97	0.624
547.18	0.617
547.39	0.617
547.59	0.614
547.80	0.609
548.01	0.612
548.21	0.608
548.42	0.599
548.62	0.598
548.83	0.594
549.04	0.590
549.24	0.582
549.45	0.582
549.65	0.579
549.86	0.574
550.07	0.574
550.27	0.572
550.48	0.579
550.69	0.565
550.89	0.565
551.10	0.562
551.30	0.560
551.51	0.561
551.72	0.550
551.92	0.552
552.13	0.551
552.33	0.552
552.54	0.546
552.75	0.539
552.95	0.542
553.16	0.536
553.36	0.534
553.57	0.531
553.78	0.529
553.98	0.528
554.19	0.519
554.39	0.516
554.60	0.519
554.80	0.518
555.01	0.510
555.22	0.511
555.42	0.508
555.63	0.502
555.83	0.505
556.04	0.499
556.25	0.502
556.45	0.492
556.66	0.491
556.86	0.493
557.07	0.491
557.27	0.490
557.48	0.484
557.68	0.481
557.89	0.482
558.10	0.477
558.30	0.474
558.51	0.472
558.71	0.470
558.92	0.464
559.12	0.466
559.33	0.470
559.54	0.465
559.74	0.461
559.95	0.458
560.15	0.458
560.36	0.456
560.56	0.451
560.77	0.452
560.97	0.451
561.18	0.446
561.38	0.445
561.59	0.448
561.79	0.443
562.00	0.441
562.21	0.438
562.41	0.437
562.62	0.435
562.82	0.433
563.03	0.429
563.23	0.428
563.44	0.428
563.64	0.425
563.85	0.426
564.05	0.418
564.26	0.417
564.46	0.416
564.67	0.417
564.87	0.412
565.08	0.410
565.28	0.410
565.49	0.411
565.69	0.408
565.90	0.405
566.10	0.407
566.31	0.401
566.51	0.404
566.72	0.404
566.92	0.398
567.13	0.397
567.33	0.396
567.54	0.394
567.74	0.393
567.95	0.388
568.15	0.390
568.36	0.389
568.56	0.387
568.77	0.382
568.97	0.381
569.18	0.380
569.38	0.378
569.59	0.379
569.79	0.376
570.00	0.374
570.20	0.372
570.41	0.370
570.61	0.368
570.82	0.370
571.02	0.365
571.23	0.368
571.43	0.363
571.64	0.362
571.84	0.361
572.05	0.360
572.25	0.359
572.45	0.357
572.66	0.354
572.86	0.353
573.07	0.352
573.27	0.352
573.48	0.351
573.68	0.346
573.89	0.346
574.09	0.347
574.30	0.344
574.50	0.343
574.70	0.343
574.91	0.341
575.11	0.341
575.32	0.339
575.52	0.336
575.73	0.335
575.93	0.335
576.14	0.334
576.34	0.332
576.54	0.331
576.75	0.328
576.95	0.328
577.16	0.325
577.36	0.324
577.57	0.323
577.77	0.321
577.97	0.319
578.18	0.320
578.38	0.317
578.59	0.316
578.79	0.314
579.00	0.315
579.20	0.313
579.40	0.312
579.61	0.311
579.81	0.310
580.02	0.309
580.22	0.308
580.42	0.307
580.63	0.307
580.83	0.306
581.04	0.304
581.24	0.303
581.45	0.301
581.65	0.301
581.85	0.300
582.06	0.298
582.26	0.297
582.47	0.296
582.67	0.295
582.87	0.294
583.08	0.291
583.28	0.291
583.48	0.290
583.69	0.287
583.89	0.287
584.10	0.288
584.30	0.285
584.50	0.284
584.71	0.284
584.91	0.283
585.12	0.281
585.32	0.282
585.52	0.280
585.73	0.279
585.93	0.278
586.13	0.277
586.34	0.276
586.54	0.275
586.75	0.274
586.95	0.272
587.15	0.272
587.36	0.270
587.56	0.269
587.76	0.269
587.97	0.268
588.17	0.266
588.37	0.266
588.58	0.266
588.78	0.263
588.98	0.263
589.19	0.263
589.39	0.261
589.60	0.262
589.80	0.259
590.00	0.259
590.21	0.258
590.41	0.256
590.61	0.256
590.82	0.256
591.02	0.255
591.22	0.253
591.43	0.254
591.63	0.252
591.83	0.252
592.04	0.251
592.24	0.251
592.44	0.249
592.65	0.248
592.85	0.248
593.05	0.248
593.26	0.246
593.46	0.246
593.66	0.245
593.86	0.244
594.07	0.242
594.27	0.242
594.47	0.241
594.68	0.240
594.88	0.240
595.08	0.239
595.29	0.240
595.49	0.238
595.69	0.237
595.90	0.236
596.10	0.236
596.30	0.235
596.50	0.234
596.71	0.233
596.91	0.232
597.11	0.232
597.32	0.232
597.52	0.231
597.72	0.231
597.93	0.230
598.13	0.228
598.33	0.229
598.53	0.228
598.74	0.227
598.94	0.227
599.14	0.226
599.35	0.226
599.55	0.225
599.75	0.224
599.95	0.223
600.16	0.223
600.36	0.222
600.56	0.221
600.76	0.220
600.97	0.219
601.17	0.219
601.37	0.218
601.58	0.217
601.78	0.218
601.98	0.217
602.18	0.216
602.39	0.216
602.59	0.216
602.79	0.214
602.99	0.214
603.20	0.213
603.40	0.213
603.60	0.213
603.80	0.212
604.01	0.212
604.21	0.211
604.41	0.211
604.61	0.210
604.82	0.210
605.02	0.210
605.22	0.210
605.42	0.209
605.62	0.209
605.83	0.207
606.03	0.207
606.23	0.207
606.43	0.206
606.64	0.206
606.84	0.205
607.04	0.204
607.24	0.204
607.45	0.204
607.65	0.203
607.85	0.203
608.05	0.202
608.25	0.201
608.46	0.201
608.66	0.201
608.86	0.200
609.06	0.199
609.26	0.198
609.47	0.199
609.67	0.197
609.87	0.198
610.07	0.198
610.28	0.196
610.48	0.196
610.68	0.196
610.88	0.194
611.08	0.195
611.29	0.194
611.49	0.193
611.69	0.193
611.89	0.191
612.09	0.191
612.29	0.191
612.50	0.191
612.70	0.191
612.90	0.191
613.10	0.190
613.30	0.190
613.51	0.190
613.71	0.189
613.91	0.193
614.11	0.188
614.31	0.188
614.51	0.187
614.72	0.187
614.92	0.186
615.12	0.186
615.32	0.186
615.52	0.185
615.72	0.186
615.93	0.185
616.13	0.185
616.33	0.185
616.53	0.184
616.73	0.184
616.93	0.183
617.14	0.183
617.34	0.183
617.54	0.183
617.74	0.182
617.94	0.182
618.14	0.181
618.34	0.180
618.55	0.180
618.75	0.180
618.95	0.181
619.15	0.180
619.35	0.180
619.55	0.179
619.75	0.179
619.96	0.179
620.16	0.179
620.36	0.179
620.56	0.178
620.76	0.178
620.96	0.177
621.16	0.177
621.36	0.177
621.57	0.177
621.77	0.177
621.97	0.175
622.17	0.175
622.37	0.175
622.57	0.176
622.77	0.175
622.97	0.174
623.18	0.174
623.38	0.175
623.58	0.174
623.78	0.173
623.98	0.173
624.18	0.173
624.38	0.172
624.58	0.172
624.78	0.172
624.98	0.172
625.19	0.171
625.39	0.172
625.59	0.171
625.79	0.171
625.99	0.170
626.19	0.171
626.39	0.170
626.59	0.171
626.79	0.170
626.99	0.171
627.19	0.170
627.40	0.170
627.60	0.169
627.80	0.169
628.00	0.169
628.20	0.169
628.40	0.169
628.60	0.168
628.80	0.167
629.00	0.167
629.20	0.166
629.40	0.167
629.60	0.165
629.80	0.165
630.00	0.165
630.20	0.164
630.41	0.164
630.61	0.163
630.81	0.163
631.01	0.164
631.21	0.163
631.41	0.163
631.61	0.163
631.81	0.163
632.01	0.163
632.21	0.163
632.41	0.162
632.61	0.162
632.81	0.162
633.01	0.163
633.21	0.162
633.41	0.162
633.61	0.161
633.81	0.160
634.01	0.160
634.21	0.160
634.41	0.159
634.61	0.159
634.81	0.159
635.01	0.158
635.22	0.158
635.42	0.158
635.62	0.158
635.82	0.159
636.02	0.158
636.22	0.158
636.42	0.157
636.62	0.158
636.82	0.158
637.02	0.157
637.22	0.157
637.42	0.156
637.62	0.156
637.82	0.156
638.02	0.155
638.22	0.155
638.42	0.155
638.62	0.154
638.82	0.154
639.02	0.154
639.22	0.154
639.42	0.153
639.62	0.153
639.82	0.153
640.02	0.153
640.22	0.153
640.42	0.153
640.62	0.153
640.82	0.152
641.02	0.152
641.22	0.152
641.42	0.152
641.61	0.152
641.81	0.152
642.01	0.152
642.21	0.152
642.41	0.152
642.61	0.151
642.81	0.151
643.01	0.151
643.21	0.151
643.41	0.151
643.61	0.150
643.81	0.150
644.01	0.148
644.21	0.148
644.41	0.148
644.61	0.148
644.81	0.148
645.01	0.148
645.21	0.148
645.41	0.148
645.61	0.148
645.81	0.147
646.01	0.146
646.21	0.147
646.40	0.146
646.60	0.146
646.80	0.147
647.00	0.146
647.20	0.145
647.40	0.145
647.60	0.145
647.80	0.145
648.00	0.145
648.20	0.144
648.40	0.144
648.60	0.144
648.80	0.144
649.00	0.144
649.20	0.145
649.39	0.144
649.59	0.144
649.79	0.144
649.99	0.144
650.19	0.143
650.39	0.143
650.59	0.143
650.79	0.143
650.99	0.142
651.19	0.141
651.39	0.141
651.58	0.141
651.78	0.141
651.98	0.141
652.18	0.140
652.38	0.140
652.58	0.141
652.78	0.140
652.98	0.140
653.18	0.140
653.38	0.140
653.57	0.140
653.77	0.140
653.97	0.140
654.17	0.140
654.37	0.139
654.57	0.139
654.77	0.138
654.97	0.138
655.16	0.138
655.36	0.137
655.56	0.137
655.76	0.136
655.96	0.136
656.16	0.135
656.36	0.135
656.56	0.135
656.75	0.135
656.95	0.135
657.15	0.135
657.35	0.135
657.55	0.134
657.75	0.135
657.95	0.134
658.14	0.134
658.34	0.134
658.54	0.134
658.74	0.134
658.94	0.133
659.14	0.133
659.34	0.133
659.53	0.132
659.73	0.133
659.93	0.132
660.13	0.132
660.33	0.132
660.53	0.131
660.72	0.132
660.92	0.132
661.12	0.131
661.32	0.131
661.52	0.130
661.72	0.130
661.91	0.130
662.11	0.130
662.31	0.129
662.51	0.129
662.71	0.129
662.90	0.128
663.10	0.128
663.30	0.128
663.50	0.128
663.70	0.127
663.90	0.128
664.09	0.127
664.29	0.127
664.49	0.126
664.69	0.127
664.89	0.127
665.08	0.127
665.28	0.126
665.48	0.126
665.68	0.126
665.88	0.126
666.07	0.126
666.27	0.125
666.47	0.125
666.67	0.125
666.87	0.125
667.06	0.125
667.26	0.125
667.46	0.124
667.66	0.124
667.85	0.124
668.05	0.124
668.25	0.124
668.45	0.124
668.65	0.124
668.84	0.124
669.04	0.124
669.24	0.123
669.44	0.123
669.63	0.122
669.83	0.122
670.03	0.121
670.23	0.121
670.42	0.120
670.62	0.120
670.82	0.119
671.02	0.119
671.22	0.119
671.41	0.118
671.61	0.119
671.81	0.119
672.01	0.119
672.20	0.119
672.40	0.119
672.60	0.118
672.80	0.118
672.99	0.118
673.19	0.118
673.39	0.118
673.58	0.118
673.78	0.117
673.98	0.117
674.18	0.116
674.37	0.116
674.57	0.116
674.77	0.116
674.97	0.116
675.16	0.116
675.36	0.115
675.56	0.115
675.75	0.115
675.95	0.115
676.15	0.115
676.35	0.115
676.54	0.115
676.74	0.115
676.94	0.115
677.13	0.114
677.33	0.114
677.53	0.114
677.73	0.114
677.92	0.113
678.12	0.113
678.32	0.113
678.51	0.113
678.71	0.113
678.91	0.112
679.11	0.112
679.30	0.112
679.50	0.112
679.70	0.111
679.89	0.111
680.09	0.112
680.29	0.111
680.48	0.111
680.68	0.111
680.88	0.111
681.07	0.111
681.27	0.110
681.47	0.110
681.66	0.110
681.86	0.110
682.06	0.110
682.25	0.110
682.45	0.110
682.65	0.110
682.84	0.109
683.04	0.109
683.24	0.108
683.43	0.109
683.63	0.109
683.83	0.109
684.02	0.109
684.22	0.108
684.42	0.108
684.61	0.108
684.81	0.108
685.01	0.108
685.20	0.107
685.40	0.107
685.60	0.107
685.79	0.106
685.99	0.107
686.19	0.106
686.38	0.106
686.58	0.106
686.77	0.106
686.97	0.106
687.17	0.106
687.36	0.105
687.56	0.105
687.76	0.105
687.95	0.105
688.15	0.104
688.34	0.104
688.54	0.104
688.74	0.103
688.93	0.103
689.13	0.103
689.33	0.103
689.52	0.102
689.72	0.103
689.91	0.102
690.11	0.102
690.31	0.102
690.50	0.102
690.70	0.103
690.89	0.102
691.09	0.102
691.29	0.102
691.48	0.101
691.68	0.101
691.87	0.101
692.07	0.102
692.27	0.101
692.46	0.101
692.66	0.101
692.85	0.100
693.05	0.100
693.25	0.100
693.44	0.100
693.64	0.100
693.83	0.100
694.03	0.099
694.22	0.099
694.42	0.099
694.62	0.099
694.81	0.099
695.01	0.099
695.20	0.099
695.40	0.098
695.59	0.098
695.79	0.098
695.99	0.098
696.18	0.098
696.38	0.098
696.57	0.098
696.77	0.098
696.96	0.098
697.16	0.098
697.36	0.097
697.55	0.097
697.75	0.097
697.94	0.097
698.14	0.097
698.33	0.096
698.53	0.097
698.72	0.096
698.92	0.096
699.11	0.096
699.31	0.096
699.51	0.096
699.70	0.096
699.90	0.096
700.09	0.096
700.29	0.096
700.48	0.096
700.68	0.095
700.87	0.096
701.07	0.095
701.26	0.095
701.46	0.095
701.65	0.095
701.85	0.095
702.04	0.095
702.24	0.095
702.43	0.095
702.63	0.094
702.82	0.094
703.02	0.094
703.21	0.093
703.41	0.093
703.60	0.093
703.80	0.093
703.99	0.093
704.19	0.093
704.38	0.092
704.58	0.092
704.77	0.092
704.97	0.092
705.16	0.092
705.36	0.092
705.55	0.092
705.75	0.092
705.94	0.092
706.14	0.092
706.33	0.092
706.53	0.092
706.72	0.092
706.92	0.092
707.11	0.092
707.31	0.092
707.50	0.092
707.70	0.092
707.89	0.091
708.09	0.091
708.28	0.091
708.48	0.091
708.67	0.091
708.86	0.091
709.06	0.091
709.25	0.091
709.45	0.091
709.64	0.090
709.84	0.090
710.03	0.090
710.23	0.090
710.42	0.090
710.62	0.090
710.81	0.089
711.00	0.089
711.20	0.089
711.39	0.089
711.59	0.089
711.78	0.089
711.98	0.089
712.17	0.090
712.37	0.089
712.56	0.090
712.75	0.090
712.95	0.090
713.14	0.090
713.34	0.090
713.53	0.090
713.73	0.090
713.92	0.090
714.11	0.090
714.31	0.090
714.50	0.090
714.70	0.090
714.89	0.089
715.08	0.089
715.28	0.089
715.47	0.089
715.67	0.089
715.86	0.089
716.06	0.089
716.25	0.089
716.44	0.088
716.64	0.088
716.83	0.088
717.03	0.088
717.22	0.087
717.41	0.087
717.61	0.087
717.80	0.088
717.99	0.088
718.19	0.087
718.38	0.088
718.58	0.087
718.77	0.087
718.96	0.087
719.16	0.087
719.35	0.087
719.55	0.086
719.74	0.086
719.93	0.086
720.13	0.086
720.32	0.086
720.51	0.085
720.71	0.086
720.90	0.086
721.10	0.085
721.29	0.085
721.48	0.085
721.68	0.086
721.87	0.085
722.06	0.086
722.26	0.086
722.45	0.086
722.64	0.086
722.84	0.086
723.03	0.086
723.22	0.087
723.42	0.087
723.61	0.087
723.80	0.087
724.00	0.087
724.19	0.086
724.38	0.086
724.58	0.086
724.77	0.086
724.96	0.086
725.16	0.086
725.35	0.086
725.54	0.086
725.74	0.086
725.93	0.086
726.12	0.086
726.32	0.086
726.51	0.086
726.70	0.086
726.90	0.087
727.09	0.086
727.28	0.086
727.48	0.086
727.67	0.086
727.86	0.086
728.06	0.086
728.25	0.086
728.44	0.086
728.64	0.086
728.83	0.086
729.02	0.085
729.21	0.086
729.41	0.086
729.60	0.086
729.79	0.086
729.99	0.086
730.18	0.086
730.37	0.086
730.56	0.086
730.76	0.086
730.95	0.086
731.14	0.086
731.34	0.086
731.53	0.086
731.72	0.086
731.91	0.086
732.11	0.086
732.30	0.086
732.49	0.086
732.69	0.086
732.88	0.087
733.07	0.087
733.26	0.087
733.46	0.086
733.65	0.086
733.84	0.086
734.03	0.086
734.23	0.086
734.42	0.086
734.61	0.086
734.80	0.086
735.00	0.086
735.19	0.086
735.38	0.086
735.57	0.086
735.77	0.087
735.96	0.086
736.15	0.086
736.34	0.087
736.54	0.087
736.73	0.087
736.92	0.087
737.11	0.087
737.31	0.087
737.50	0.087
737.69	0.087
737.88	0.087
738.07	0.087
738.27	0.087
738.46	0.087
738.65	0.086
738.84	0.086
739.04	0.086
739.23	0.086
739.42	0.086
739.61	0.086
739.80	0.086
740.00	0.086
740.19	0.086
740.38	0.086
740.57	0.086
740.76	0.085
740.96	0.085
741.15	0.085
741.34	0.085
741.53	0.085
741.72	0.085
741.92	0.085
742.11	0.085
742.30	0.086
742.49	0.086
742.68	0.086
742.88	0.086
743.07	0.086
743.26	0.086
743.45	0.086
743.64	0.085
743.84	0.085
744.03	0.085
744.22	0.086
744.41	0.085
744.60	0.085
744.79	0.085
744.99	0.085
745.18	0.084
745.37	0.084
745.56	0.084
745.75	0.084
745.94	0.084
746.14	0.083
746.33	0.083
746.52	0.084
746.71	0.083
746.90	0.083
747.09	0.084
747.28	0.084
747.48	0.084
747.67	0.084
747.86	0.084
748.05	0.084
748.24	0.084
748.43	0.084
748.62	0.083
748.82	0.084
749.01	0.084
749.20	0.083
749.39	0.083
749.58	0.083
749.77	0.083
749.96	0.083
750.16	0.083
750.35	0.083
750.54	0.082
750.73	0.082
750.92	0.082
751.11	0.082
751.30	0.082
751.49	0.082
751.68	0.082
751.88	0.082
752.07	0.082
752.26	0.082
752.45	0.082
752.64	0.081
752.83	0.082
753.02	0.082
753.21	0.082
753.40	0.081
753.60	0.082
753.79	0.082
753.98	0.082
754.17	0.082
754.36	0.081
754.55	0.081
754.74	0.082
754.93	0.082
755.12	0.082
755.31	0.082
755.50	0.082
755.70	0.081
755.89	0.081
756.08	0.081
756.27	0.081
756.46	0.082
756.65	0.082
756.84	0.081
757.03	0.081
757.22	0.081
757.41	0.081
757.60	0.081
757.79	0.081
757.98	0.081
758.17	0.082
758.36	0.082
758.56	0.081
758.75	0.081
758.94	0.081
759.13	0.081
759.32	0.081
759.51	0.081
759.70	0.081
759.89	0.081
760.08	0.081
760.27	0.080
760.46	0.080
760.65	0.080
760.84	0.080
761.03	0.080
761.22	0.080
761.41	0.080
761.60	0.080
761.79	0.079
761.98	0.079
762.17	0.079
762.36	0.079
762.55	0.079
762.74	0.079
762.93	0.079
763.12	0.079
763.31	0.079
763.50	0.079
763.69	0.079
763.88	0.079
764.07	0.079
764.26	0.079
764.45	0.079
764.64	0.079
764.83	0.079
765.02	0.079
765.21	0.080
765.40	0.080
765.59	0.080
765.78	0.080
765.97	0.080
766.16	0.080
766.35	0.080
766.54	0.080
766.73	0.080
766.92	0.080
767.11	0.079
767.30	0.079
767.49	0.079
767.68	0.080
767.87	0.079
768.06	0.079
768.25	0.079
768.44	0.079
768.63	0.078
768.82	0.078
769.01	0.078
769.20	0.078
769.39	0.078
769.58	0.078
769.77	0.078
769.96	0.078
770.15	0.078
770.34	0.078
770.53	0.078
770.72	0.078
770.91	0.078
771.10	0.078
771.29	0.078
771.47	0.077
771.66	0.077
771.85	0.077
772.04	0.077
772.23	0.077
772.42	0.077
772.61	0.077
772.80	0.078
772.99	0.077
773.18	0.077
773.37	0.077
773.56	0.077
773.75	0.077
773.94	0.077
774.13	0.077
774.31	0.077
774.50	0.077
774.69	0.077
774.88	0.076
775.07	0.077
775.26	0.077
775.45	0.077
775.64	0.077
775.83	0.076
776.02	0.076
776.21	0.076
776.40	0.077
776.58	0.076
776.77	0.077
776.96	0.077
777.15	0.077
777.34	0.077
777.53	0.077
777.72	0.077
777.91	0.077
778.10	0.077
778.28	0.077
778.47	0.077
778.66	0.077
778.85	0.077
779.04	0.077
779.23	0.077
779.42	0.076
779.61	0.076
779.79	0.076
779.98	0.076
780.17	0.076
780.36	0.076
780.55	0.076
780.74	0.076
780.93	0.075
781.12	0.075
781.30	0.075
781.49	0.075
781.68	0.075
781.87	0.075
782.06	0.075
782.25	0.075
782.44	0.075
782.62	0.075
782.81	0.075
783.00	0.075
783.19	0.075
783.38	0.075
783.57	0.075
783.75	0.074
783.94	0.075
784.13	0.074
784.32	0.074
784.51	0.074
784.70	0.074
784.88	0.074
785.07	0.074
785.26	0.074
785.45	0.074
785.64	0.074
785.83	0.075
786.01	0.074
786.20	0.075
786.39	0.075
786.58	0.075
786.77	0.074
786.95	0.074
787.14	0.074
787.33	0.074
787.52	0.074
787.71	0.074
787.90	0.074
788.08	0.074
788.27	0.074
788.46	0.073
788.65	0.073
788.84	0.073
789.02	0.073
789.21	0.074
789.40	0.074
789.59	0.073
789.77	0.073
789.96	0.073
790.15	0.074
790.34	0.074
790.53	0.074
790.71	0.074
790.90	0.073
791.09	0.073
791.28	0.073
791.46	0.073
791.65	0.073
791.84	0.073
792.03	0.073
792.22	0.073
792.40	0.073
792.59	0.073
792.78	0.073
792.97	0.073
793.15	0.073
793.34	0.073
793.53	0.073
793.72	0.073
793.90	0.073
794.09	0.073
794.28	0.073
794.47	0.073
794.65	0.073
794.84	0.073
795.03	0.073
795.22	0.073
795.40	0.073
795.59	0.072
795.78	0.072
795.97	0.072
796.15	0.072
796.34	0.072
796.53	0.072
796.71	0.073
796.90	0.072
797.09	0.073
797.28	0.072
797.46	0.072
797.65	0.073
797.84	0.073
798.02	0.072
798.21	0.072
798.40	0.072
798.59	0.072
798.77	0.072
798.96	0.071
799.15	0.071
799.33	0.071
799.52	0.071
799.71	0.071
799.90	0.072
800.08	0.071
800.27	0.071
800.46	0.071
800.64	0.071
800.83	0.071
801.02	0.071
801.20	0.071
801.39	0.072
801.58	0.071
801.76	0.071
801.95	0.071
802.14	0.071
802.32	0.071
802.51	0.071
802.70	0.071
802.88	0.071
803.07	0.071
803.26	0.071
803.44	0.071
803.63	0.071
803.82	0.071
804.00	0.071
804.19	0.071
804.38	0.071
804.56	0.071
804.75	0.071
804.94	0.071
805.12	0.071
805.31	0.071
805.50	0.071
805.68	0.071
805.87	0.071
806.06	0.071
806.24	0.071
806.43	0.071
806.62	0.071
806.80	0.071
806.99	0.071
807.17	0.071
807.36	0.071
807.55	0.071
807.73	0.071
807.92	0.071
808.11	0.071
808.29	0.070
808.48	0.070
808.66	0.070
808.85	0.070
809.04	0.070
809.22	0.070
809.41	0.070
809.59	0.070
809.78	0.070
809.97	0.070
810.15	0.070
810.34	0.070
810.53	0.070
810.71	0.070
810.90	0.070
811.08	0.070
811.27	0.070
811.45	0.070
811.64	0.070
811.83	0.070
812.01	0.070
812.20	0.070
812.38	0.070
812.57	0.070
812.76	0.070
812.94	0.069
813.13	0.069
813.31	0.070
813.50	0.070
813.68	0.069
813.87	0.069
814.06	0.069
814.24	0.069
814.43	0.069
814.61	0.070
814.80	0.070
814.98	0.070
815.17	0.069
815.36	0.070
815.54	0.070
815.73	0.070
815.91	0.070
816.10	0.070
816.28	0.070
816.47	0.070
816.65	0.070
816.84	0.070
817.03	0.071
817.21	0.071
817.40	0.071
817.58	0.071
817.77	0.071
817.95	0.071
818.14	0.071
818.32	0.071
818.51	0.071
818.69	0.070
818.88	0.070
819.06	0.070
819.25	0.070
819.43	0.070
819.62	0.070
819.80	0.070
819.99	0.070
820.18	0.070
820.36	0.070
820.55	0.070
820.73	0.070
820.92	0.070
821.10	0.071
821.29	0.071
821.47	0.071
821.66	0.071
821.84	0.071
822.03	0.071
822.21	0.071
822.40	0.071
822.58	0.071
822.77	0.071
822.95	0.072
823.14	0.072
823.32	0.072
823.50	0.072
823.69	0.071
823.87	0.071
824.06	0.072
824.24	0.072
824.43	0.072
824.61	0.072
824.80	0.072
824.98	0.072
825.17	0.072
825.35	0.072
825.54	0.072
825.72	0.072
825.91	0.072
826.09	0.072
826.28	0.071
826.46	0.072
826.64	0.072
826.83	0.072
827.01	0.072
827.20	0.072
827.38	0.072
827.57	0.072
827.75	0.072
827.94	0.072
828.12	0.073
828.31	0.073
828.49	0.073
828.67	0.073
828.86	0.073
829.04	0.074
829.23	0.074
829.41	0.074
829.60	0.074
829.78	0.075
829.96	0.075
830.15	0.075
830.33	0.075
830.52	0.075
830.70	0.075
830.88	0.075
831.07	0.075
831.25	0.075
831.44	0.075
831.62	0.075
831.81	0.075
831.99	0.075
832.17	0.075
832.36	0.076
832.54	0.076
832.73	0.076
832.91	0.075
833.09	0.076
833.28	0.076
833.46	0.076
833.65	0.076
833.83	0.076
834.01	0.076
834.20	0.076
834.38	0.076
834.56	0.076
834.75	0.076
834.93	0.076
835.12	0.076
835.30	0.076
835.48	0.077
835.67	0.076
835.85	0.076
836.03	0.076
836.22	0.076
836.40	0.076
836.59	0.076
836.77	0.076
836.95	0.077
837.14	0.077
837.32	0.076
837.50	0.076
837.69	0.076
837.87	0.077
838.05	0.077
838.24	0.077
838.42	0.077
838.60	0.077
838.79	0.077
838.97	0.077
839.15	0.077
839.34	0.077
839.52	0.078
839.70	0.078
839.89	0.078
840.07	0.078
840.25	0.078
840.44	0.078
840.62	0.078
840.80	0.077
840.99	0.078
841.17	0.078
841.35	0.077
841.54	0.077
841.72	0.077
841.90	0.077
842.09	0.077
842.27	0.078
842.45	0.078
842.64	0.078
842.82	0.078
843.00	0.078
843.19	0.078
843.37	0.078
843.55	0.078
843.73	0.078
843.92	0.078
844.10	0.078
844.28	0.078
844.47	0.078
844.65	0.077
844.83	0.078
845.01	0.078
845.20	0.078
845.38	0.078
845.56	0.078
845.75	0.078
845.93	0.078
846.11	0.078
846.29	0.078
846.48	0.078
846.66	0.078
846.84	0.078
847.02	0.078
847.21	0.078
847.39	0.078
847.57	0.078
847.76	0.078
847.94	0.077
848.12	0.078
848.30	0.078
848.49	0.078
848.67	0.078
848.85	0.078
849.03	0.079
849.22	0.079
849.40	0.079
849.58	0.079
849.76	0.080
849.95	0.080
850.13	0.080
850.31	0.079
850.49	0.079
850.67	0.079
850.86	0.079
851.04	0.079
851.22	0.079
851.40	0.078
851.59	0.079
851.77	0.079
851.95	0.079
852.13	0.079
852.31	0.079
852.50	0.079
852.68	0.079
852.86	0.079
853.04	0.079
853.23	0.079
853.41	0.079
853.59	0.079
853.77	0.079
853.95	0.080
854.14	0.079
854.32	0.079
854.50	0.079
854.68	0.079
854.86	0.079
855.04	0.079
855.23	0.079
855.41	0.079
855.59	0.079
855.77	0.079
855.95	0.079
856.14	0.079
856.32	0.079
856.50	0.079
856.68	0.079
856.86	0.080
857.04	0.079
857.23	0.079
857.41	0.079
857.59	0.079
857.77	0.079
857.95	0.079
858.13	0.079
858.32	0.079
858.50	0.079
858.68	0.078
858.86	0.078
859.04	0.079
859.22	0.079
859.41	0.079
859.59	0.079
859.77	0.079
859.95	0.079
860.13	0.079
860.31	0.079
860.49	0.079
860.68	0.080
860.86	0.080
861.04	0.080
861.22	0.079
861.40	0.079
861.58	0.079
861.76	0.079
861.94	0.080
862.13	0.080
862.31	0.079
862.49	0.079
862.67	0.079
862.85	0.079
863.03	0.080
863.21	0.080
863.39	0.080
863.57	0.080
863.76	0.080
863.94	0.080
864.12	0.080
864.30	0.080
864.48	0.080
864.66	0.080
864.84	0.081
865.02	0.081
865.20	0.081
865.38	0.081
865.57	0.080
865.75	0.081
865.93	0.081
866.11	0.081
866.29	0.081
866.47	0.082
866.65	0.082
866.83	0.081
867.01	0.081
867.19	0.081
867.37	0.081
867.55	0.081
867.73	0.081
867.92	0.081
868.10	0.081
868.28	0.080
868.46	0.080
868.64	0.080
868.82	0.080
869.00	0.081
869.18	0.081
869.36	0.081
869.54	0.081
869.72	0.081
869.90	0.081
870.08	0.081
870.26	0.081
870.44	0.081
870.62	0.081
870.80	0.081
870.98	0.081
871.16	0.081
871.34	0.081
871.53	0.081
871.71	0.081
871.89	0.081
872.07	0.081
872.25	0.081
872.43	0.081
872.61	0.081
872.79	0.081
872.97	0.082
873.15	0.082
873.33	0.082
873.51	0.082
873.69	0.082
873.87	0.082
874.05	0.083
874.23	0.083
874.41	0.083
874.59	0.083
874.77	0.083
874.95	0.083
875.13	0.083
875.31	0.083
875.49	0.083
875.67	0.082
875.85	0.082
876.03	0.082
876.21	0.083
876.39	0.083
876.57	0.083
876.75	0.083
876.93	0.083
877.11	0.083
877.29	0.083
877.47	0.083
877.65	0.083
877.82	0.083
878.00	0.083
878.18	0.083
878.36	0.083
878.54	0.083
878.72	0.083
878.90	0.083
879.08	0.083
879.26	0.083
879.44	0.083
879.62	0.083
879.80	0.083
879.98	0.083
880.16	0.083
880.34	0.082
880.52	0.083
880.70	0.082
880.88	0.082
881.06	0.083
881.24	0.082
881.42	0.083
881.59	0.083
881.77	0.083
881.95	0.083
882.13	0.083
882.31	0.083
882.49	0.083
882.67	0.084
882.85	0.084
883.03	0.084
883.21	0.084
883.39	0.084
883.57	0.084
883.75	0.084
883.92	0.084
884.10	0.084
884.28	0.084
884.46	0.085
884.64	0.085
884.82	0.085
885.00	0.084
885.18	0.085
885.36	0.085
885.54	0.085
885.71	0.085
885.89	0.085
886.07	0.085
886.25	0.085
886.43	0.085
886.61	0.085
886.79	0.085
886.97	0.085
887.15	0.085
887.32	0.085
887.50	0.085
887.68	0.085
887.86	0.085
888.04	0.085
888.22	0.085
888.40	0.085
888.57	0.085
888.75	0.085
888.93	0.086
889.11	0.085
889.29	0.086
889.47	0.086
889.65	0.086
889.82	0.086
890.00	0.087
890.18	0.086
890.36	0.086
890.54	0.086
890.72	0.087
890.90	0.087
891.07	0.086
891.25	0.086
891.43	0.086
891.61	0.086
891.79	0.086
891.97	0.086
892.14	0.086
892.32	0.086
892.50	0.086
892.68	0.086
892.86	0.086
893.03	0.086
893.21	0.087
893.39	0.087
893.57	0.087
893.75	0.087
893.93	0.087
894.10	0.087
894.28	0.087
894.46	0.087
894.64	0.087
894.82	0.087
894.99	0.087
895.17	0.087
895.35	0.087
895.53	0.087
895.71	0.086
895.88	0.087
896.06	0.087
896.24	0.087
896.42	0.087
896.59	0.087
896.77	0.087
896.95	0.087
897.13	0.087
897.31	0.088
897.48	0.087
897.66	0.088
897.84	0.087
898.02	0.088
898.19	0.088
898.37	0.088
898.55	0.088
898.73	0.088
898.91	0.088
899.08	0.088
899.26	0.088
899.44	0.088
899.62	0.088
899.79	0.089
899.97	0.088
900.15	0.088
900.33	0.088
900.50	0.088
900.68	0.088
900.86	0.088
901.04	0.089
901.21	0.089
901.39	0.089
901.57	0.089
901.74	0.088
901.92	0.089
902.10	0.089
902.28	0.089
902.45	0.089
902.63	0.089
902.81	0.089
902.99	0.090
903.16	0.089
903.34	0.089
903.52	0.089
903.69	0.089
903.87	0.089
904.05	0.090
904.22	0.090
904.40	0.090
904.58	0.090
904.76	0.090
904.93	0.090
905.11	0.090
905.29	0.090
905.46	0.090
905.64	0.090
905.82	0.090
905.99	0.090
906.17	0.090
906.35	0.090
906.53	0.090
906.70	0.090
906.88	0.090
907.06	0.090
907.23	0.090
907.41	0.090
907.59	0.090
907.76	0.091
907.94	0.091
908.12	0.091
908.29	0.091
908.47	0.091
908.65	0.091
908.82	0.091
909.00	0.091
909.18	0.092
909.35	0.092
909.53	0.092
909.71	0.092
909.88	0.092
910.06	0.092
910.23	0.092
910.41	0.092
910.59	0.092
910.76	0.092
910.94	0.092
911.12	0.091
911.29	0.092
911.47	0.092
911.65	0.092
911.82	0.092
912.00	0.092
912.17	0.092
912.35	0.093
912.53	0.093
912.70	0.093
912.88	0.093
913.06	0.094
913.23	0.094
913.41	0.093
913.58	0.094
913.76	0.094
913.94	0.093
914.11	0.094
914.29	0.094
914.46	0.094
914.64	0.094
914.82	0.094
914.99	0.094
915.17	0.094
915.34	0.095
915.52	0.095
915.70	0.095
915.87	0.095
916.05	0.095
916.22	0.095
916.40	0.096
916.57	0.096
916.75	0.096
916.93	0.096
917.10	0.096
917.28	0.097
917.45	0.096
917.63	0.096
917.80	0.096
917.98	0.096
918.16	0.096
918.33	0.097
918.51	0.096
918.68	0.096
918.86	0.097
919.03	0.097
919.21	0.097
919.39	0.097
919.56	0.098
919.74	0.098
919.91	0.098
920.09	0.098
920.26	0.098
920.44	0.098
920.61	0.098
920.79	0.099
920.96	0.098
921.14	0.099
921.31	0.099
921.49	0.099
921.67	0.099
921.84	0.100
922.02	0.100
922.19	0.101
922.37	0.100
922.54	0.101
922.72	0.101
922.89	0.102
923.07	0.102
923.24	0.102
923.42	0.102
923.59	0.102
923.77	0.102
923.94	0.103
924.12	0.103
924.29	0.104
924.47	0.104
924.64	0.105
924.82	0.105
924.99	0.105
925.17	0.106
925.34	0.106
925.52	0.106
925.69	0.107
925.87	0.107
926.04	0.107
926.22	0.107
926.39	0.107
926.57	0.107
926.74	0.107
926.91	0.108
927.09	0.108
927.26	0.108
927.44	0.109
927.61	0.109
927.79	0.109
927.96	0.110
928.14	0.110
928.31	0.111
928.49	0.110
928.66	0.111
928.84	0.112
929.01	0.112
929.18	0.112
929.36	0.113
929.53	0.113
929.71	0.114
929.88	0.114
930.06	0.115
930.23	0.115
930.41	0.115
930.58	0.116
930.75	0.117
930.93	0.117
931.10	0.117
931.28	0.118
931.45	0.118
931.63	0.118
931.80	0.118
931.97	0.119
932.15	0.119
932.32	0.120
932.50	0.120
932.67	0.120
932.84	0.121
933.02	0.122
933.19	0.122
933.37	0.123
933.54	0.123
933.71	0.124
933.89	0.125
934.06	0.125
934.24	0.126
934.41	0.126
934.58	0.127
934.76	0.127
934.93	0.128
935.11	0.128
935.28	0.128
935.45	0.128
935.63	0.129
935.80	0.129
935.98	0.130
936.15	0.130
936.32	0.131
936.50	0.131
936.67	0.131
936.84	0.131
937.02	0.132
937.19	0.133
937.36	0.133
937.54	0.134
937.71	0.135
937.89	0.135
938.06	0.135
938.23	0.136
938.41	0.137
938.58	0.137
938.75	0.138
938.93	0.139
939.10	0.139
939.27	0.140
939.45	0.141
939.62	0.141
939.79	0.142
939.97	0.142
940.14	0.143
940.31	0.143
940.49	0.144
940.66	0.144
940.83	0.145
941.01	0.145
941.18	0.146
941.35	0.146
941.53	0.147
941.70	0.148
941.87	0.148
942.05	0.149
942.22	0.150
942.39	0.151
942.57	0.151
942.74	0.152
942.91	0.152
943.08	0.153
943.26	0.153
943.43	0.154
943.60	0.155
943.78	0.156
943.95	0.156
944.12	0.156
944.29	0.157
944.47	0.157
944.64	0.158
944.81	0.160
944.99	0.160
945.16	0.160
945.33	0.161
945.50	0.162
945.68	0.162
945.85	0.163
946.02	0.165
946.20	0.166
946.37	0.167
946.54	0.168
946.71	0.169
946.89	0.169
947.06	0.170
947.23	0.171
947.40	0.172
947.58	0.172
947.75	0.174
947.92	0.174
948.09	0.174
948.27	0.176
948.44	0.177
948.61	0.178
948.78	0.179
948.96	0.180
949.13	0.181
949.30	0.182
949.47	0.183
949.65	0.184
949.82	0.186
949.99	0.187
950.16	0.188
950.33	0.189
950.51	0.191
950.68	0.192
950.85	0.193
951.02	0.195
951.20	0.195
951.37	0.197
951.54	0.197
951.71	0.198
951.88	0.199
952.06	0.200
952.23	0.201
952.40	0.202
952.57	0.203
952.74	0.205
952.92	0.205
953.09	0.207
953.26	0.208
953.43	0.209
953.60	0.210
953.77	0.211
953.95	0.212
954.12	0.214
954.29	0.215
954.46	0.218
954.63	0.219
954.81	0.220
954.98	0.221
955.15	0.223
955.32	0.224
955.49	0.224
955.66	0.225
955.84	0.227
956.01	0.227
956.18	0.230
956.35	0.231
956.52	0.231
956.69	0.233
956.87	0.233
957.04	0.234
957.21	0.237
957.38	0.237
957.55	0.239
957.72	0.240
957.89	0.241
958.07	0.240
958.24	0.243
958.41	0.244
958.58	0.244
958.75	0.244
958.92	0.245
959.09	0.245
959.26	0.246
959.44	0.246
959.61	0.247
959.78	0.248
959.95	0.249
960.12	0.249
960.29	0.251
960.46	0.251
960.63	0.251
960.81	0.251
960.98	0.252
961.15	0.253
961.32	0.254
961.49	0.253
961.66	0.255
961.83	0.255
962.00	0.255
962.17	0.256
962.34	0.255
962.52	0.256
962.69	0.257
962.86	0.257
963.03	0.258
963.20	0.258
963.37	0.257
963.54	0.258
963.71	0.258
963.88	0.258
964.05	0.259
964.22	0.261
964.39	0.259
964.56	0.260
964.74	0.261
964.91	0.260
965.08	0.261
965.25	0.261
965.42	0.262
965.59	0.263
965.76	0.262
965.93	0.264
966.10	0.262
966.27	0.263
966.44	0.262
966.61	0.263
966.78	0.263
966.95	0.262
967.12	0.264
967.29	0.266
967.46	0.265
967.63	0.264
967.80	0.265
967.97	0.265
968.14	0.264
968.32	0.266
968.49	0.266
968.66	0.265
968.83	0.265
969.00	0.265
969.17	0.265
969.34	0.266
969.51	0.267
969.68	0.266
969.85	0.267
970.02	0.268
970.19	0.267
970.36	0.268
970.53	0.267
970.70	0.266
970.87	0.266
971.04	0.266
971.21	0.266
971.38	0.266
971.55	0.267
971.72	0.266
971.89	0.267
972.06	0.266
972.23	0.266
972.40	0.266
972.57	0.265
972.74	0.266
972.91	0.267
973.07	0.267
973.24	0.267
973.41	0.266
973.58	0.265
973.75	0.278
973.92	0.265
974.09	0.266
974.26	0.265
974.43	0.264
974.60	0.265
974.77	0.265
974.94	0.264
975.11	0.265
975.28	0.266
975.45	0.264
975.62	0.265
975.79	0.267
975.96	0.264
976.13	0.263
976.30	0.265
976.47	0.264
976.64	0.264
976.80	0.265
976.97	0.264
977.14	0.264
977.31	0.264
977.48	0.265
977.65	0.265
977.82	0.264
977.99	0.266
978.16	0.265
978.33	0.265
978.50	0.264
978.67	0.264
978.83	0.264
979.00	0.265
979.17	0.264
979.34	0.263
979.51	0.263
979.68	0.264
979.85	0.263
980.02	0.264
980.19	0.262
980.36	0.263
980.52	0.264
980.69	0.262
980.86	0.262
981.03	0.262
981.20	0.260
981.37	0.261
981.54	0.262
981.71	0.261
981.88	0.261
982.04	0.260
982.21	0.260
982.38	0.261
982.55	0.260
982.72	0.259
982.89	0.260
983.06	0.258
983.22	0.258
983.39	0.258
983.56	0.257
983.73	0.256
983.90	0.255
984.07	0.257
984.24	0.256
984.40	0.256
984.57	0.254
984.74	0.257
984.91	0.258
985.08	0.256
985.25	0.254
985.41	0.255
985.58	0.255
985.75	0.256
985.92	0.255
986.09	0.253
986.26	0.253
986.42	0.252
986.59	0.251
986.76	0.253
986.93	0.252
987.10	0.253
987.27	0.250
987.43	0.249
987.60	0.250
987.77	0.250
987.94	0.249
988.11	0.250
988.27	0.250
988.44	0.250
988.61	0.248
988.78	0.246
988.95	0.247
989.11	0.248
989.28	0.246
989.45	0.246
989.62	0.245
989.79	0.245
989.95	0.245
990.12	0.246
990.29	0.246
990.46	0.244
990.62	0.243
990.79	0.244
990.96	0.244
991.13	0.244
991.30	0.243
991.46	0.243
991.63	0.241
991.80	0.240
991.97	0.240
992.13	0.241
992.30	0.241
992.47	0.240
992.64	0.239
992.80	0.240
992.97	0.241
993.14	0.238
993.31	0.235
993.47	0.239
993.64	0.237
993.81	0.236
993.98	0.236
994.14	0.235
994.31	0.235
994.48	0.236
994.64	0.236
994.81	0.234
994.98	0.235
995.15	0.232
995.31	0.232
995.48	0.231
995.65	0.233
995.82	0.230
995.98	0.229
996.15	0.230
996.32	0.232
996.48	0.230
996.65	0.231
996.82	0.229
996.99	0.230
997.15	0.229
997.32	0.230
997.49	0.228
997.65	0.230
997.82	0.230
997.99	0.228
998.15	0.228
998.32	0.229
998.49	0.227
998.65	0.227
998.82	0.226
998.99	0.224
999.15	0.224
999.32	0.224
999.49	0.223
999.65	0.224
999.82	0.221
999.99	0.222
1000.15	0.222
1000.32	0.222
1000.49	0.222
1000.65	0.220
1000.82	0.220
1000.99	0.220
1001.15	0.221
1001.32	0.219
1001.49	0.220
1001.65	0.219
1001.82	0.221
1001.99	0.217
1002.15	0.217
1002.32	0.216
1002.49	0.217
1002.65	0.216
1002.82	0.214
1002.99	0.213
1003.15	0.216
1003.32	0.214
1003.48	0.215
1003.65	0.214
1003.82	0.213
1003.98	0.211
1004.15	0.211
1004.32	0.211
1004.48	0.211
1004.65	0.213
1004.81	0.210
1004.98	0.209
1005.15	0.209
1005.31	0.209
1005.48	0.208
1005.64	0.208
1005.81	0.211
1005.98	0.207
1006.14	0.207
1006.31	0.207
1006.47	0.205
1006.64	0.204
1006.81	0.203
1006.97	0.203
1007.14	0.202
1007.30	0.202
1007.47	0.203
1007.63	0.200
1007.80	0.198
1007.97	0.198
1008.13	0.198
1008.30	0.198
1008.46	0.199
1008.63	0.197
1008.79	0.198
1008.96	0.199
1009.13	0.200
1009.29	0.197
1009.46	0.198
1009.62	0.198
1009.79	0.196
1009.95	0.196
1010.12	0.197
1010.28	0.196
1010.45	0.195
1010.62	0.195
1010.78	0.193
1010.95	0.192
1011.11	0.193
1011.28	0.192
1011.44	0.193
1011.61	0.192
1011.77	0.190
1011.94	0.190
1012.10	0.191
1012.27	0.191
1012.43	0.190
1012.60	0.189
1012.76	0.189
1012.93	0.188
1013.10	0.186
1013.26	0.184
1013.43	0.186
1013.59	0.194
1013.76	0.186
1013.92	0.184
1014.09	0.183
1014.25	0.184
1014.42	0.185
1014.58	0.184
1014.75	0.186
1014.91	0.185
1015.08	0.188
1015.24	0.184
1015.41	0.186
1015.57	0.185
1015.73	0.184
1015.90	0.182
1016.06	0.184
1016.23	0.182
1016.39	0.182
1016.56	0.182
1016.72	0.181
1016.89	0.180
1017.05	0.182
1017.22	0.179
1017.38	0.179
1017.55	0.178
1017.71	0.179
1017.88	0.179
1018.04	0.181
1018.21	0.177
1018.37	0.177
1018.53	0.177
1018.70	0.177
1018.86	0.176
1019.03	0.178
1019.19	0.176
1019.36	0.176
1019.52	0.177
1019.69	0.177
1019.85	0.175
1020.01	0.176
1020.18	0.175
1020.34	0.175
1020.51	0.173
1020.67	0.175
1020.84	0.173
1021.00	0.174
1021.16	0.171
1021.33	0.172
1021.49	0.170
1021.66	0.171
1021.82	0.169
1021.98	0.169
1022.15	0.168
1022.31	0.168
1022.48	0.167
1022.64	0.169
1022.80	0.167
1022.97	0.166
1023.13	0.165
1023.30	0.166
1023.46	0.167
1023.62	0.164
1023.79	0.166
1023.95	0.167
1024.12	0.165
1024.28	0.164
1024.44	0.164
1024.61	0.163
1024.77	0.163
1024.93	0.162
1025.10	0.164
1025.26	0.161
1025.43	0.163
1025.59	0.157
1025.75	0.161
1025.92	0.160
1026.08	0.159
1026.24	0.158
1026.41	0.160
1026.57	0.157
1026.73	0.155
1026.90	0.157
1027.06	0.155
1027.23	0.156
1027.39	0.156
1027.55	0.157
1027.72	0.157
1027.88	0.157
1028.04	0.158
1028.21	0.158
1028.37	0.153
1028.53	0.157
1028.70	0.156
1028.86	0.154
1029.02	0.154
1029.19	0.156
1029.35	0.153
1029.51	0.152
1029.67	0.151
1029.84	0.153
1030.00	0.147
1030.16	0.148
1030.33	0.150
1030.49	0.147
1030.65	0.145
1030.82	0.160
1030.98	0.147
1031.14	0.147
1031.31	0.147
1031.47	0.144
1031.63	0.147
1031.79	0.146
1031.96	0.147
1032.12	0.149
1032.28	0.147
1032.45	0.152
1032.61	0.149
1032.77	0.148
1032.93	0.146
1033.10	0.148
1033.26	0.150
1033.42	0.148
1033.58	0.149
1033.75	0.150
1033.91	0.148
1034.07	0.150
1034.24	0.147
1034.40	0.147
1034.56	0.147
1034.72	0.147
1034.89	0.148
1035.05	0.144
1035.21	0.144
1035.37	0.142
1035.54	0.145
1035.70	0.142
1035.86	0.142
1036.02	0.144
1036.19	0.141
1036.35	0.140
1036.51	0.144
1036.67	0.142
1036.83	0.142
1037.00	0.140
1037.16	0.140
1037.32	0.141
1037.48	0.141
1037.65	0.145
1037.81	0.141
1037.97	0.141
1038.13	0.141
1038.29	0.140
1038.46	0.135
1038.62	0.140
1038.78	0.137
1038.94	0.134
1039.10	0.138
1039.27	0.134
1039.43	0.136
1039.59	0.135
1039.75	0.134
1039.91	0.132
1040.08	0.132
1040.24	0.136
1040.40	0.138
1040.56	0.136
1040.72	0.131
1040.89	0.135
1041.05	0.137
1041.21	0.136
1041.37	0.134
1041.53	0.141
1041.69	0.138
1041.86	0.136
1042.02	0.132
1042.18	0.131
1042.34	0.133
1042.50	0.137
1042.66	0.132
1042.83	0.131
1042.99	0.134
1043.15	0.129
1043.31	0.129
1043.47	0.132
1043.63	0.130
1043.79	0.131
1043.96	0.132
1044.12	0.135
1044.28	0.131
1044.44	0.133
1044.60	0.128
1044.76	0.126
1044.92	0.129
1045.09	0.132
1045.25	0.130
1045.41	0.130
1045.57	0.126
1045.73	0.126
1045.89	0.127
1046.05	0.128
1046.21	0.134
1046.38	0.125
1046.54	0.128
1046.70	0.131
1046.86	0.115
>>>>>End Processed Spectral Data<<<<<
