SpectraSuite Data File
++++++++++++++++++++++++++++++++++++
Date: Mon May 20 12:12:58 CDT 2013
User: Students
Dark Spectrum Present: Yes
Reference Spectrum Present: Yes
Number of Sampled Component Spectra: 1
Spectrometers: USB4H00887
Integration Time (usec): 60000 (USB4H00887)
Spectra Averaged: 5 (USB4H00887)
Boxcar Smoothing: 5 (USB4H00887)
Correct for Electrical Dark: No (USB4H00887)
Strobe/Lamp Enabled: No (USB4H00887)
Correct for Detector Non-linearity: No (USB4H00887)
Correct for Stray Light: No (USB4H00887)
Number of Pixels in Processed Spectrum: 3648
>>>>>Begin Processed Spectral Data<<<<<
345.83	0.069
346.05	0.069
346.26	0.069
346.48	-0.000
346.70	-0.000
346.92	-0.069
347.14	-0.015
347.35	0.003
347.57	-0.010
347.79	0.015
348.01	-0.076
348.23	-0.144
348.44	-0.000
348.66	0.091
348.88	-0.239
349.10	-0.041
349.32	0.013
349.53	0.037
349.75	0.120
349.97	0.060
350.19	0.059
350.41	0.052
350.62	-0.122
350.84	0.002
351.06	-0.001
351.28	-0.033
351.50	-0.183
351.71	-0.085
351.93	-0.148
352.15	-0.033
352.37	-0.133
352.58	-0.026
352.80	-0.004
353.02	0.012
353.24	0.043
353.46	0.208
353.67	-0.073
353.89	0.027
354.11	0.001
354.33	0.038
354.54	0.058
354.76	0.103
354.98	0.152
355.20	0.131
355.41	0.072
355.63	0.140
355.85	0.063
356.07	0.879
356.28	0.069
356.50	0.158
356.72	0.046
356.94	0.125
357.15	0.150
357.37	-0.000
357.59	0.085
357.81	0.031
358.02	0.062
358.24	0.052
358.46	0.112
358.68	0.081
358.89	0.049
359.11	-0.000
359.33	0.052
359.55	-0.491
359.76	0.098
359.98	0.111
360.20	0.131
360.42	0.102
360.63	0.126
360.85	0.095
361.07	0.545
361.29	0.080
361.50	0.225
361.72	0.099
361.94	0.369
362.15	0.168
362.37	0.093
362.59	0.096
362.81	0.165
363.02	0.278
363.24	0.419
363.46	0.228
363.68	0.288
363.89	0.186
364.11	0.232
364.33	0.301
364.54	0.158
364.76	0.197
364.98	0.216
365.20	0.241
365.41	0.133
365.63	0.168
365.85	0.129
366.06	0.444
366.28	0.464
366.50	0.291
366.71	0.103
366.93	0.118
367.15	0.125
367.37	0.119
367.58	0.175
367.80	0.211
368.02	0.564
368.23	0.165
368.45	0.160
368.67	0.143
368.88	0.144
369.10	-0.000
369.32	0.183
369.53	0.100
369.75	0.158
369.97	0.305
370.19	0.153
370.40	0.068
370.62	0.172
370.84	0.077
371.05	0.423
371.27	0.093
371.49	0.102
371.70	0.150
371.92	0.213
372.14	0.095
372.35	0.110
372.57	0.126
372.79	0.339
373.00	0.085
373.22	0.132
373.44	0.115
373.65	0.123
373.87	0.198
374.09	1.040
374.30	0.150
374.52	0.151
374.74	0.114
374.95	0.547
375.17	0.151
375.39	-0.000
375.60	0.174
375.82	0.294
376.04	0.110
376.25	0.126
376.47	0.071
376.68	0.154
376.90	0.100
377.12	0.226
377.33	0.146
377.55	0.346
377.77	0.157
377.98	0.249
378.20	0.153
378.42	0.190
378.63	0.246
378.85	-0.000
379.07	0.187
379.28	0.969
379.50	0.398
379.71	0.200
379.93	0.133
380.15	0.180
380.36	0.279
380.58	0.194
380.80	0.563
381.01	0.146
381.23	0.128
381.44	0.124
381.66	0.150
381.88	0.196
382.09	-0.082
382.31	0.132
382.53	0.144
382.74	0.755
382.96	0.188
383.17	0.156
383.39	0.223
383.61	0.290
383.82	0.210
384.04	0.250
384.25	0.294
384.47	0.300
384.69	0.269
384.90	0.255
385.12	0.577
385.33	0.344
385.55	0.241
385.77	0.358
385.98	0.177
386.20	0.237
386.41	0.204
386.63	0.219
386.85	0.159
387.06	0.217
387.28	0.298
387.49	0.203
387.71	0.148
387.93	0.146
388.14	0.433
388.36	0.191
388.57	0.175
388.79	0.192
389.01	1.372
389.22	0.289
389.44	0.233
389.65	0.206
389.87	0.207
390.08	0.258
390.30	0.207
390.52	0.397
390.73	0.380
390.95	0.262
391.16	0.260
391.38	-0.000
391.59	0.297
391.81	0.255
392.03	0.224
392.24	0.250
392.46	0.196
392.67	0.165
392.89	0.235
393.10	0.375
393.32	0.278
393.53	0.304
393.75	0.195
393.97	0.212
394.18	0.291
394.40	0.271
394.61	0.307
394.83	0.277
395.04	0.326
395.26	0.205
395.47	0.313
395.69	0.244
395.91	0.279
396.12	0.339
396.34	0.344
396.55	0.215
396.77	0.305
396.98	1.103
397.20	0.351
397.41	0.402
397.63	0.302
397.84	0.269
398.06	0.258
398.27	0.253
398.49	0.301
398.71	0.221
398.92	0.265
399.14	0.342
399.35	0.427
399.57	0.399
399.78	0.272
400.00	0.271
400.21	0.333
400.43	0.268
400.64	0.277
400.86	0.581
401.07	0.330
401.29	0.275
401.50	0.292
401.72	0.425
401.93	0.281
402.15	0.341
402.36	0.304
402.58	0.249
402.79	0.283
403.01	0.485
403.22	0.381
403.44	0.262
403.65	0.444
403.87	0.488
404.08	0.377
404.30	0.634
404.51	0.329
404.73	0.391
404.94	0.344
405.16	0.355
405.37	0.275
405.59	0.509
405.80	0.318
406.02	0.394
406.23	0.392
406.45	0.440
406.66	0.463
406.88	0.306
407.09	0.478
407.31	0.376
407.52	0.455
407.74	0.374
407.95	0.429
408.17	0.403
408.38	0.418
408.60	0.282
408.81	0.466
409.03	0.355
409.24	0.364
409.45	0.427
409.67	0.416
409.88	0.369
410.10	0.466
410.31	0.388
410.53	0.353
410.74	0.503
410.96	0.492
411.17	0.514
411.39	0.380
411.60	0.348
411.82	0.387
412.03	0.363
412.24	0.350
412.46	0.504
412.67	0.431
412.89	0.433
413.10	0.407
413.32	0.366
413.53	0.424
413.75	0.438
413.96	0.339
414.17	0.461
414.39	0.478
414.60	0.399
414.82	0.518
415.03	0.393
415.25	0.444
415.46	0.322
415.68	0.454
415.89	0.776
416.10	0.648
416.32	0.361
416.53	0.426
416.75	0.414
416.96	0.507
417.18	0.432
417.39	0.420
417.60	0.405
417.82	0.581
418.03	0.518
418.25	0.444
418.46	0.459
418.67	0.423
418.89	0.448
419.10	0.456
419.32	0.587
419.53	0.533
419.75	0.454
419.96	0.410
420.17	0.490
420.39	0.468
420.60	0.488
420.82	0.600
421.03	0.476
421.24	0.399
421.46	0.443
421.67	0.484
421.89	0.430
422.10	0.455
422.31	0.450
422.53	0.648
422.74	0.475
422.96	0.375
423.17	0.404
423.38	0.497
423.60	0.426
423.81	0.519
424.03	0.447
424.24	0.492
424.45	0.501
424.67	0.498
424.88	0.451
425.09	0.479
425.31	0.448
425.52	0.484
425.74	0.541
425.95	0.589
426.16	0.459
426.38	0.522
426.59	0.475
426.80	0.537
427.02	0.564
427.23	0.443
427.45	0.576
427.66	0.568
427.87	0.448
428.09	0.473
428.30	0.524
428.51	0.514
428.73	0.570
428.94	0.509
429.15	0.505
429.37	0.485
429.58	0.509
429.79	0.473
430.01	0.563
430.22	0.553
430.44	0.563
430.65	0.508
430.86	0.546
431.08	0.530
431.29	0.486
431.50	0.563
431.72	0.723
431.93	0.608
432.14	0.469
432.36	0.511
432.57	0.519
432.78	0.549
433.00	0.507
433.21	0.499
433.42	0.625
433.64	0.554
433.85	0.621
434.06	0.511
434.28	0.539
434.49	0.551
434.70	0.562
434.92	0.578
435.13	0.613
435.34	0.623
435.56	0.596
435.77	0.581
435.98	0.740
436.20	0.617
436.41	0.535
436.62	0.525
436.83	0.593
437.05	0.664
437.26	0.583
437.47	0.517
437.69	0.558
437.90	0.513
438.11	0.506
438.33	0.549
438.54	0.574
438.75	0.717
438.97	0.698
439.18	0.543
439.39	0.569
439.60	0.618
439.82	0.581
440.03	0.545
440.24	0.785
440.46	0.601
440.67	0.575
440.88	0.610
441.10	0.573
441.31	0.569
441.52	0.610
441.73	0.676
441.95	0.599
442.16	0.555
442.37	0.822
442.58	0.536
442.80	0.528
443.01	0.676
443.22	0.635
443.44	0.549
443.65	0.644
443.86	0.633
444.07	0.675
444.29	0.597
444.50	0.759
444.71	0.585
444.92	0.547
445.14	0.685
445.35	0.723
445.56	0.567
445.78	0.653
445.99	0.648
446.20	0.569
446.41	0.639
446.63	0.633
446.84	0.595
447.05	0.598
447.26	0.706
447.48	0.610
447.69	0.577
447.90	0.656
448.11	0.589
448.33	0.610
448.54	0.626
448.75	0.652
448.96	0.666
449.18	0.700
449.39	0.626
449.60	0.615
449.81	0.716
450.03	0.627
450.24	0.678
450.45	0.644
450.66	0.630
450.87	0.660
451.09	0.622
451.30	0.602
451.51	0.670
451.72	0.683
451.94	0.693
452.15	0.757
452.36	0.642
452.57	0.650
452.78	0.652
453.00	0.679
453.21	0.637
453.42	0.610
453.63	0.691
453.85	0.653
454.06	0.646
454.27	0.751
454.48	0.678
454.69	0.621
454.91	0.679
455.12	0.603
455.33	0.674
455.54	0.688
455.75	0.672
455.97	0.690
456.18	0.689
456.39	0.699
456.60	0.719
456.81	0.670
457.03	0.688
457.24	0.691
457.45	0.769
457.66	0.721
457.87	0.688
458.09	0.701
458.30	0.626
458.51	0.732
458.72	0.756
458.93	0.767
459.15	0.683
459.36	0.736
459.57	0.753
459.78	0.789
459.99	0.713
460.20	0.680
460.42	0.754
460.63	0.719
460.84	0.704
461.05	0.719
461.26	0.772
461.47	0.702
461.69	0.746
461.90	0.774
462.11	0.740
462.32	0.785
462.53	0.733
462.74	0.815
462.96	0.714
463.17	0.706
463.38	0.742
463.59	0.834
463.80	0.698
464.01	0.720
464.23	0.796
464.44	0.760
464.65	0.768
464.86	0.783
465.07	0.787
465.28	0.754
465.49	0.774
465.71	0.735
465.92	0.766
466.13	0.805
466.34	0.750
466.55	0.798
466.76	0.767
466.97	0.789
467.19	0.778
467.40	0.812
467.61	0.813
467.82	0.742
468.03	0.729
468.24	0.789
468.45	0.817
468.66	0.800
468.88	0.804
469.09	0.804
469.30	0.839
469.51	0.784
469.72	0.812
469.93	0.793
470.14	0.777
470.35	0.850
470.57	0.807
470.78	0.760
470.99	0.872
471.20	0.822
471.41	0.787
471.62	0.831
471.83	0.806
472.04	0.832
472.25	0.867
472.47	0.796
472.68	0.803
472.89	0.810
473.10	0.847
473.31	0.800
473.52	0.848
473.73	0.865
473.94	0.800
474.15	0.816
474.36	0.819
474.57	0.839
474.79	0.820
475.00	0.819
475.21	0.804
475.42	0.878
475.63	0.801
475.84	0.828
476.05	0.834
476.26	0.809
476.47	0.838
476.68	0.876
476.89	0.817
477.10	0.856
477.32	0.844
477.53	0.890
477.74	0.824
477.95	0.857
478.16	0.814
478.37	0.851
478.58	0.854
478.79	0.867
479.00	0.867
479.21	0.834
479.42	0.866
479.63	0.872
479.84	0.843
480.05	0.841
480.26	0.866
480.47	0.883
480.69	0.886
480.90	0.857
481.11	0.854
481.32	0.901
481.53	0.852
481.74	0.894
481.95	0.864
482.16	0.875
482.37	0.883
482.58	0.853
482.79	0.868
483.00	0.890
483.21	0.852
483.42	0.830
483.63	0.897
483.84	0.918
484.05	0.912
484.26	0.889
484.47	0.889
484.68	0.859
484.89	0.866
485.10	0.906
485.31	0.889
485.52	0.891
485.73	0.893
485.94	0.924
486.15	0.881
486.37	0.892
486.58	0.862
486.79	0.872
487.00	0.915
487.21	0.909
487.42	0.904
487.63	0.906
487.84	0.924
488.05	0.920
488.26	0.886
488.47	0.894
488.68	0.919
488.89	0.902
489.10	0.895
489.31	0.902
489.52	0.929
489.73	0.903
489.94	0.933
490.15	0.895
490.36	0.927
490.57	0.891
490.78	0.875
490.99	0.907
491.20	0.969
491.41	0.934
491.62	0.885
491.83	0.908
492.04	0.904
492.25	0.910
492.45	0.909
492.66	0.929
492.87	0.921
493.08	0.913
493.29	0.899
493.50	0.891
493.71	0.899
493.92	0.898
494.13	0.909
494.34	0.927
494.55	0.930
494.76	0.955
494.97	0.946
495.18	0.915
495.39	0.929
495.60	0.889
495.81	0.891
496.02	0.908
496.23	0.905
496.44	0.931
496.65	0.924
496.86	0.931
497.07	0.952
497.28	0.950
497.49	0.910
497.70	0.910
497.91	0.929
498.12	0.913
498.32	0.948
498.53	0.932
498.74	0.926
498.95	0.946
499.16	0.909
499.37	0.914
499.58	0.921
499.79	0.944
500.00	0.942
500.21	0.964
500.42	0.917
500.63	0.919
500.84	0.934
501.05	0.918
501.26	0.938
501.46	0.969
501.67	0.938
501.88	0.942
502.09	0.922
502.30	0.929
502.51	0.969
502.72	0.936
502.93	0.948
503.14	0.967
503.35	0.943
503.56	0.941
503.77	0.970
503.97	0.949
504.18	0.947
504.39	0.975
504.60	0.949
504.81	0.970
505.02	0.960
505.23	0.961
505.44	0.946
505.65	0.950
505.86	0.934
506.07	0.985
506.27	0.953
506.48	0.956
506.69	0.943
506.90	0.959
507.11	0.958
507.32	0.940
507.53	0.946
507.74	0.939
507.95	0.950
508.15	0.955
508.36	0.956
508.57	0.965
508.78	0.953
508.99	0.952
509.20	0.931
509.41	0.948
509.62	0.939
509.82	0.938
510.03	0.946
510.24	0.945
510.45	0.962
510.66	0.958
510.87	0.956
511.08	0.924
511.29	0.958
511.49	0.942
511.70	0.982
511.91	0.928
512.12	0.926
512.33	0.953
512.54	0.967
512.75	0.953
512.95	0.971
513.16	0.962
513.37	0.944
513.58	0.974
513.79	0.945
514.00	0.948
514.20	0.964
514.41	0.956
514.62	0.928
514.83	0.960
515.04	0.954
515.25	0.939
515.46	0.950
515.66	0.951
515.87	0.960
516.08	0.934
516.29	0.953
516.50	0.935
516.71	0.930
516.91	0.939
517.12	0.951
517.33	0.938
517.54	0.926
517.75	0.929
517.95	0.938
518.16	0.949
518.37	0.923
518.58	0.927
518.79	0.907
519.00	0.933
519.20	0.939
519.41	0.919
519.62	0.937
519.83	0.944
520.04	0.914
520.24	0.913
520.45	0.919
520.66	0.938
520.87	0.907
521.08	0.906
521.28	0.910
521.49	0.923
521.70	0.898
521.91	0.909
522.12	0.896
522.32	0.913
522.53	0.897
522.74	0.888
522.95	0.896
523.16	0.898
523.36	0.904
523.57	0.888
523.78	0.883
523.99	0.887
524.20	0.881
524.40	0.891
524.61	0.897
524.82	0.876
525.03	0.879
525.23	0.878
525.44	0.866
525.65	0.866
525.86	0.883
526.06	0.861
526.27	0.860
526.48	0.868
526.69	0.852
526.90	0.855
527.10	0.883
527.31	0.847
527.52	0.841
527.73	0.835
527.93	0.844
528.14	0.848
528.35	0.840
528.56	0.841
528.76	0.834
528.97	0.827
529.18	0.820
529.39	0.821
529.59	0.823
529.80	0.849
530.01	0.825
530.22	0.823
530.42	0.800
530.63	0.812
530.84	0.793
531.05	0.804
531.25	0.805
531.46	0.798
531.67	0.779
531.88	0.794
532.08	0.789
532.29	0.786
532.50	0.780
532.70	0.773
532.91	0.766
533.12	0.768
533.33	0.788
533.53	0.764
533.74	0.765
533.95	0.770
534.15	0.760
534.36	0.761
534.57	0.746
534.78	0.747
534.98	0.755
535.19	0.731
535.40	0.732
535.60	0.748
535.81	0.731
536.02	0.732
536.23	0.724
536.43	0.725
536.64	0.715
536.85	0.721
537.05	0.728
537.26	0.709
537.47	0.712
537.67	0.704
537.88	0.699
538.09	0.706
538.30	0.697
538.50	0.689
538.71	0.699
538.92	0.686
539.12	0.682
539.33	0.678
539.54	0.679
539.74	0.682
539.95	0.673
540.16	0.671
540.36	0.664
540.57	0.664
540.78	0.657
540.98	0.657
541.19	0.656
541.40	0.646
541.60	0.654
541.81	0.648
542.02	0.648
542.22	0.639
542.43	0.633
542.64	0.629
542.84	0.628
543.05	0.620
543.26	0.621
543.46	0.623
543.67	0.621
543.88	0.617
544.08	0.609
544.29	0.605
544.50	0.605
544.70	0.607
544.91	0.599
545.12	0.601
545.32	0.597
545.53	0.600
545.74	0.590
545.94	0.587
546.15	0.585
546.35	0.582
546.56	0.580
546.77	0.576
546.97	0.574
547.18	0.567
547.39	0.567
547.59	0.565
547.80	0.561
548.01	0.565
548.21	0.562
548.42	0.554
548.62	0.553
548.83	0.550
549.04	0.547
549.24	0.541
549.45	0.541
549.65	0.538
549.86	0.534
550.07	0.534
550.27	0.531
550.48	0.538
550.69	0.525
550.89	0.525
551.10	0.522
551.30	0.522
551.51	0.521
551.72	0.512
551.92	0.513
552.13	0.513
552.33	0.513
552.54	0.509
552.75	0.502
552.95	0.504
553.16	0.500
553.36	0.499
553.57	0.496
553.78	0.494
553.98	0.494
554.19	0.487
554.39	0.485
554.60	0.487
554.80	0.487
555.01	0.480
555.22	0.481
555.42	0.479
555.63	0.472
555.83	0.476
556.04	0.470
556.25	0.473
556.45	0.464
556.66	0.462
556.86	0.465
557.07	0.464
557.27	0.463
557.48	0.457
557.68	0.456
557.89	0.457
558.10	0.453
558.30	0.450
558.51	0.448
558.71	0.446
558.92	0.442
559.12	0.443
559.33	0.447
559.54	0.442
559.74	0.438
559.95	0.435
560.15	0.435
560.36	0.433
560.56	0.428
560.77	0.429
560.97	0.429
561.18	0.424
561.38	0.423
561.59	0.425
561.79	0.421
562.00	0.419
562.21	0.416
562.41	0.414
562.62	0.413
562.82	0.411
563.03	0.408
563.23	0.407
563.44	0.407
563.64	0.404
563.85	0.405
564.05	0.399
564.26	0.399
564.46	0.398
564.67	0.399
564.87	0.395
565.08	0.392
565.28	0.392
565.49	0.392
565.69	0.390
565.90	0.387
566.10	0.390
566.31	0.384
566.51	0.386
566.72	0.386
566.92	0.381
567.13	0.380
567.33	0.380
567.54	0.379
567.74	0.377
567.95	0.374
568.15	0.375
568.36	0.374
568.56	0.373
568.77	0.368
568.97	0.366
569.18	0.366
569.38	0.365
569.59	0.366
569.79	0.364
570.00	0.362
570.20	0.360
570.41	0.358
570.61	0.357
570.82	0.358
571.02	0.355
571.23	0.357
571.43	0.353
571.64	0.352
571.84	0.351
572.05	0.349
572.25	0.348
572.45	0.346
572.66	0.344
572.86	0.342
573.07	0.341
573.27	0.341
573.48	0.340
573.68	0.336
573.89	0.335
574.09	0.336
574.30	0.334
574.50	0.333
574.70	0.333
574.91	0.330
575.11	0.331
575.32	0.330
575.52	0.327
575.73	0.327
575.93	0.326
576.14	0.325
576.34	0.324
576.54	0.323
576.75	0.321
576.95	0.321
577.16	0.319
577.36	0.318
577.57	0.317
577.77	0.316
577.97	0.313
578.18	0.315
578.38	0.311
578.59	0.310
578.79	0.308
579.00	0.309
579.20	0.307
579.40	0.307
579.61	0.306
579.81	0.304
580.02	0.302
580.22	0.302
580.42	0.300
580.63	0.300
580.83	0.299
581.04	0.297
581.24	0.297
581.45	0.295
581.65	0.295
581.85	0.294
582.06	0.293
582.26	0.292
582.47	0.290
582.67	0.290
582.87	0.289
583.08	0.288
583.28	0.288
583.48	0.286
583.69	0.283
583.89	0.284
584.10	0.285
584.30	0.283
584.50	0.281
584.71	0.281
584.91	0.281
585.12	0.279
585.32	0.280
585.52	0.277
585.73	0.276
585.93	0.276
586.13	0.275
586.34	0.274
586.54	0.273
586.75	0.272
586.95	0.271
587.15	0.271
587.36	0.270
587.56	0.269
587.76	0.268
587.97	0.267
588.17	0.266
588.37	0.265
588.58	0.266
588.78	0.263
588.98	0.264
589.19	0.262
589.39	0.260
589.60	0.262
589.80	0.260
590.00	0.259
590.21	0.259
590.41	0.257
590.61	0.257
590.82	0.257
591.02	0.256
591.22	0.254
591.43	0.255
591.63	0.253
591.83	0.253
592.04	0.251
592.24	0.252
592.44	0.250
592.65	0.249
592.85	0.249
593.05	0.249
593.26	0.247
593.46	0.247
593.66	0.247
593.86	0.246
594.07	0.244
594.27	0.244
594.47	0.242
594.68	0.242
594.88	0.242
595.08	0.241
595.29	0.241
595.49	0.240
595.69	0.239
595.90	0.238
596.10	0.238
596.30	0.238
596.50	0.237
596.71	0.236
596.91	0.236
597.11	0.235
597.32	0.235
597.52	0.234
597.72	0.233
597.93	0.233
598.13	0.231
598.33	0.232
598.53	0.231
598.74	0.230
598.94	0.229
599.14	0.229
599.35	0.229
599.55	0.228
599.75	0.227
599.95	0.226
600.16	0.226
600.36	0.225
600.56	0.225
600.76	0.224
600.97	0.223
601.17	0.223
601.37	0.223
601.58	0.222
601.78	0.222
601.98	0.221
602.18	0.220
602.39	0.220
602.59	0.221
602.79	0.219
602.99	0.219
603.20	0.218
603.40	0.218
603.60	0.218
603.80	0.217
604.01	0.217
604.21	0.216
604.41	0.215
604.61	0.214
604.82	0.214
605.02	0.214
605.22	0.214
605.42	0.214
605.62	0.213
605.83	0.212
606.03	0.211
606.23	0.211
606.43	0.211
606.64	0.211
606.84	0.210
607.04	0.209
607.24	0.209
607.45	0.209
607.65	0.207
607.85	0.208
608.05	0.207
608.25	0.206
608.46	0.206
608.66	0.206
608.86	0.206
609.06	0.204
609.26	0.204
609.47	0.204
609.67	0.203
609.87	0.204
610.07	0.202
610.28	0.201
610.48	0.201
610.68	0.201
610.88	0.200
611.08	0.200
611.29	0.199
611.49	0.198
611.69	0.199
611.89	0.196
612.09	0.196
612.29	0.196
612.50	0.196
612.70	0.196
612.90	0.194
613.10	0.194
613.30	0.194
613.51	0.194
613.71	0.194
613.91	0.198
614.11	0.193
614.31	0.193
614.51	0.193
614.72	0.192
614.92	0.192
615.12	0.192
615.32	0.193
615.52	0.192
615.72	0.193
615.93	0.192
616.13	0.191
616.33	0.191
616.53	0.190
616.73	0.191
616.93	0.190
617.14	0.190
617.34	0.190
617.54	0.190
617.74	0.190
617.94	0.188
618.14	0.189
618.34	0.188
618.55	0.187
618.75	0.188
618.95	0.187
619.15	0.187
619.35	0.186
619.55	0.185
619.75	0.186
619.96	0.185
620.16	0.186
620.36	0.185
620.56	0.185
620.76	0.184
620.96	0.183
621.16	0.183
621.36	0.183
621.57	0.183
621.77	0.183
621.97	0.182
622.17	0.181
622.37	0.182
622.57	0.182
622.77	0.181
622.97	0.180
623.18	0.181
623.38	0.181
623.58	0.181
623.78	0.180
623.98	0.180
624.18	0.179
624.38	0.178
624.58	0.179
624.78	0.179
624.98	0.179
625.19	0.179
625.39	0.179
625.59	0.178
625.79	0.179
625.99	0.178
626.19	0.178
626.39	0.177
626.59	0.177
626.79	0.177
626.99	0.177
627.19	0.176
627.40	0.177
627.60	0.176
627.80	0.176
628.00	0.175
628.20	0.175
628.40	0.175
628.60	0.174
628.80	0.173
629.00	0.173
629.20	0.173
629.40	0.173
629.60	0.171
629.80	0.172
630.00	0.172
630.20	0.171
630.41	0.170
630.61	0.170
630.81	0.170
631.01	0.171
631.21	0.170
631.41	0.169
631.61	0.170
631.81	0.169
632.01	0.169
632.21	0.169
632.41	0.168
632.61	0.168
632.81	0.168
633.01	0.168
633.21	0.167
633.41	0.168
633.61	0.168
633.81	0.167
634.01	0.167
634.21	0.167
634.41	0.167
634.61	0.167
634.81	0.166
635.01	0.166
635.22	0.166
635.42	0.166
635.62	0.165
635.82	0.165
636.02	0.165
636.22	0.164
636.42	0.164
636.62	0.164
636.82	0.164
637.02	0.164
637.22	0.164
637.42	0.163
637.62	0.163
637.82	0.163
638.02	0.162
638.22	0.162
638.42	0.162
638.62	0.161
638.82	0.162
639.02	0.161
639.22	0.161
639.42	0.160
639.62	0.161
639.82	0.160
640.02	0.160
640.22	0.160
640.42	0.160
640.62	0.160
640.82	0.159
641.02	0.158
641.22	0.158
641.42	0.158
641.61	0.158
641.81	0.158
642.01	0.158
642.21	0.158
642.41	0.158
642.61	0.158
642.81	0.157
643.01	0.157
643.21	0.157
643.41	0.157
643.61	0.156
643.81	0.156
644.01	0.155
644.21	0.154
644.41	0.155
644.61	0.155
644.81	0.155
645.01	0.154
645.21	0.154
645.41	0.154
645.61	0.154
645.81	0.153
646.01	0.153
646.21	0.154
646.40	0.153
646.60	0.153
646.80	0.153
647.00	0.153
647.20	0.152
647.40	0.152
647.60	0.152
647.80	0.151
648.00	0.151
648.20	0.151
648.40	0.151
648.60	0.150
648.80	0.150
649.00	0.150
649.20	0.150
649.39	0.150
649.59	0.149
649.79	0.149
649.99	0.149
650.19	0.149
650.39	0.148
650.59	0.148
650.79	0.148
650.99	0.147
651.19	0.147
651.39	0.147
651.58	0.147
651.78	0.147
651.98	0.147
652.18	0.147
652.38	0.146
652.58	0.146
652.78	0.145
652.98	0.145
653.18	0.145
653.38	0.146
653.57	0.145
653.77	0.145
653.97	0.145
654.17	0.145
654.37	0.144
654.57	0.144
654.77	0.144
654.97	0.144
655.16	0.144
655.36	0.144
655.56	0.143
655.76	0.142
655.96	0.143
656.16	0.142
656.36	0.142
656.56	0.141
656.75	0.141
656.95	0.141
657.15	0.140
657.35	0.140
657.55	0.139
657.75	0.140
657.95	0.140
658.14	0.139
658.34	0.140
658.54	0.139
658.74	0.139
658.94	0.139
659.14	0.139
659.34	0.139
659.53	0.138
659.73	0.138
659.93	0.137
660.13	0.137
660.33	0.137
660.53	0.136
660.72	0.137
660.92	0.136
661.12	0.136
661.32	0.136
661.52	0.135
661.72	0.135
661.91	0.135
662.11	0.135
662.31	0.135
662.51	0.134
662.71	0.134
662.90	0.134
663.10	0.133
663.30	0.133
663.50	0.133
663.70	0.133
663.90	0.133
664.09	0.133
664.29	0.132
664.49	0.132
664.69	0.132
664.89	0.132
665.08	0.132
665.28	0.131
665.48	0.131
665.68	0.131
665.88	0.130
666.07	0.130
666.27	0.130
666.47	0.130
666.67	0.131
666.87	0.130
667.06	0.130
667.26	0.129
667.46	0.129
667.66	0.129
667.85	0.129
668.05	0.129
668.25	0.129
668.45	0.128
668.65	0.128
668.84	0.128
669.04	0.128
669.24	0.127
669.44	0.127
669.63	0.126
669.83	0.127
670.03	0.126
670.23	0.125
670.42	0.125
670.62	0.125
670.82	0.124
671.02	0.124
671.22	0.124
671.41	0.123
671.61	0.124
671.81	0.124
672.01	0.124
672.20	0.124
672.40	0.123
672.60	0.123
672.80	0.123
672.99	0.124
673.19	0.123
673.39	0.123
673.58	0.123
673.78	0.122
673.98	0.122
674.18	0.122
674.37	0.121
674.57	0.121
674.77	0.121
674.97	0.121
675.16	0.121
675.36	0.120
675.56	0.120
675.75	0.120
675.95	0.120
676.15	0.120
676.35	0.120
676.54	0.119
676.74	0.119
676.94	0.119
677.13	0.119
677.33	0.118
677.53	0.119
677.73	0.118
677.92	0.118
678.12	0.118
678.32	0.117
678.51	0.117
678.71	0.117
678.91	0.117
679.11	0.116
679.30	0.116
679.50	0.116
679.70	0.115
679.89	0.115
680.09	0.115
680.29	0.115
680.48	0.115
680.68	0.114
680.88	0.114
681.07	0.115
681.27	0.114
681.47	0.114
681.66	0.114
681.86	0.114
682.06	0.114
682.25	0.114
682.45	0.113
682.65	0.113
682.84	0.113
683.04	0.112
683.24	0.112
683.43	0.112
683.63	0.112
683.83	0.112
684.02	0.112
684.22	0.111
684.42	0.111
684.61	0.111
684.81	0.111
685.01	0.111
685.20	0.111
685.40	0.111
685.60	0.111
685.79	0.111
685.99	0.111
686.19	0.110
686.38	0.110
686.58	0.111
686.77	0.110
686.97	0.110
687.17	0.110
687.36	0.109
687.56	0.109
687.76	0.109
687.95	0.108
688.15	0.108
688.34	0.108
688.54	0.107
688.74	0.107
688.93	0.107
689.13	0.107
689.33	0.107
689.52	0.106
689.72	0.107
689.91	0.106
690.11	0.106
690.31	0.106
690.50	0.106
690.70	0.106
690.89	0.106
691.09	0.105
691.29	0.105
691.48	0.105
691.68	0.104
691.87	0.105
692.07	0.105
692.27	0.104
692.46	0.104
692.66	0.104
692.85	0.104
693.05	0.104
693.25	0.104
693.44	0.104
693.64	0.104
693.83	0.104
694.03	0.103
694.22	0.102
694.42	0.102
694.62	0.103
694.81	0.102
695.01	0.102
695.20	0.102
695.40	0.102
695.59	0.102
695.79	0.101
695.99	0.101
696.18	0.102
696.38	0.101
696.57	0.101
696.77	0.101
696.96	0.101
697.16	0.101
697.36	0.100
697.55	0.100
697.75	0.100
697.94	0.100
698.14	0.100
698.33	0.100
698.53	0.100
698.72	0.099
698.92	0.099
699.11	0.099
699.31	0.099
699.51	0.099
699.70	0.099
699.90	0.099
700.09	0.099
700.29	0.098
700.48	0.098
700.68	0.098
700.87	0.098
701.07	0.097
701.26	0.097
701.46	0.097
701.65	0.097
701.85	0.097
702.04	0.096
702.24	0.096
702.43	0.096
702.63	0.096
702.82	0.096
703.02	0.096
703.21	0.096
703.41	0.096
703.60	0.096
703.80	0.096
703.99	0.095
704.19	0.096
704.38	0.095
704.58	0.095
704.77	0.095
704.97	0.095
705.16	0.095
705.36	0.095
705.55	0.095
705.75	0.094
705.94	0.095
706.14	0.094
706.33	0.094
706.53	0.094
706.72	0.094
706.92	0.094
707.11	0.094
707.31	0.093
707.50	0.093
707.70	0.093
707.89	0.093
708.09	0.093
708.28	0.093
708.48	0.093
708.67	0.093
708.86	0.093
709.06	0.093
709.25	0.093
709.45	0.093
709.64	0.093
709.84	0.093
710.03	0.093
710.23	0.092
710.42	0.092
710.62	0.092
710.81	0.092
711.00	0.092
711.20	0.092
711.39	0.092
711.59	0.091
711.78	0.091
711.98	0.091
712.17	0.092
712.37	0.091
712.56	0.091
712.75	0.091
712.95	0.091
713.14	0.091
713.34	0.092
713.53	0.092
713.73	0.092
713.92	0.092
714.11	0.091
714.31	0.091
714.50	0.091
714.70	0.091
714.89	0.091
715.08	0.091
715.28	0.091
715.47	0.090
715.67	0.090
715.86	0.090
716.06	0.090
716.25	0.090
716.44	0.090
716.64	0.089
716.83	0.090
717.03	0.089
717.22	0.089
717.41	0.089
717.61	0.089
717.80	0.089
717.99	0.089
718.19	0.090
718.38	0.090
718.58	0.089
718.77	0.089
718.96	0.089
719.16	0.089
719.35	0.089
719.55	0.089
719.74	0.089
719.93	0.089
720.13	0.089
720.32	0.088
720.51	0.088
720.71	0.088
720.90	0.088
721.10	0.087
721.29	0.088
721.48	0.087
721.68	0.087
721.87	0.087
722.06	0.087
722.26	0.088
722.45	0.087
722.64	0.088
722.84	0.088
723.03	0.088
723.22	0.088
723.42	0.088
723.61	0.088
723.80	0.088
724.00	0.088
724.19	0.088
724.38	0.088
724.58	0.088
724.77	0.088
724.96	0.087
725.16	0.087
725.35	0.087
725.54	0.088
725.74	0.088
725.93	0.088
726.12	0.087
726.32	0.087
726.51	0.087
726.70	0.087
726.90	0.087
727.09	0.087
727.28	0.087
727.48	0.087
727.67	0.087
727.86	0.087
728.06	0.087
728.25	0.087
728.44	0.087
728.64	0.087
728.83	0.088
729.02	0.088
729.21	0.088
729.41	0.088
729.60	0.088
729.79	0.088
729.99	0.088
730.18	0.088
730.37	0.087
730.56	0.087
730.76	0.087
730.95	0.087
731.14	0.087
731.34	0.087
731.53	0.087
731.72	0.087
731.91	0.087
732.11	0.087
732.30	0.088
732.49	0.088
732.69	0.088
732.88	0.088
733.07	0.088
733.26	0.089
733.46	0.088
733.65	0.088
733.84	0.088
734.03	0.088
734.23	0.088
734.42	0.088
734.61	0.088
734.80	0.087
735.00	0.087
735.19	0.087
735.38	0.087
735.57	0.087
735.77	0.087
735.96	0.087
736.15	0.087
736.34	0.087
736.54	0.087
736.73	0.087
736.92	0.087
737.11	0.087
737.31	0.087
737.50	0.087
737.69	0.087
737.88	0.087
738.07	0.087
738.27	0.087
738.46	0.087
738.65	0.086
738.84	0.087
739.04	0.087
739.23	0.086
739.42	0.086
739.61	0.087
739.80	0.086
740.00	0.086
740.19	0.087
740.38	0.086
740.57	0.086
740.76	0.086
740.96	0.086
741.15	0.086
741.34	0.086
741.53	0.086
741.72	0.086
741.92	0.085
742.11	0.086
742.30	0.085
742.49	0.086
742.68	0.086
742.88	0.086
743.07	0.086
743.26	0.086
743.45	0.086
743.64	0.086
743.84	0.086
744.03	0.086
744.22	0.086
744.41	0.085
744.60	0.085
744.79	0.085
744.99	0.085
745.18	0.085
745.37	0.085
745.56	0.085
745.75	0.085
745.94	0.085
746.14	0.084
746.33	0.085
746.52	0.085
746.71	0.085
746.90	0.085
747.09	0.085
747.28	0.085
747.48	0.085
747.67	0.085
747.86	0.085
748.05	0.084
748.24	0.084
748.43	0.084
748.62	0.084
748.82	0.084
749.01	0.083
749.20	0.083
749.39	0.083
749.58	0.083
749.77	0.083
749.96	0.083
750.16	0.083
750.35	0.083
750.54	0.083
750.73	0.083
750.92	0.083
751.11	0.083
751.30	0.083
751.49	0.083
751.68	0.083
751.88	0.083
752.07	0.083
752.26	0.082
752.45	0.082
752.64	0.082
752.83	0.082
753.02	0.082
753.21	0.082
753.40	0.082
753.60	0.082
753.79	0.082
753.98	0.082
754.17	0.082
754.36	0.082
754.55	0.082
754.74	0.082
754.93	0.082
755.12	0.082
755.31	0.082
755.50	0.082
755.70	0.081
755.89	0.081
756.08	0.081
756.27	0.081
756.46	0.081
756.65	0.080
756.84	0.080
757.03	0.080
757.22	0.080
757.41	0.080
757.60	0.079
757.79	0.080
757.98	0.080
758.17	0.080
758.36	0.080
758.56	0.080
758.75	0.080
758.94	0.080
759.13	0.080
759.32	0.080
759.51	0.080
759.70	0.080
759.89	0.080
760.08	0.080
760.27	0.080
760.46	0.080
760.65	0.080
760.84	0.080
761.03	0.080
761.22	0.080
761.41	0.080
761.60	0.080
761.79	0.080
761.98	0.080
762.17	0.080
762.36	0.079
762.55	0.079
762.74	0.079
762.93	0.079
763.12	0.079
763.31	0.079
763.50	0.079
763.69	0.079
763.88	0.079
764.07	0.079
764.26	0.078
764.45	0.079
764.64	0.079
764.83	0.079
765.02	0.079
765.21	0.078
765.40	0.079
765.59	0.078
765.78	0.079
765.97	0.079
766.16	0.079
766.35	0.079
766.54	0.079
766.73	0.079
766.92	0.079
767.11	0.078
767.30	0.078
767.49	0.078
767.68	0.078
767.87	0.078
768.06	0.078
768.25	0.078
768.44	0.078
768.63	0.078
768.82	0.078
769.01	0.077
769.20	0.077
769.39	0.078
769.58	0.077
769.77	0.077
769.96	0.078
770.15	0.077
770.34	0.077
770.53	0.077
770.72	0.077
770.91	0.077
771.10	0.077
771.29	0.077
771.47	0.077
771.66	0.077
771.85	0.077
772.04	0.077
772.23	0.077
772.42	0.077
772.61	0.077
772.80	0.077
772.99	0.077
773.18	0.077
773.37	0.077
773.56	0.077
773.75	0.077
773.94	0.077
774.13	0.076
774.31	0.076
774.50	0.076
774.69	0.076
774.88	0.076
775.07	0.076
775.26	0.076
775.45	0.076
775.64	0.076
775.83	0.076
776.02	0.075
776.21	0.075
776.40	0.076
776.58	0.075
776.77	0.075
776.96	0.076
777.15	0.076
777.34	0.076
777.53	0.076
777.72	0.076
777.91	0.076
778.10	0.076
778.28	0.076
778.47	0.076
778.66	0.076
778.85	0.075
779.04	0.075
779.23	0.075
779.42	0.075
779.61	0.075
779.79	0.075
779.98	0.074
780.17	0.074
780.36	0.074
780.55	0.074
780.74	0.074
780.93	0.074
781.12	0.074
781.30	0.074
781.49	0.074
781.68	0.074
781.87	0.074
782.06	0.074
782.25	0.074
782.44	0.075
782.62	0.075
782.81	0.075
783.00	0.074
783.19	0.074
783.38	0.074
783.57	0.074
783.75	0.074
783.94	0.075
784.13	0.074
784.32	0.074
784.51	0.073
784.70	0.074
784.88	0.074
785.07	0.074
785.26	0.074
785.45	0.073
785.64	0.073
785.83	0.074
786.01	0.073
786.20	0.073
786.39	0.073
786.58	0.073
786.77	0.073
786.95	0.073
787.14	0.073
787.33	0.073
787.52	0.073
787.71	0.073
787.90	0.072
788.08	0.072
788.27	0.072
788.46	0.072
788.65	0.073
788.84	0.073
789.02	0.073
789.21	0.073
789.40	0.073
789.59	0.073
789.77	0.073
789.96	0.073
790.15	0.073
790.34	0.073
790.53	0.072
790.71	0.072
790.90	0.072
791.09	0.072
791.28	0.072
791.46	0.072
791.65	0.072
791.84	0.072
792.03	0.072
792.22	0.072
792.40	0.072
792.59	0.072
792.78	0.072
792.97	0.072
793.15	0.072
793.34	0.072
793.53	0.072
793.72	0.072
793.90	0.072
794.09	0.072
794.28	0.072
794.47	0.071
794.65	0.071
794.84	0.071
795.03	0.071
795.22	0.071
795.40	0.071
795.59	0.071
795.78	0.071
795.97	0.071
796.15	0.071
796.34	0.072
796.53	0.072
796.71	0.072
796.90	0.072
797.09	0.072
797.28	0.072
797.46	0.072
797.65	0.072
797.84	0.072
798.02	0.071
798.21	0.071
798.40	0.071
798.59	0.070
798.77	0.070
798.96	0.070
799.15	0.070
799.33	0.070
799.52	0.070
799.71	0.070
799.90	0.070
800.08	0.070
800.27	0.070
800.46	0.070
800.64	0.070
800.83	0.070
801.02	0.070
801.20	0.070
801.39	0.070
801.58	0.070
801.76	0.070
801.95	0.070
802.14	0.070
802.32	0.070
802.51	0.070
802.70	0.070
802.88	0.069
803.07	0.070
803.26	0.069
803.44	0.069
803.63	0.070
803.82	0.069
804.00	0.069
804.19	0.070
804.38	0.070
804.56	0.070
804.75	0.070
804.94	0.070
805.12	0.070
805.31	0.070
805.50	0.071
805.68	0.070
805.87	0.071
806.06	0.070
806.24	0.070
806.43	0.070
806.62	0.070
806.80	0.070
806.99	0.070
807.17	0.070
807.36	0.070
807.55	0.069
807.73	0.069
807.92	0.069
808.11	0.069
808.29	0.069
808.48	0.069
808.66	0.069
808.85	0.069
809.04	0.069
809.22	0.069
809.41	0.069
809.59	0.069
809.78	0.069
809.97	0.069
810.15	0.069
810.34	0.069
810.53	0.069
810.71	0.069
810.90	0.069
811.08	0.069
811.27	0.069
811.45	0.069
811.64	0.069
811.83	0.069
812.01	0.069
812.20	0.069
812.38	0.069
812.57	0.069
812.76	0.069
812.94	0.069
813.13	0.069
813.31	0.069
813.50	0.069
813.68	0.069
813.87	0.069
814.06	0.069
814.24	0.069
814.43	0.069
814.61	0.068
814.80	0.068
814.98	0.069
815.17	0.069
815.36	0.069
815.54	0.069
815.73	0.069
815.91	0.069
816.10	0.069
816.28	0.069
816.47	0.069
816.65	0.069
816.84	0.070
817.03	0.070
817.21	0.070
817.40	0.070
817.58	0.069
817.77	0.070
817.95	0.069
818.14	0.069
818.32	0.070
818.51	0.070
818.69	0.070
818.88	0.070
819.06	0.070
819.25	0.069
819.43	0.069
819.62	0.069
819.80	0.069
819.99	0.069
820.18	0.069
820.36	0.069
820.55	0.069
820.73	0.069
820.92	0.069
821.10	0.069
821.29	0.069
821.47	0.069
821.66	0.069
821.84	0.069
822.03	0.069
822.21	0.069
822.40	0.069
822.58	0.069
822.77	0.069
822.95	0.069
823.14	0.069
823.32	0.069
823.50	0.069
823.69	0.069
823.87	0.069
824.06	0.069
824.24	0.070
824.43	0.070
824.61	0.070
824.80	0.070
824.98	0.070
825.17	0.070
825.35	0.070
825.54	0.071
825.72	0.071
825.91	0.071
826.09	0.070
826.28	0.070
826.46	0.071
826.64	0.071
826.83	0.071
827.01	0.071
827.20	0.071
827.38	0.071
827.57	0.071
827.75	0.071
827.94	0.071
828.12	0.071
828.31	0.071
828.49	0.071
828.67	0.072
828.86	0.072
829.04	0.071
829.23	0.071
829.41	0.072
829.60	0.072
829.78	0.072
829.96	0.073
830.15	0.073
830.33	0.073
830.52	0.073
830.70	0.073
830.88	0.073
831.07	0.074
831.25	0.074
831.44	0.074
831.62	0.073
831.81	0.073
831.99	0.073
832.17	0.073
832.36	0.073
832.54	0.073
832.73	0.073
832.91	0.073
833.09	0.073
833.28	0.073
833.46	0.074
833.65	0.074
833.83	0.074
834.01	0.075
834.20	0.075
834.38	0.075
834.56	0.075
834.75	0.075
834.93	0.075
835.12	0.075
835.30	0.075
835.48	0.076
835.67	0.075
835.85	0.075
836.03	0.075
836.22	0.075
836.40	0.075
836.59	0.075
836.77	0.075
836.95	0.076
837.14	0.076
837.32	0.075
837.50	0.075
837.69	0.075
837.87	0.076
838.05	0.076
838.24	0.076
838.42	0.076
838.60	0.076
838.79	0.077
838.97	0.076
839.15	0.076
839.34	0.076
839.52	0.076
839.70	0.076
839.89	0.076
840.07	0.076
840.25	0.076
840.44	0.076
840.62	0.076
840.80	0.076
840.99	0.076
841.17	0.076
841.35	0.076
841.54	0.076
841.72	0.076
841.90	0.076
842.09	0.076
842.27	0.076
842.45	0.076
842.64	0.076
842.82	0.076
843.00	0.076
843.19	0.076
843.37	0.076
843.55	0.076
843.73	0.076
843.92	0.076
844.10	0.076
844.28	0.076
844.47	0.076
844.65	0.076
844.83	0.077
845.01	0.077
845.20	0.077
845.38	0.077
845.56	0.077
845.75	0.077
845.93	0.077
846.11	0.077
846.29	0.077
846.48	0.077
846.66	0.077
846.84	0.076
847.02	0.076
847.21	0.076
847.39	0.076
847.57	0.076
847.76	0.077
847.94	0.077
848.12	0.077
848.30	0.077
848.49	0.077
848.67	0.077
848.85	0.077
849.03	0.077
849.22	0.077
849.40	0.077
849.58	0.077
849.76	0.077
849.95	0.077
850.13	0.077
850.31	0.077
850.49	0.078
850.67	0.078
850.86	0.078
851.04	0.078
851.22	0.078
851.40	0.078
851.59	0.078
851.77	0.078
851.95	0.078
852.13	0.078
852.31	0.078
852.50	0.078
852.68	0.078
852.86	0.078
853.04	0.077
853.23	0.077
853.41	0.077
853.59	0.077
853.77	0.077
853.95	0.078
854.14	0.078
854.32	0.078
854.50	0.077
854.68	0.077
854.86	0.077
855.04	0.078
855.23	0.077
855.41	0.078
855.59	0.078
855.77	0.078
855.95	0.078
856.14	0.078
856.32	0.078
856.50	0.078
856.68	0.078
856.86	0.078
857.04	0.077
857.23	0.077
857.41	0.078
857.59	0.077
857.77	0.077
857.95	0.077
858.13	0.077
858.32	0.077
858.50	0.078
858.68	0.077
858.86	0.078
859.04	0.078
859.22	0.078
859.41	0.078
859.59	0.078
859.77	0.078
859.95	0.078
860.13	0.078
860.31	0.078
860.49	0.077
860.68	0.077
860.86	0.078
861.04	0.077
861.22	0.077
861.40	0.077
861.58	0.077
861.76	0.077
861.94	0.077
862.13	0.078
862.31	0.078
862.49	0.078
862.67	0.078
862.85	0.078
863.03	0.079
863.21	0.079
863.39	0.079
863.57	0.079
863.76	0.079
863.94	0.079
864.12	0.079
864.30	0.079
864.48	0.079
864.66	0.079
864.84	0.079
865.02	0.079
865.20	0.079
865.38	0.079
865.57	0.079
865.75	0.079
865.93	0.079
866.11	0.079
866.29	0.079
866.47	0.079
866.65	0.079
866.83	0.079
867.01	0.079
867.19	0.079
867.37	0.079
867.55	0.079
867.73	0.079
867.92	0.079
868.10	0.080
868.28	0.080
868.46	0.080
868.64	0.079
868.82	0.080
869.00	0.080
869.18	0.080
869.36	0.080
869.54	0.080
869.72	0.080
869.90	0.080
870.08	0.080
870.26	0.080
870.44	0.080
870.62	0.080
870.80	0.080
870.98	0.080
871.16	0.080
871.34	0.080
871.53	0.080
871.71	0.080
871.89	0.079
872.07	0.080
872.25	0.080
872.43	0.080
872.61	0.080
872.79	0.080
872.97	0.080
873.15	0.080
873.33	0.081
873.51	0.081
873.69	0.081
873.87	0.081
874.05	0.081
874.23	0.081
874.41	0.081
874.59	0.082
874.77	0.081
874.95	0.081
875.13	0.081
875.31	0.081
875.49	0.081
875.67	0.081
875.85	0.081
876.03	0.081
876.21	0.081
876.39	0.081
876.57	0.081
876.75	0.082
876.93	0.082
877.11	0.081
877.29	0.081
877.47	0.081
877.65	0.082
877.82	0.082
878.00	0.082
878.18	0.081
878.36	0.081
878.54	0.081
878.72	0.081
878.90	0.081
879.08	0.082
879.26	0.082
879.44	0.082
879.62	0.082
879.80	0.082
879.98	0.082
880.16	0.082
880.34	0.081
880.52	0.082
880.70	0.081
880.88	0.081
881.06	0.082
881.24	0.081
881.42	0.082
881.59	0.082
881.77	0.081
881.95	0.082
882.13	0.082
882.31	0.082
882.49	0.082
882.67	0.082
882.85	0.082
883.03	0.082
883.21	0.082
883.39	0.082
883.57	0.083
883.75	0.083
883.92	0.082
884.10	0.082
884.28	0.083
884.46	0.083
884.64	0.083
884.82	0.083
885.00	0.083
885.18	0.084
885.36	0.084
885.54	0.084
885.71	0.084
885.89	0.084
886.07	0.084
886.25	0.084
886.43	0.084
886.61	0.084
886.79	0.084
886.97	0.084
887.15	0.084
887.32	0.083
887.50	0.084
887.68	0.084
887.86	0.084
888.04	0.084
888.22	0.084
888.40	0.083
888.57	0.084
888.75	0.084
888.93	0.084
889.11	0.084
889.29	0.084
889.47	0.084
889.65	0.084
889.82	0.084
890.00	0.085
890.18	0.084
890.36	0.084
890.54	0.085
890.72	0.085
890.90	0.085
891.07	0.085
891.25	0.085
891.43	0.084
891.61	0.085
891.79	0.085
891.97	0.084
892.14	0.084
892.32	0.084
892.50	0.084
892.68	0.085
892.86	0.085
893.03	0.085
893.21	0.085
893.39	0.085
893.57	0.086
893.75	0.085
893.93	0.085
894.10	0.085
894.28	0.086
894.46	0.085
894.64	0.085
894.82	0.085
894.99	0.085
895.17	0.085
895.35	0.085
895.53	0.085
895.71	0.085
895.88	0.085
896.06	0.085
896.24	0.085
896.42	0.085
896.59	0.085
896.77	0.085
896.95	0.085
897.13	0.085
897.31	0.086
897.48	0.085
897.66	0.086
897.84	0.086
898.02	0.086
898.19	0.086
898.37	0.086
898.55	0.086
898.73	0.086
898.91	0.086
899.08	0.086
899.26	0.086
899.44	0.086
899.62	0.086
899.79	0.087
899.97	0.087
900.15	0.086
900.33	0.086
900.50	0.087
900.68	0.086
900.86	0.087
901.04	0.087
901.21	0.087
901.39	0.087
901.57	0.087
901.74	0.087
901.92	0.087
902.10	0.087
902.28	0.087
902.45	0.087
902.63	0.087
902.81	0.087
902.99	0.087
903.16	0.087
903.34	0.088
903.52	0.087
903.69	0.087
903.87	0.087
904.05	0.087
904.22	0.088
904.40	0.088
904.58	0.088
904.76	0.088
904.93	0.088
905.11	0.088
905.29	0.088
905.46	0.089
905.64	0.089
905.82	0.089
905.99	0.089
906.17	0.089
906.35	0.089
906.53	0.089
906.70	0.090
906.88	0.090
907.06	0.090
907.23	0.090
907.41	0.090
907.59	0.090
907.76	0.090
907.94	0.090
908.12	0.090
908.29	0.090
908.47	0.090
908.65	0.090
908.82	0.090
909.00	0.090
909.18	0.090
909.35	0.090
909.53	0.090
909.71	0.090
909.88	0.090
910.06	0.090
910.23	0.090
910.41	0.091
910.59	0.091
910.76	0.090
910.94	0.090
911.12	0.090
911.29	0.091
911.47	0.091
911.65	0.091
911.82	0.091
912.00	0.091
912.17	0.091
912.35	0.092
912.53	0.092
912.70	0.092
912.88	0.092
913.06	0.092
913.23	0.092
913.41	0.092
913.58	0.093
913.76	0.092
913.94	0.093
914.11	0.093
914.29	0.093
914.46	0.093
914.64	0.093
914.82	0.093
914.99	0.093
915.17	0.093
915.34	0.093
915.52	0.093
915.70	0.093
915.87	0.093
916.05	0.093
916.22	0.093
916.40	0.093
916.57	0.094
916.75	0.094
916.93	0.094
917.10	0.094
917.28	0.094
917.45	0.094
917.63	0.094
917.80	0.094
917.98	0.094
918.16	0.094
918.33	0.095
918.51	0.095
918.68	0.095
918.86	0.095
919.03	0.095
919.21	0.096
919.39	0.096
919.56	0.096
919.74	0.097
919.91	0.096
920.09	0.097
920.26	0.097
920.44	0.097
920.61	0.097
920.79	0.097
920.96	0.097
921.14	0.098
921.31	0.098
921.49	0.098
921.67	0.098
921.84	0.099
922.02	0.099
922.19	0.099
922.37	0.099
922.54	0.099
922.72	0.099
922.89	0.100
923.07	0.100
923.24	0.100
923.42	0.101
923.59	0.101
923.77	0.102
923.94	0.102
924.12	0.102
924.29	0.103
924.47	0.103
924.64	0.103
924.82	0.103
924.99	0.103
925.17	0.104
925.34	0.104
925.52	0.104
925.69	0.105
925.87	0.105
926.04	0.105
926.22	0.106
926.39	0.106
926.57	0.106
926.74	0.107
926.91	0.107
927.09	0.107
927.26	0.107
927.44	0.107
927.61	0.108
927.79	0.108
927.96	0.108
928.14	0.109
928.31	0.109
928.49	0.109
928.66	0.110
928.84	0.110
929.01	0.111
929.18	0.112
929.36	0.112
929.53	0.113
929.71	0.113
929.88	0.114
930.06	0.114
930.23	0.114
930.41	0.114
930.58	0.115
930.75	0.115
930.93	0.116
931.10	0.116
931.28	0.117
931.45	0.117
931.63	0.117
931.80	0.117
931.97	0.118
932.15	0.118
932.32	0.119
932.50	0.119
932.67	0.120
932.84	0.120
933.02	0.121
933.19	0.121
933.37	0.121
933.54	0.122
933.71	0.122
933.89	0.123
934.06	0.124
934.24	0.124
934.41	0.125
934.58	0.125
934.76	0.125
934.93	0.126
935.11	0.126
935.28	0.126
935.45	0.127
935.63	0.127
935.80	0.128
935.98	0.128
936.15	0.128
936.32	0.129
936.50	0.129
936.67	0.130
936.84	0.130
937.02	0.132
937.19	0.132
937.36	0.132
937.54	0.133
937.71	0.134
937.89	0.134
938.06	0.135
938.23	0.135
938.41	0.136
938.58	0.136
938.75	0.137
938.93	0.137
939.10	0.138
939.27	0.138
939.45	0.139
939.62	0.139
939.79	0.140
939.97	0.140
940.14	0.141
940.31	0.141
940.49	0.142
940.66	0.142
940.83	0.142
941.01	0.143
941.18	0.145
941.35	0.145
941.53	0.145
941.70	0.146
941.87	0.147
942.05	0.148
942.22	0.148
942.39	0.150
942.57	0.150
942.74	0.151
942.91	0.150
943.08	0.151
943.26	0.151
943.43	0.152
943.60	0.153
943.78	0.153
943.95	0.154
944.12	0.154
944.29	0.155
944.47	0.156
944.64	0.157
944.81	0.158
944.99	0.159
945.16	0.159
945.33	0.160
945.50	0.161
945.68	0.162
945.85	0.162
946.02	0.164
946.20	0.164
946.37	0.165
946.54	0.166
946.71	0.167
946.89	0.167
947.06	0.168
947.23	0.169
947.40	0.170
947.58	0.170
947.75	0.172
947.92	0.172
948.09	0.172
948.27	0.174
948.44	0.176
948.61	0.177
948.78	0.177
948.96	0.179
949.13	0.180
949.30	0.181
949.47	0.182
949.65	0.183
949.82	0.185
949.99	0.185
950.16	0.187
950.33	0.188
950.51	0.189
950.68	0.191
950.85	0.191
951.02	0.193
951.20	0.194
951.37	0.195
951.54	0.195
951.71	0.197
951.88	0.198
952.06	0.199
952.23	0.200
952.40	0.201
952.57	0.202
952.74	0.204
952.92	0.205
953.09	0.206
953.26	0.208
953.43	0.208
953.60	0.209
953.77	0.211
953.95	0.212
954.12	0.214
954.29	0.214
954.46	0.217
954.63	0.218
954.81	0.219
954.98	0.219
955.15	0.221
955.32	0.223
955.49	0.223
955.66	0.224
955.84	0.225
956.01	0.226
956.18	0.228
956.35	0.230
956.52	0.229
956.69	0.231
956.87	0.231
957.04	0.232
957.21	0.235
957.38	0.235
957.55	0.236
957.72	0.237
957.89	0.238
958.07	0.237
958.24	0.240
958.41	0.241
958.58	0.241
958.75	0.242
958.92	0.243
959.09	0.243
959.26	0.244
959.44	0.245
959.61	0.246
959.78	0.247
959.95	0.248
960.12	0.248
960.29	0.250
960.46	0.250
960.63	0.250
960.81	0.250
960.98	0.251
961.15	0.251
961.32	0.252
961.49	0.252
961.66	0.253
961.83	0.254
962.00	0.253
962.17	0.255
962.34	0.254
962.52	0.255
962.69	0.256
962.86	0.256
963.03	0.256
963.20	0.257
963.37	0.257
963.54	0.257
963.71	0.257
963.88	0.257
964.05	0.259
964.22	0.260
964.39	0.259
964.56	0.259
964.74	0.260
964.91	0.260
965.08	0.260
965.25	0.261
965.42	0.261
965.59	0.262
965.76	0.262
965.93	0.263
966.10	0.261
966.27	0.262
966.44	0.262
966.61	0.263
966.78	0.262
966.95	0.262
967.12	0.263
967.29	0.265
967.46	0.264
967.63	0.264
967.80	0.264
967.97	0.264
968.14	0.263
968.32	0.264
968.49	0.264
968.66	0.263
968.83	0.264
969.00	0.264
969.17	0.263
969.34	0.264
969.51	0.265
969.68	0.264
969.85	0.265
970.02	0.265
970.19	0.265
970.36	0.266
970.53	0.266
970.70	0.264
970.87	0.265
971.04	0.264
971.21	0.265
971.38	0.265
971.55	0.265
971.72	0.265
971.89	0.265
972.06	0.265
972.23	0.265
972.40	0.265
972.57	0.264
972.74	0.264
972.91	0.265
973.07	0.265
973.24	0.264
973.41	0.264
973.58	0.263
973.75	0.276
973.92	0.264
974.09	0.264
974.26	0.264
974.43	0.263
974.60	0.264
974.77	0.265
974.94	0.264
975.11	0.265
975.28	0.266
975.45	0.264
975.62	0.265
975.79	0.266
975.96	0.264
976.13	0.263
976.30	0.265
976.47	0.263
976.64	0.263
976.80	0.264
976.97	0.264
977.14	0.263
977.31	0.263
977.48	0.263
977.65	0.263
977.82	0.262
977.99	0.263
978.16	0.263
978.33	0.263
978.50	0.262
978.67	0.262
978.83	0.262
979.00	0.263
979.17	0.263
979.34	0.262
979.51	0.262
979.68	0.263
979.85	0.262
980.02	0.263
980.19	0.260
980.36	0.262
980.52	0.263
980.69	0.261
980.86	0.261
981.03	0.260
981.20	0.259
981.37	0.260
981.54	0.260
981.71	0.259
981.88	0.260
982.04	0.260
982.21	0.259
982.38	0.261
982.55	0.259
982.72	0.258
982.89	0.259
983.06	0.257
983.22	0.257
983.39	0.257
983.56	0.257
983.73	0.256
983.90	0.255
984.07	0.257
984.24	0.255
984.40	0.255
984.57	0.254
984.74	0.256
984.91	0.257
985.08	0.255
985.25	0.253
985.41	0.254
985.58	0.254
985.75	0.255
985.92	0.254
986.09	0.252
986.26	0.252
986.42	0.252
986.59	0.250
986.76	0.252
986.93	0.252
987.10	0.252
987.27	0.250
987.43	0.248
987.60	0.249
987.77	0.249
987.94	0.248
988.11	0.249
988.27	0.249
988.44	0.248
988.61	0.247
988.78	0.245
988.95	0.245
989.11	0.247
989.28	0.245
989.45	0.245
989.62	0.245
989.79	0.246
989.95	0.245
990.12	0.246
990.29	0.246
990.46	0.244
990.62	0.243
990.79	0.243
990.96	0.243
991.13	0.244
991.30	0.242
991.46	0.242
991.63	0.240
991.80	0.239
991.97	0.239
992.13	0.240
992.30	0.240
992.47	0.239
992.64	0.239
992.80	0.239
992.97	0.239
993.14	0.237
993.31	0.233
993.47	0.236
993.64	0.234
993.81	0.234
993.98	0.234
994.14	0.233
994.31	0.232
994.48	0.233
994.64	0.233
994.81	0.231
994.98	0.232
995.15	0.230
995.31	0.230
995.48	0.230
995.65	0.232
995.82	0.229
995.98	0.229
996.15	0.230
996.32	0.232
996.48	0.231
996.65	0.230
996.82	0.228
996.99	0.228
997.15	0.228
997.32	0.228
997.49	0.227
997.65	0.228
997.82	0.227
997.99	0.225
998.15	0.225
998.32	0.226
998.49	0.225
998.65	0.225
998.82	0.224
998.99	0.222
999.15	0.223
999.32	0.222
999.49	0.222
999.65	0.222
999.82	0.219
999.99	0.219
1000.15	0.219
1000.32	0.219
1000.49	0.219
1000.65	0.217
1000.82	0.217
1000.99	0.218
1001.15	0.218
1001.32	0.217
1001.49	0.217
1001.65	0.218
1001.82	0.220
1001.99	0.217
1002.15	0.216
1002.32	0.217
1002.49	0.217
1002.65	0.216
1002.82	0.214
1002.99	0.213
1003.15	0.215
1003.32	0.214
1003.48	0.214
1003.65	0.214
1003.82	0.212
1003.98	0.209
1004.15	0.209
1004.32	0.210
1004.48	0.209
1004.65	0.211
1004.81	0.208
1004.98	0.207
1005.15	0.208
1005.31	0.207
1005.48	0.205
1005.64	0.206
1005.81	0.208
1005.98	0.204
1006.14	0.203
1006.31	0.204
1006.47	0.203
1006.64	0.201
1006.81	0.201
1006.97	0.200
1007.14	0.200
1007.30	0.201
1007.47	0.200
1007.63	0.198
1007.80	0.198
1007.97	0.198
1008.13	0.198
1008.30	0.198
1008.46	0.199
1008.63	0.197
1008.79	0.198
1008.96	0.199
1009.13	0.200
1009.29	0.198
1009.46	0.197
1009.62	0.197
1009.79	0.195
1009.95	0.195
1010.12	0.195
1010.28	0.196
1010.45	0.195
1010.62	0.195
1010.78	0.193
1010.95	0.191
1011.11	0.192
1011.28	0.191
1011.44	0.193
1011.61	0.191
1011.77	0.190
1011.94	0.190
1012.10	0.189
1012.27	0.189
1012.43	0.189
1012.60	0.187
1012.76	0.188
1012.93	0.187
1013.10	0.186
1013.26	0.184
1013.43	0.185
1013.59	0.193
1013.76	0.185
1013.92	0.184
1014.09	0.183
1014.25	0.185
1014.42	0.185
1014.58	0.184
1014.75	0.186
1014.91	0.186
1015.08	0.188
1015.24	0.185
1015.41	0.186
1015.57	0.186
1015.73	0.184
1015.90	0.183
1016.06	0.184
1016.23	0.183
1016.39	0.183
1016.56	0.183
1016.72	0.181
1016.89	0.180
1017.05	0.183
1017.22	0.178
1017.38	0.178
1017.55	0.177
1017.71	0.179
1017.88	0.179
1018.04	0.179
1018.21	0.177
1018.37	0.176
1018.53	0.176
1018.70	0.175
1018.86	0.174
1019.03	0.177
1019.19	0.176
1019.36	0.176
1019.52	0.177
1019.69	0.177
1019.85	0.176
1020.01	0.176
1020.18	0.175
1020.34	0.175
1020.51	0.175
1020.67	0.176
1020.84	0.174
1021.00	0.175
1021.16	0.171
1021.33	0.172
1021.49	0.170
1021.66	0.172
1021.82	0.170
1021.98	0.170
1022.15	0.170
1022.31	0.169
1022.48	0.167
1022.64	0.169
1022.80	0.167
1022.97	0.166
1023.13	0.166
1023.30	0.165
1023.46	0.166
1023.62	0.162
1023.79	0.163
1023.95	0.164
1024.12	0.163
1024.28	0.162
1024.44	0.162
1024.61	0.161
1024.77	0.161
1024.93	0.160
1025.10	0.162
1025.26	0.160
1025.43	0.161
1025.59	0.157
1025.75	0.160
1025.92	0.159
1026.08	0.158
1026.24	0.158
1026.41	0.159
1026.57	0.157
1026.73	0.155
1026.90	0.156
1027.06	0.153
1027.23	0.155
1027.39	0.155
1027.55	0.156
1027.72	0.155
1027.88	0.155
1028.04	0.155
1028.21	0.156
1028.37	0.150
1028.53	0.156
1028.70	0.154
1028.86	0.153
1029.02	0.153
1029.19	0.154
1029.35	0.151
1029.51	0.151
1029.67	0.150
1029.84	0.151
1030.00	0.145
1030.16	0.146
1030.33	0.148
1030.49	0.145
1030.65	0.143
1030.82	0.159
1030.98	0.145
1031.14	0.145
1031.31	0.145
1031.47	0.143
1031.63	0.147
1031.79	0.147
1031.96	0.148
1032.12	0.149
1032.28	0.146
1032.45	0.151
1032.61	0.149
1032.77	0.148
1032.93	0.146
1033.10	0.147
1033.26	0.149
1033.42	0.146
1033.58	0.145
1033.75	0.146
1033.91	0.145
1034.07	0.148
1034.24	0.146
1034.40	0.143
1034.56	0.142
1034.72	0.142
1034.89	0.142
1035.05	0.139
1035.21	0.140
1035.37	0.139
1035.54	0.142
1035.70	0.140
1035.86	0.139
1036.02	0.140
1036.19	0.139
1036.35	0.138
1036.51	0.143
1036.67	0.142
1036.83	0.141
1037.00	0.140
1037.16	0.140
1037.32	0.142
1037.48	0.141
1037.65	0.145
1037.81	0.140
1037.97	0.140
1038.13	0.140
1038.29	0.138
1038.46	0.134
1038.62	0.139
1038.78	0.137
1038.94	0.133
1039.10	0.137
1039.27	0.133
1039.43	0.134
1039.59	0.135
1039.75	0.135
1039.91	0.133
1040.08	0.133
1040.24	0.136
1040.40	0.137
1040.56	0.136
1040.72	0.130
1040.89	0.132
1041.05	0.134
1041.21	0.132
1041.37	0.130
1041.53	0.135
1041.69	0.133
1041.86	0.132
1042.02	0.129
1042.18	0.130
1042.34	0.131
1042.50	0.135
1042.66	0.132
1042.83	0.131
1042.99	0.133
1043.15	0.128
1043.31	0.129
1043.47	0.134
1043.63	0.130
1043.79	0.130
1043.96	0.130
1044.12	0.134
1044.28	0.131
1044.44	0.134
1044.60	0.128
1044.76	0.126
1044.92	0.129
1045.09	0.129
1045.25	0.125
1045.41	0.127
1045.57	0.122
1045.73	0.124
1045.89	0.125
1046.05	0.127
1046.21	0.136
1046.38	0.127
1046.54	0.143
1046.70	0.133
1046.86	0.128
>>>>>End Processed Spectral Data<<<<<
