SpectraSuite Data File
++++++++++++++++++++++++++++++++++++
Date: Mon May 20 12:12:37 CDT 2013
User: Students
Dark Spectrum Present: Yes
Reference Spectrum Present: Yes
Number of Sampled Component Spectra: 1
Spectrometers: USB4H00887
Integration Time (usec): 60000 (USB4H00887)
Spectra Averaged: 5 (USB4H00887)
Boxcar Smoothing: 5 (USB4H00887)
Correct for Electrical Dark: No (USB4H00887)
Strobe/Lamp Enabled: No (USB4H00887)
Correct for Detector Non-linearity: No (USB4H00887)
Correct for Stray Light: No (USB4H00887)
Number of Pixels in Processed Spectrum: 3648
>>>>>Begin Processed Spectral Data<<<<<
345.83	-0.006
346.05	-0.006
346.26	-0.006
346.48	-0.000
346.70	0.228
346.92	0.064
347.14	0.040
347.35	0.042
347.57	0.202
347.79	-0.182
348.01	-0.138
348.23	-0.268
348.44	-0.000
348.66	0.204
348.88	-0.255
349.10	0.001
349.32	0.041
349.53	-0.019
349.75	-0.036
349.97	-0.032
350.19	-0.011
350.41	-0.064
350.62	0.367
350.84	-0.022
351.06	-0.032
351.28	-0.085
351.50	-0.255
351.71	-0.086
351.93	-0.048
352.15	-0.003
352.37	-0.022
352.58	-0.003
352.80	0.026
353.02	0.049
353.24	0.053
353.46	0.370
353.67	-0.147
353.89	0.060
354.11	0.026
354.33	0.039
354.54	0.054
354.76	0.085
354.98	0.103
355.20	0.090
355.41	0.059
355.63	0.118
355.85	0.056
356.07	1.111
356.28	0.076
356.50	0.149
356.72	0.047
356.94	0.154
357.15	0.226
357.37	-0.000
357.59	0.109
357.81	0.052
358.02	0.125
358.24	0.080
358.46	0.158
358.68	0.133
358.89	0.085
359.11	-0.000
359.33	0.085
359.55	-0.549
359.76	0.147
359.98	0.201
360.20	0.209
360.42	0.152
360.63	0.184
360.85	0.136
361.07	0.719
361.29	0.099
361.50	0.272
361.72	0.101
361.94	0.517
362.15	0.177
362.37	0.087
362.59	0.088
362.81	0.161
363.02	0.264
363.24	0.378
363.46	0.208
363.68	0.244
363.89	0.155
364.11	0.216
364.33	0.245
364.54	0.156
364.76	0.203
364.98	0.200
365.20	0.206
365.41	0.144
365.63	0.207
365.85	0.152
366.06	0.613
366.28	0.694
366.50	0.373
366.71	0.133
366.93	0.188
367.15	0.140
367.37	0.132
367.58	0.184
367.80	0.203
368.02	0.616
368.23	0.158
368.45	0.159
368.67	0.127
368.88	0.159
369.10	-0.000
369.32	0.187
369.53	0.127
369.75	0.211
369.97	0.479
370.19	0.265
370.40	0.099
370.62	0.305
370.84	0.104
371.05	0.865
371.27	0.147
371.49	0.183
371.70	0.193
371.92	0.314
372.14	0.137
372.35	0.152
372.57	0.175
372.79	0.443
373.00	0.105
373.22	0.187
373.44	0.165
373.65	0.120
373.87	0.165
374.09	0.630
374.30	0.120
374.52	0.124
374.74	0.087
374.95	0.368
375.17	0.119
375.39	-0.000
375.60	0.163
375.82	0.283
376.04	0.133
376.25	0.150
376.47	0.090
376.68	0.225
376.90	0.128
377.12	0.308
377.33	0.146
377.55	0.373
377.77	0.159
377.98	0.231
378.20	0.138
378.42	0.163
378.63	0.207
378.85	-0.000
379.07	0.157
379.28	0.689
379.50	0.399
379.71	0.192
379.93	0.128
380.15	0.180
380.36	0.269
380.58	0.192
380.80	0.551
381.01	0.167
381.23	0.131
381.44	0.140
381.66	0.149
381.88	0.156
382.09	-0.076
382.31	0.110
382.53	0.114
382.74	0.497
382.96	0.148
383.17	0.129
383.39	0.154
383.61	0.193
383.82	0.126
384.04	0.165
384.25	0.224
384.47	0.213
384.69	0.221
384.90	0.211
385.12	0.454
385.33	0.298
385.55	0.211
385.77	0.349
385.98	0.184
386.20	0.235
386.41	0.207
386.63	0.227
386.85	0.186
387.06	0.215
387.28	0.334
387.49	0.219
387.71	0.160
387.93	0.152
388.14	0.444
388.36	0.188
388.57	0.197
388.79	0.221
389.01	2.542
389.22	0.269
389.44	0.239
389.65	0.206
389.87	0.197
390.08	0.235
390.30	0.196
390.52	0.379
390.73	0.371
390.95	0.248
391.16	0.228
391.38	-0.000
391.59	0.283
391.81	0.240
392.03	0.219
392.24	0.260
392.46	0.211
392.67	0.170
392.89	0.230
393.10	0.359
393.32	0.241
393.53	0.289
393.75	0.192
393.97	0.214
394.18	0.292
394.40	0.248
394.61	0.261
394.83	0.229
395.04	0.274
395.26	0.184
395.47	0.283
395.69	0.235
395.91	0.246
396.12	0.286
396.34	0.287
396.55	0.192
396.77	0.282
396.98	0.974
397.20	0.335
397.41	0.378
397.63	0.263
397.84	0.232
398.06	0.222
398.27	0.228
398.49	0.262
398.71	0.191
398.92	0.218
399.14	0.274
399.35	0.341
399.57	0.315
399.78	0.223
400.00	0.231
400.21	0.278
400.43	0.225
400.64	0.231
400.86	0.446
401.07	0.271
401.29	0.230
401.50	0.247
401.72	0.334
401.93	0.228
402.15	0.268
402.36	0.239
402.58	0.202
402.79	0.232
403.01	0.378
403.22	0.295
403.44	0.211
403.65	0.318
403.87	0.318
404.08	0.256
404.30	0.382
404.51	0.231
404.73	0.275
404.94	0.242
405.16	0.240
405.37	0.181
405.59	0.302
405.80	0.191
406.02	0.234
406.23	0.251
406.45	0.275
406.66	0.297
406.88	0.205
407.09	0.288
407.31	0.245
407.52	0.289
407.74	0.252
407.95	0.289
408.17	0.279
408.38	0.291
408.60	0.198
408.81	0.313
409.03	0.231
409.24	0.232
409.45	0.271
409.67	0.255
409.88	0.238
410.10	0.289
410.31	0.258
410.53	0.251
410.74	0.337
410.96	0.332
411.17	0.342
411.39	0.286
411.60	0.262
411.82	0.289
412.03	0.282
412.24	0.267
412.46	0.369
412.67	0.311
412.89	0.311
413.10	0.309
413.32	0.291
413.53	0.325
413.75	0.325
413.96	0.254
414.17	0.328
414.39	0.324
414.60	0.275
414.82	0.333
415.03	0.273
415.25	0.291
415.46	0.214
415.68	0.280
415.89	0.429
416.10	0.380
416.32	0.242
416.53	0.271
416.75	0.263
416.96	0.298
417.18	0.270
417.39	0.255
417.60	0.262
417.82	0.345
418.03	0.314
418.25	0.264
418.46	0.276
418.67	0.259
418.89	0.273
419.10	0.285
419.32	0.360
419.53	0.332
419.75	0.293
419.96	0.265
420.17	0.315
420.39	0.290
420.60	0.305
420.82	0.349
421.03	0.306
421.24	0.266
421.46	0.278
421.67	0.296
421.89	0.264
422.10	0.281
422.31	0.271
422.53	0.340
422.74	0.276
422.96	0.230
423.17	0.249
423.38	0.283
423.60	0.251
423.81	0.300
424.03	0.266
424.24	0.285
424.45	0.274
424.67	0.277
424.88	0.259
425.09	0.278
425.31	0.262
425.52	0.273
425.74	0.295
425.95	0.308
426.16	0.257
426.38	0.287
426.59	0.273
426.80	0.310
427.02	0.317
427.23	0.260
427.45	0.312
427.66	0.306
427.87	0.259
428.09	0.268
428.30	0.286
428.51	0.279
428.73	0.295
428.94	0.267
429.15	0.257
429.37	0.245
429.58	0.256
429.79	0.240
430.01	0.270
430.22	0.270
430.44	0.273
430.65	0.253
430.86	0.269
431.08	0.259
431.29	0.247
431.50	0.279
431.72	0.327
431.93	0.291
432.14	0.243
432.36	0.261
432.57	0.263
432.78	0.271
433.00	0.257
433.21	0.250
433.42	0.290
433.64	0.257
433.85	0.274
434.06	0.238
434.28	0.246
434.49	0.246
434.70	0.247
434.92	0.245
435.13	0.255
435.34	0.259
435.56	0.254
435.77	0.253
435.98	0.296
436.20	0.268
436.41	0.245
436.62	0.241
436.83	0.262
437.05	0.279
437.26	0.262
437.47	0.239
437.69	0.251
437.90	0.235
438.11	0.231
438.33	0.244
438.54	0.249
438.75	0.289
438.97	0.287
439.18	0.245
439.39	0.252
439.60	0.260
439.82	0.250
440.03	0.233
440.24	0.286
440.46	0.246
440.67	0.239
440.88	0.247
441.10	0.237
441.31	0.236
441.52	0.249
441.73	0.266
441.95	0.249
442.16	0.238
442.37	0.305
442.58	0.240
442.80	0.239
443.01	0.277
443.22	0.266
443.44	0.241
443.65	0.260
443.86	0.257
444.07	0.264
444.29	0.245
444.50	0.279
444.71	0.239
444.92	0.229
445.14	0.262
445.35	0.266
445.56	0.231
445.78	0.250
445.99	0.253
446.20	0.230
446.41	0.247
446.63	0.242
446.84	0.232
447.05	0.232
447.26	0.256
447.48	0.235
447.69	0.233
447.90	0.249
448.11	0.237
448.33	0.242
448.54	0.247
448.75	0.252
448.96	0.254
449.18	0.261
449.39	0.245
449.60	0.239
449.81	0.258
450.03	0.237
450.24	0.248
450.45	0.239
450.66	0.235
450.87	0.240
451.09	0.231
451.30	0.229
451.51	0.241
451.72	0.244
451.94	0.250
452.15	0.261
452.36	0.240
452.57	0.244
452.78	0.241
453.00	0.244
453.21	0.235
453.42	0.227
453.63	0.244
453.85	0.238
454.06	0.236
454.27	0.255
454.48	0.243
454.69	0.230
454.91	0.238
455.12	0.224
455.33	0.238
455.54	0.239
455.75	0.238
455.97	0.241
456.18	0.242
456.39	0.241
456.60	0.244
456.81	0.234
457.03	0.232
457.24	0.233
457.45	0.242
457.66	0.233
457.87	0.227
458.09	0.228
458.30	0.213
458.51	0.231
458.72	0.234
458.93	0.234
459.15	0.220
459.36	0.230
459.57	0.233
459.78	0.241
459.99	0.230
460.20	0.223
460.42	0.233
460.63	0.225
460.84	0.221
461.05	0.223
461.26	0.231
461.47	0.219
461.69	0.226
461.90	0.230
462.11	0.223
462.32	0.232
462.53	0.227
462.74	0.239
462.96	0.226
463.17	0.223
463.38	0.227
463.59	0.241
463.80	0.220
464.01	0.224
464.23	0.233
464.44	0.230
464.65	0.228
464.86	0.229
465.07	0.231
465.28	0.226
465.49	0.230
465.71	0.225
465.92	0.230
466.13	0.238
466.34	0.230
466.55	0.236
466.76	0.229
466.97	0.233
467.19	0.233
467.40	0.238
467.61	0.238
467.82	0.228
468.03	0.225
468.24	0.233
468.45	0.234
468.66	0.231
468.88	0.230
469.09	0.231
469.30	0.233
469.51	0.226
469.72	0.229
469.93	0.225
470.14	0.224
470.35	0.233
470.57	0.229
470.78	0.224
470.99	0.238
471.20	0.233
471.41	0.229
471.62	0.235
471.83	0.230
472.04	0.231
472.25	0.235
472.47	0.226
472.68	0.226
472.89	0.226
473.10	0.230
473.31	0.224
473.52	0.229
473.73	0.230
473.94	0.224
474.15	0.227
474.36	0.228
474.57	0.230
474.79	0.228
475.00	0.228
475.21	0.227
475.42	0.235
475.63	0.226
475.84	0.229
476.05	0.230
476.26	0.225
476.47	0.228
476.68	0.232
476.89	0.226
477.10	0.230
477.32	0.229
477.53	0.233
477.74	0.225
477.95	0.228
478.16	0.224
478.37	0.226
478.58	0.227
478.79	0.228
479.00	0.227
479.21	0.223
479.42	0.226
479.63	0.226
479.84	0.223
480.05	0.224
480.26	0.227
480.47	0.229
480.69	0.230
480.90	0.227
481.11	0.227
481.32	0.233
481.53	0.227
481.74	0.232
481.95	0.230
482.16	0.231
482.37	0.231
482.58	0.227
482.79	0.229
483.00	0.231
483.21	0.226
483.42	0.222
483.63	0.230
483.84	0.233
484.05	0.231
484.26	0.229
484.47	0.229
484.68	0.226
484.89	0.227
485.10	0.231
485.31	0.230
485.52	0.231
485.73	0.232
485.94	0.234
486.15	0.230
486.37	0.232
486.58	0.229
486.79	0.230
487.00	0.235
487.21	0.236
487.42	0.235
487.63	0.235
487.84	0.237
488.05	0.236
488.26	0.233
488.47	0.234
488.68	0.236
488.89	0.234
489.10	0.234
489.31	0.234
489.52	0.236
489.73	0.233
489.94	0.235
490.15	0.231
490.36	0.233
490.57	0.231
490.78	0.230
490.99	0.232
491.20	0.238
491.41	0.235
491.62	0.231
491.83	0.233
492.04	0.232
492.25	0.233
492.45	0.234
492.66	0.236
492.87	0.234
493.08	0.233
493.29	0.233
493.50	0.232
493.71	0.233
493.92	0.234
494.13	0.235
494.34	0.238
494.55	0.239
494.76	0.240
494.97	0.240
495.18	0.237
495.39	0.239
495.60	0.234
495.81	0.234
496.02	0.235
496.23	0.234
496.44	0.237
496.65	0.236
496.86	0.237
497.07	0.239
497.28	0.238
497.49	0.234
497.70	0.233
497.91	0.235
498.12	0.234
498.32	0.238
498.53	0.237
498.74	0.237
498.95	0.239
499.16	0.236
499.37	0.237
499.58	0.238
499.79	0.241
500.00	0.241
500.21	0.243
500.42	0.239
500.63	0.238
500.84	0.241
501.05	0.239
501.26	0.241
501.46	0.243
501.67	0.240
501.88	0.241
502.09	0.239
502.30	0.240
502.51	0.244
502.72	0.241
502.93	0.243
503.14	0.244
503.35	0.242
503.56	0.242
503.77	0.245
503.97	0.243
504.18	0.243
504.39	0.246
504.60	0.243
504.81	0.245
505.02	0.244
505.23	0.244
505.44	0.243
505.65	0.243
505.86	0.241
506.07	0.247
506.27	0.244
506.48	0.245
506.69	0.243
506.90	0.245
507.11	0.245
507.32	0.244
507.53	0.244
507.74	0.243
507.95	0.245
508.15	0.245
508.36	0.245
508.57	0.246
508.78	0.245
508.99	0.246
509.20	0.245
509.41	0.247
509.62	0.246
509.82	0.247
510.03	0.248
510.24	0.248
510.45	0.250
510.66	0.250
510.87	0.249
511.08	0.247
511.29	0.250
511.49	0.247
511.70	0.250
511.91	0.245
512.12	0.245
512.33	0.248
512.54	0.249
512.75	0.248
512.95	0.250
513.16	0.250
513.37	0.247
513.58	0.251
513.79	0.248
514.00	0.250
514.20	0.252
514.41	0.251
514.62	0.248
514.83	0.251
515.04	0.250
515.25	0.248
515.46	0.249
515.66	0.250
515.87	0.251
516.08	0.248
516.29	0.250
516.50	0.248
516.71	0.248
516.91	0.249
517.12	0.250
517.33	0.250
517.54	0.249
517.75	0.250
517.95	0.251
518.16	0.252
518.37	0.250
518.58	0.251
518.79	0.249
519.00	0.252
519.20	0.253
519.41	0.251
519.62	0.252
519.83	0.253
520.04	0.251
520.24	0.250
520.45	0.251
520.66	0.252
520.87	0.249
521.08	0.249
521.28	0.250
521.49	0.251
521.70	0.249
521.91	0.251
522.12	0.249
522.32	0.251
522.53	0.250
522.74	0.250
522.95	0.251
523.16	0.251
523.36	0.252
523.57	0.250
523.78	0.250
523.99	0.251
524.20	0.250
524.40	0.251
524.61	0.252
524.82	0.250
525.03	0.251
525.23	0.251
525.44	0.250
525.65	0.251
525.86	0.253
526.06	0.250
526.27	0.250
526.48	0.252
526.69	0.251
526.90	0.252
527.10	0.255
527.31	0.250
527.52	0.250
527.73	0.249
527.93	0.251
528.14	0.252
528.35	0.251
528.56	0.252
528.76	0.251
528.97	0.250
529.18	0.249
529.39	0.250
529.59	0.250
529.80	0.255
530.01	0.252
530.22	0.252
530.42	0.248
530.63	0.251
530.84	0.249
531.05	0.251
531.25	0.252
531.46	0.252
531.67	0.250
531.88	0.253
532.08	0.251
532.29	0.250
532.50	0.249
532.70	0.249
532.91	0.249
533.12	0.250
533.33	0.252
533.53	0.248
533.74	0.249
533.95	0.250
534.15	0.248
534.36	0.249
534.57	0.248
534.78	0.249
534.98	0.251
535.19	0.247
535.40	0.247
535.60	0.251
535.81	0.248
536.02	0.249
536.23	0.248
536.43	0.249
536.64	0.248
536.85	0.250
537.05	0.251
537.26	0.248
537.47	0.249
537.67	0.248
537.88	0.248
538.09	0.250
538.30	0.248
538.50	0.247
538.71	0.249
538.92	0.248
539.12	0.248
539.33	0.248
539.54	0.248
539.74	0.250
539.95	0.249
540.16	0.248
540.36	0.247
540.57	0.248
540.78	0.247
540.98	0.248
541.19	0.247
541.40	0.245
541.60	0.247
541.81	0.247
542.02	0.248
542.22	0.247
542.43	0.247
542.64	0.246
542.84	0.246
543.05	0.246
543.26	0.247
543.46	0.248
543.67	0.249
543.88	0.249
544.08	0.248
544.29	0.247
544.50	0.247
544.70	0.248
544.91	0.247
545.12	0.248
545.32	0.247
545.53	0.248
545.74	0.247
545.94	0.246
546.15	0.246
546.35	0.246
546.56	0.247
546.77	0.247
546.97	0.247
547.18	0.246
547.39	0.247
547.59	0.248
547.80	0.247
548.01	0.249
548.21	0.249
548.42	0.248
548.62	0.248
548.83	0.249
549.04	0.248
549.24	0.247
549.45	0.247
549.65	0.247
549.86	0.247
550.07	0.247
550.27	0.247
550.48	0.250
550.69	0.246
550.89	0.247
551.10	0.247
551.30	0.247
551.51	0.248
551.72	0.245
551.92	0.246
552.13	0.247
552.33	0.248
552.54	0.247
552.75	0.245
552.95	0.246
553.16	0.246
553.36	0.245
553.57	0.245
553.78	0.246
553.98	0.246
554.19	0.244
554.39	0.244
554.60	0.246
554.80	0.246
555.01	0.245
555.22	0.246
555.42	0.246
555.63	0.245
555.83	0.248
556.04	0.246
556.25	0.248
556.45	0.246
556.66	0.246
556.86	0.248
557.07	0.248
557.27	0.248
557.48	0.247
557.68	0.247
557.89	0.248
558.10	0.247
558.30	0.246
558.51	0.246
558.71	0.246
558.92	0.245
559.12	0.247
559.33	0.249
559.54	0.248
559.74	0.246
559.95	0.247
560.15	0.247
560.36	0.247
560.56	0.246
560.77	0.247
560.97	0.248
561.18	0.246
561.38	0.246
561.59	0.248
561.79	0.247
562.00	0.247
562.21	0.246
562.41	0.246
562.62	0.246
562.82	0.246
563.03	0.246
563.23	0.246
563.44	0.247
563.64	0.246
563.85	0.248
564.05	0.246
564.26	0.246
564.46	0.247
564.67	0.248
564.87	0.247
565.08	0.245
565.28	0.246
565.49	0.247
565.69	0.246
565.90	0.245
566.10	0.247
566.31	0.245
566.51	0.247
566.72	0.247
566.92	0.245
567.13	0.245
567.33	0.246
567.54	0.246
567.74	0.246
567.95	0.244
568.15	0.246
568.36	0.246
568.56	0.246
568.77	0.244
568.97	0.245
569.18	0.246
569.38	0.246
569.59	0.247
569.79	0.247
570.00	0.247
570.20	0.246
570.41	0.246
570.61	0.246
570.82	0.247
571.02	0.246
571.23	0.247
571.43	0.245
571.64	0.245
571.84	0.246
572.05	0.245
572.25	0.246
572.45	0.246
572.66	0.244
572.86	0.244
573.07	0.244
573.27	0.245
573.48	0.245
573.68	0.243
573.89	0.244
574.09	0.245
574.30	0.245
574.50	0.244
574.70	0.245
574.91	0.245
575.11	0.246
575.32	0.246
575.52	0.244
575.73	0.245
575.93	0.246
576.14	0.245
576.34	0.245
576.54	0.245
576.75	0.244
576.95	0.244
577.16	0.244
577.36	0.244
577.57	0.244
577.77	0.243
577.97	0.242
578.18	0.244
578.38	0.242
578.59	0.242
578.79	0.241
579.00	0.242
579.20	0.242
579.40	0.242
579.61	0.242
579.81	0.242
580.02	0.241
580.22	0.242
580.42	0.241
580.63	0.242
580.83	0.242
581.04	0.242
581.24	0.242
581.45	0.242
581.65	0.243
581.85	0.243
582.06	0.242
582.26	0.242
582.47	0.242
582.67	0.243
582.87	0.243
583.08	0.241
583.28	0.242
583.48	0.241
583.69	0.240
583.89	0.240
584.10	0.242
584.30	0.241
584.50	0.240
584.71	0.241
584.91	0.241
585.12	0.240
585.32	0.242
585.52	0.240
585.73	0.240
585.93	0.240
586.13	0.241
586.34	0.241
586.54	0.241
586.75	0.240
586.95	0.240
587.15	0.240
587.36	0.240
587.56	0.239
587.76	0.239
587.97	0.238
588.17	0.238
588.37	0.239
588.58	0.239
588.78	0.237
588.98	0.239
589.19	0.238
589.39	0.237
589.60	0.239
589.80	0.238
590.00	0.238
590.21	0.239
590.41	0.238
590.61	0.238
590.82	0.238
591.02	0.238
591.22	0.236
591.43	0.238
591.63	0.237
591.83	0.237
592.04	0.236
592.24	0.237
592.44	0.236
592.65	0.235
592.85	0.236
593.05	0.237
593.26	0.236
593.46	0.237
593.66	0.237
593.86	0.236
594.07	0.235
594.27	0.236
594.47	0.236
594.68	0.236
594.88	0.237
595.08	0.237
595.29	0.238
595.49	0.236
595.69	0.236
595.90	0.236
596.10	0.237
596.30	0.236
596.50	0.236
596.71	0.236
596.91	0.235
597.11	0.235
597.32	0.235
597.52	0.235
597.72	0.235
597.93	0.235
598.13	0.233
598.33	0.234
598.53	0.234
598.74	0.234
598.94	0.234
599.14	0.235
599.35	0.235
599.55	0.235
599.75	0.235
599.95	0.234
600.16	0.235
600.36	0.234
600.56	0.234
600.76	0.233
600.97	0.232
601.17	0.232
601.37	0.233
601.58	0.232
601.78	0.233
601.98	0.233
602.18	0.232
602.39	0.232
602.59	0.233
602.79	0.233
602.99	0.233
603.20	0.233
603.40	0.233
603.60	0.233
603.80	0.233
604.01	0.232
604.21	0.231
604.41	0.231
604.61	0.231
604.82	0.231
605.02	0.232
605.22	0.231
605.42	0.231
605.62	0.231
605.83	0.230
606.03	0.230
606.23	0.231
606.43	0.231
606.64	0.231
606.84	0.231
607.04	0.230
607.24	0.231
607.45	0.231
607.65	0.229
607.85	0.231
608.05	0.229
608.25	0.229
608.46	0.228
608.66	0.229
608.86	0.228
609.06	0.226
609.26	0.226
609.47	0.227
609.67	0.226
609.87	0.228
610.07	0.227
610.28	0.226
610.48	0.227
610.68	0.228
610.88	0.227
611.08	0.228
611.29	0.227
611.49	0.226
611.69	0.227
611.89	0.225
612.09	0.225
612.29	0.225
612.50	0.225
612.70	0.225
612.90	0.224
613.10	0.224
613.30	0.224
613.51	0.224
613.71	0.224
613.91	0.229
614.11	0.224
614.31	0.224
614.51	0.224
614.72	0.223
614.92	0.222
615.12	0.223
615.32	0.224
615.52	0.223
615.72	0.224
615.93	0.223
616.13	0.223
616.33	0.223
616.53	0.222
616.73	0.222
616.93	0.221
617.14	0.222
617.34	0.221
617.54	0.221
617.74	0.221
617.94	0.220
618.14	0.220
618.34	0.220
618.55	0.220
618.75	0.221
618.95	0.221
619.15	0.221
619.35	0.220
619.55	0.219
619.75	0.220
619.96	0.219
620.16	0.220
620.36	0.219
620.56	0.219
620.76	0.219
620.96	0.218
621.16	0.219
621.36	0.218
621.57	0.219
621.77	0.219
621.97	0.218
622.17	0.218
622.37	0.218
622.57	0.219
622.77	0.218
622.97	0.217
623.18	0.217
623.38	0.218
623.58	0.217
623.78	0.217
623.98	0.217
624.18	0.216
624.38	0.216
624.58	0.217
624.78	0.217
624.98	0.216
625.19	0.216
625.39	0.216
625.59	0.215
625.79	0.215
625.99	0.215
626.19	0.215
626.39	0.215
626.59	0.214
626.79	0.214
626.99	0.214
627.19	0.214
627.40	0.215
627.60	0.214
627.80	0.215
628.00	0.214
628.20	0.213
628.40	0.213
628.60	0.213
628.80	0.212
629.00	0.213
629.20	0.212
629.40	0.212
629.60	0.210
629.80	0.211
630.00	0.210
630.20	0.210
630.41	0.209
630.61	0.209
630.81	0.209
631.01	0.209
631.21	0.208
631.41	0.208
631.61	0.209
631.81	0.208
632.01	0.208
632.21	0.208
632.41	0.207
632.61	0.207
632.81	0.207
633.01	0.208
633.21	0.208
633.41	0.209
633.61	0.207
633.81	0.207
634.01	0.207
634.21	0.207
634.41	0.206
634.61	0.207
634.81	0.206
635.01	0.206
635.22	0.207
635.42	0.206
635.62	0.206
635.82	0.206
636.02	0.206
636.22	0.205
636.42	0.204
636.62	0.205
636.82	0.204
637.02	0.204
637.22	0.204
637.42	0.204
637.62	0.202
637.82	0.203
638.02	0.202
638.22	0.202
638.42	0.201
638.62	0.200
638.82	0.200
639.02	0.200
639.22	0.200
639.42	0.199
639.62	0.199
639.82	0.198
640.02	0.198
640.22	0.198
640.42	0.198
640.62	0.198
640.82	0.199
641.02	0.197
641.22	0.198
641.42	0.197
641.61	0.198
641.81	0.198
642.01	0.197
642.21	0.198
642.41	0.198
642.61	0.197
642.81	0.196
643.01	0.196
643.21	0.196
643.41	0.196
643.61	0.196
643.81	0.195
644.01	0.193
644.21	0.193
644.41	0.194
644.61	0.193
644.81	0.194
645.01	0.194
645.21	0.193
645.41	0.193
645.61	0.192
645.81	0.192
646.01	0.191
646.21	0.193
646.40	0.192
646.60	0.192
646.80	0.193
647.00	0.192
647.20	0.191
647.40	0.191
647.60	0.191
647.80	0.190
648.00	0.191
648.20	0.190
648.40	0.190
648.60	0.189
648.80	0.189
649.00	0.189
649.20	0.189
649.39	0.188
649.59	0.188
649.79	0.188
649.99	0.188
650.19	0.188
650.39	0.187
650.59	0.188
650.79	0.187
650.99	0.187
651.19	0.186
651.39	0.186
651.58	0.186
651.78	0.185
651.98	0.185
652.18	0.185
652.38	0.184
652.58	0.184
652.78	0.183
652.98	0.183
653.18	0.183
653.38	0.183
653.57	0.183
653.77	0.183
653.97	0.182
654.17	0.182
654.37	0.181
654.57	0.181
654.77	0.181
654.97	0.181
655.16	0.181
655.36	0.180
655.56	0.180
655.76	0.179
655.96	0.180
656.16	0.178
656.36	0.179
656.56	0.178
656.75	0.178
656.95	0.178
657.15	0.178
657.35	0.177
657.55	0.177
657.75	0.177
657.95	0.177
658.14	0.176
658.34	0.176
658.54	0.176
658.74	0.176
658.94	0.175
659.14	0.175
659.34	0.175
659.53	0.174
659.73	0.174
659.93	0.173
660.13	0.173
660.33	0.174
660.53	0.173
660.72	0.174
660.92	0.173
661.12	0.172
661.32	0.173
661.52	0.172
661.72	0.172
661.91	0.171
662.11	0.171
662.31	0.171
662.51	0.170
662.71	0.170
662.90	0.169
663.10	0.169
663.30	0.169
663.50	0.169
663.70	0.168
663.90	0.168
664.09	0.168
664.29	0.167
664.49	0.167
664.69	0.167
664.89	0.167
665.08	0.167
665.28	0.166
665.48	0.166
665.68	0.165
665.88	0.165
666.07	0.165
666.27	0.165
666.47	0.165
666.67	0.165
666.87	0.164
667.06	0.164
667.26	0.163
667.46	0.163
667.66	0.163
667.85	0.163
668.05	0.163
668.25	0.163
668.45	0.162
668.65	0.162
668.84	0.161
669.04	0.161
669.24	0.160
669.44	0.160
669.63	0.159
669.83	0.159
670.03	0.159
670.23	0.158
670.42	0.158
670.62	0.157
670.82	0.157
671.02	0.157
671.22	0.156
671.41	0.156
671.61	0.157
671.81	0.157
672.01	0.157
672.20	0.156
672.40	0.156
672.60	0.155
672.80	0.156
672.99	0.155
673.19	0.155
673.39	0.155
673.58	0.154
673.78	0.154
673.98	0.153
674.18	0.153
674.37	0.152
674.57	0.152
674.77	0.152
674.97	0.152
675.16	0.152
675.36	0.151
675.56	0.151
675.75	0.151
675.95	0.150
676.15	0.150
676.35	0.150
676.54	0.150
676.74	0.149
676.94	0.150
677.13	0.148
677.33	0.148
677.53	0.149
677.73	0.149
677.92	0.148
678.12	0.148
678.32	0.147
678.51	0.147
678.71	0.147
678.91	0.146
679.11	0.146
679.30	0.146
679.50	0.146
679.70	0.145
679.89	0.145
680.09	0.145
680.29	0.144
680.48	0.144
680.68	0.144
680.88	0.144
681.07	0.144
681.27	0.143
681.47	0.143
681.66	0.143
681.86	0.142
682.06	0.142
682.25	0.142
682.45	0.142
682.65	0.141
682.84	0.141
683.04	0.141
683.24	0.140
683.43	0.140
683.63	0.140
683.83	0.140
684.02	0.140
684.22	0.139
684.42	0.139
684.61	0.139
684.81	0.139
685.01	0.139
685.20	0.138
685.40	0.138
685.60	0.138
685.79	0.138
685.99	0.138
686.19	0.138
686.38	0.137
686.58	0.137
686.77	0.137
686.97	0.137
687.17	0.137
687.36	0.137
687.56	0.136
687.76	0.135
687.95	0.135
688.15	0.135
688.34	0.135
688.54	0.134
688.74	0.134
688.93	0.134
689.13	0.134
689.33	0.134
689.52	0.133
689.72	0.133
689.91	0.133
690.11	0.132
690.31	0.132
690.50	0.132
690.70	0.133
690.89	0.132
691.09	0.132
691.29	0.132
691.48	0.131
691.68	0.131
691.87	0.131
692.07	0.131
692.27	0.131
692.46	0.131
692.66	0.130
692.85	0.129
693.05	0.129
693.25	0.129
693.44	0.129
693.64	0.129
693.83	0.129
694.03	0.128
694.22	0.127
694.42	0.127
694.62	0.127
694.81	0.127
695.01	0.127
695.20	0.127
695.40	0.126
695.59	0.127
695.79	0.126
695.99	0.126
696.18	0.126
696.38	0.126
696.57	0.126
696.77	0.125
696.96	0.126
697.16	0.125
697.36	0.124
697.55	0.124
697.75	0.124
697.94	0.124
698.14	0.124
698.33	0.123
698.53	0.123
698.72	0.122
698.92	0.122
699.11	0.122
699.31	0.122
699.51	0.122
699.70	0.122
699.90	0.122
700.09	0.122
700.29	0.121
700.48	0.121
700.68	0.120
700.87	0.120
701.07	0.120
701.26	0.119
701.46	0.119
701.65	0.119
701.85	0.118
702.04	0.118
702.24	0.118
702.43	0.118
702.63	0.118
702.82	0.118
703.02	0.117
703.21	0.117
703.41	0.117
703.60	0.117
703.80	0.117
703.99	0.117
704.19	0.117
704.38	0.116
704.58	0.116
704.77	0.116
704.97	0.116
705.16	0.116
705.36	0.116
705.55	0.116
705.75	0.115
705.94	0.115
706.14	0.115
706.33	0.115
706.53	0.115
706.72	0.115
706.92	0.114
707.11	0.114
707.31	0.114
707.50	0.114
707.70	0.114
707.89	0.114
708.09	0.114
708.28	0.114
708.48	0.114
708.67	0.113
708.86	0.113
709.06	0.113
709.25	0.113
709.45	0.113
709.64	0.112
709.84	0.112
710.03	0.112
710.23	0.112
710.42	0.111
710.62	0.111
710.81	0.111
711.00	0.111
711.20	0.111
711.39	0.110
711.59	0.110
711.78	0.111
711.98	0.110
712.17	0.110
712.37	0.110
712.56	0.110
712.75	0.110
712.95	0.110
713.14	0.110
713.34	0.110
713.53	0.110
713.73	0.110
713.92	0.110
714.11	0.110
714.31	0.110
714.50	0.109
714.70	0.109
714.89	0.109
715.08	0.109
715.28	0.109
715.47	0.108
715.67	0.109
715.86	0.108
716.06	0.109
716.25	0.108
716.44	0.108
716.64	0.108
716.83	0.107
717.03	0.107
717.22	0.107
717.41	0.107
717.61	0.106
717.80	0.107
717.99	0.106
718.19	0.106
718.38	0.106
718.58	0.105
718.77	0.105
718.96	0.105
719.16	0.105
719.35	0.105
719.55	0.104
719.74	0.104
719.93	0.104
720.13	0.103
720.32	0.103
720.51	0.103
720.71	0.104
720.90	0.104
721.10	0.104
721.29	0.104
721.48	0.103
721.68	0.103
721.87	0.103
722.06	0.103
722.26	0.104
722.45	0.103
722.64	0.103
722.84	0.103
723.03	0.103
723.22	0.103
723.42	0.103
723.61	0.103
723.80	0.103
724.00	0.103
724.19	0.103
724.38	0.103
724.58	0.103
724.77	0.102
724.96	0.102
725.16	0.102
725.35	0.102
725.54	0.102
725.74	0.102
725.93	0.102
726.12	0.102
726.32	0.102
726.51	0.102
726.70	0.101
726.90	0.102
727.09	0.101
727.28	0.101
727.48	0.101
727.67	0.101
727.86	0.101
728.06	0.101
728.25	0.100
728.44	0.101
728.64	0.101
728.83	0.101
729.02	0.101
729.21	0.101
729.41	0.101
729.60	0.101
729.79	0.101
729.99	0.101
730.18	0.101
730.37	0.101
730.56	0.100
730.76	0.100
730.95	0.100
731.14	0.100
731.34	0.100
731.53	0.100
731.72	0.100
731.91	0.100
732.11	0.100
732.30	0.100
732.49	0.100
732.69	0.100
732.88	0.100
733.07	0.100
733.26	0.101
733.46	0.100
733.65	0.100
733.84	0.099
734.03	0.100
734.23	0.100
734.42	0.100
734.61	0.100
734.80	0.100
735.00	0.100
735.19	0.100
735.38	0.100
735.57	0.100
735.77	0.100
735.96	0.100
736.15	0.100
736.34	0.099
736.54	0.099
736.73	0.099
736.92	0.099
737.11	0.099
737.31	0.099
737.50	0.099
737.69	0.099
737.88	0.099
738.07	0.098
738.27	0.098
738.46	0.098
738.65	0.098
738.84	0.098
739.04	0.098
739.23	0.098
739.42	0.098
739.61	0.098
739.80	0.097
740.00	0.098
740.19	0.098
740.38	0.097
740.57	0.097
740.76	0.097
740.96	0.097
741.15	0.097
741.34	0.097
741.53	0.097
741.72	0.096
741.92	0.096
742.11	0.095
742.30	0.095
742.49	0.096
742.68	0.096
742.88	0.096
743.07	0.096
743.26	0.096
743.45	0.096
743.64	0.095
743.84	0.095
744.03	0.095
744.22	0.095
744.41	0.095
744.60	0.094
744.79	0.095
744.99	0.094
745.18	0.094
745.37	0.094
745.56	0.094
745.75	0.094
745.94	0.094
746.14	0.094
746.33	0.094
746.52	0.094
746.71	0.094
746.90	0.094
747.09	0.094
747.28	0.093
747.48	0.093
747.67	0.093
747.86	0.093
748.05	0.093
748.24	0.092
748.43	0.092
748.62	0.092
748.82	0.092
749.01	0.092
749.20	0.091
749.39	0.091
749.58	0.091
749.77	0.091
749.96	0.091
750.16	0.092
750.35	0.092
750.54	0.091
750.73	0.091
750.92	0.091
751.11	0.091
751.30	0.091
751.49	0.091
751.68	0.091
751.88	0.091
752.07	0.090
752.26	0.091
752.45	0.090
752.64	0.090
752.83	0.091
753.02	0.090
753.21	0.090
753.40	0.090
753.60	0.090
753.79	0.089
753.98	0.089
754.17	0.089
754.36	0.089
754.55	0.089
754.74	0.089
754.93	0.089
755.12	0.089
755.31	0.089
755.50	0.089
755.70	0.089
755.89	0.089
756.08	0.089
756.27	0.088
756.46	0.088
756.65	0.088
756.84	0.088
757.03	0.088
757.22	0.087
757.41	0.088
757.60	0.087
757.79	0.088
757.98	0.088
758.17	0.088
758.36	0.088
758.56	0.087
758.75	0.087
758.94	0.087
759.13	0.087
759.32	0.087
759.51	0.086
759.70	0.087
759.89	0.086
760.08	0.086
760.27	0.086
760.46	0.086
760.65	0.087
760.84	0.086
761.03	0.086
761.22	0.086
761.41	0.086
761.60	0.086
761.79	0.085
761.98	0.086
762.17	0.086
762.36	0.085
762.55	0.085
762.74	0.085
762.93	0.085
763.12	0.085
763.31	0.084
763.50	0.084
763.69	0.085
763.88	0.085
764.07	0.084
764.26	0.084
764.45	0.084
764.64	0.085
764.83	0.085
765.02	0.085
765.21	0.084
765.40	0.085
765.59	0.084
765.78	0.084
765.97	0.084
766.16	0.084
766.35	0.084
766.54	0.084
766.73	0.084
766.92	0.084
767.11	0.083
767.30	0.084
767.49	0.084
767.68	0.084
767.87	0.084
768.06	0.084
768.25	0.084
768.44	0.084
768.63	0.083
768.82	0.083
769.01	0.083
769.20	0.083
769.39	0.083
769.58	0.083
769.77	0.083
769.96	0.083
770.15	0.083
770.34	0.083
770.53	0.082
770.72	0.082
770.91	0.082
771.10	0.082
771.29	0.082
771.47	0.082
771.66	0.081
771.85	0.082
772.04	0.081
772.23	0.081
772.42	0.081
772.61	0.081
772.80	0.081
772.99	0.081
773.18	0.080
773.37	0.081
773.56	0.081
773.75	0.081
773.94	0.081
774.13	0.081
774.31	0.081
774.50	0.081
774.69	0.081
774.88	0.081
775.07	0.081
775.26	0.081
775.45	0.080
775.64	0.080
775.83	0.079
776.02	0.079
776.21	0.079
776.40	0.079
776.58	0.079
776.77	0.079
776.96	0.079
777.15	0.080
777.34	0.080
777.53	0.080
777.72	0.080
777.91	0.080
778.10	0.080
778.28	0.080
778.47	0.080
778.66	0.079
778.85	0.079
779.04	0.078
779.23	0.078
779.42	0.078
779.61	0.078
779.79	0.077
779.98	0.077
780.17	0.077
780.36	0.077
780.55	0.077
780.74	0.077
780.93	0.077
781.12	0.077
781.30	0.077
781.49	0.077
781.68	0.077
781.87	0.077
782.06	0.077
782.25	0.077
782.44	0.077
782.62	0.077
782.81	0.078
783.00	0.078
783.19	0.077
783.38	0.077
783.57	0.077
783.75	0.077
783.94	0.077
784.13	0.077
784.32	0.076
784.51	0.076
784.70	0.076
784.88	0.076
785.07	0.076
785.26	0.076
785.45	0.076
785.64	0.075
785.83	0.076
786.01	0.075
786.20	0.075
786.39	0.076
786.58	0.075
786.77	0.075
786.95	0.075
787.14	0.075
787.33	0.075
787.52	0.076
787.71	0.076
787.90	0.075
788.08	0.076
788.27	0.075
788.46	0.075
788.65	0.075
788.84	0.075
789.02	0.075
789.21	0.075
789.40	0.075
789.59	0.075
789.77	0.075
789.96	0.075
790.15	0.075
790.34	0.075
790.53	0.075
790.71	0.075
790.90	0.074
791.09	0.074
791.28	0.075
791.46	0.075
791.65	0.074
791.84	0.074
792.03	0.074
792.22	0.074
792.40	0.074
792.59	0.074
792.78	0.074
792.97	0.075
793.15	0.074
793.34	0.074
793.53	0.074
793.72	0.074
793.90	0.073
794.09	0.073
794.28	0.073
794.47	0.073
794.65	0.072
794.84	0.072
795.03	0.072
795.22	0.072
795.40	0.072
795.59	0.072
795.78	0.072
795.97	0.073
796.15	0.073
796.34	0.073
796.53	0.074
796.71	0.074
796.90	0.074
797.09	0.074
797.28	0.074
797.46	0.074
797.65	0.074
797.84	0.073
798.02	0.073
798.21	0.073
798.40	0.073
798.59	0.072
798.77	0.072
798.96	0.072
799.15	0.072
799.33	0.072
799.52	0.072
799.71	0.072
799.90	0.072
800.08	0.072
800.27	0.072
800.46	0.071
800.64	0.072
800.83	0.072
801.02	0.072
801.20	0.072
801.39	0.072
801.58	0.072
801.76	0.072
801.95	0.072
802.14	0.072
802.32	0.072
802.51	0.072
802.70	0.072
802.88	0.071
803.07	0.072
803.26	0.071
803.44	0.071
803.63	0.071
803.82	0.071
804.00	0.071
804.19	0.071
804.38	0.071
804.56	0.071
804.75	0.071
804.94	0.071
805.12	0.071
805.31	0.071
805.50	0.072
805.68	0.071
805.87	0.071
806.06	0.071
806.24	0.071
806.43	0.071
806.62	0.071
806.80	0.071
806.99	0.071
807.17	0.071
807.36	0.070
807.55	0.070
807.73	0.070
807.92	0.071
808.11	0.071
808.29	0.071
808.48	0.070
808.66	0.070
808.85	0.070
809.04	0.070
809.22	0.070
809.41	0.070
809.59	0.070
809.78	0.070
809.97	0.069
810.15	0.069
810.34	0.069
810.53	0.069
810.71	0.069
810.90	0.069
811.08	0.069
811.27	0.069
811.45	0.069
811.64	0.069
811.83	0.069
812.01	0.069
812.20	0.069
812.38	0.069
812.57	0.069
812.76	0.069
812.94	0.069
813.13	0.069
813.31	0.069
813.50	0.069
813.68	0.069
813.87	0.069
814.06	0.069
814.24	0.069
814.43	0.069
814.61	0.069
814.80	0.069
814.98	0.069
815.17	0.069
815.36	0.069
815.54	0.069
815.73	0.069
815.91	0.069
816.10	0.069
816.28	0.069
816.47	0.069
816.65	0.069
816.84	0.069
817.03	0.069
817.21	0.069
817.40	0.070
817.58	0.070
817.77	0.070
817.95	0.070
818.14	0.070
818.32	0.070
818.51	0.070
818.69	0.070
818.88	0.070
819.06	0.070
819.25	0.070
819.43	0.070
819.62	0.070
819.80	0.069
819.99	0.070
820.18	0.070
820.36	0.069
820.55	0.069
820.73	0.069
820.92	0.069
821.10	0.069
821.29	0.069
821.47	0.069
821.66	0.069
821.84	0.069
822.03	0.069
822.21	0.069
822.40	0.069
822.58	0.069
822.77	0.069
822.95	0.070
823.14	0.070
823.32	0.070
823.50	0.070
823.69	0.070
823.87	0.070
824.06	0.070
824.24	0.070
824.43	0.070
824.61	0.070
824.80	0.071
824.98	0.071
825.17	0.071
825.35	0.072
825.54	0.072
825.72	0.071
825.91	0.071
826.09	0.071
826.28	0.071
826.46	0.072
826.64	0.072
826.83	0.072
827.01	0.071
827.20	0.071
827.38	0.071
827.57	0.071
827.75	0.071
827.94	0.071
828.12	0.071
828.31	0.071
828.49	0.071
828.67	0.071
828.86	0.071
829.04	0.071
829.23	0.072
829.41	0.072
829.60	0.072
829.78	0.072
829.96	0.073
830.15	0.073
830.33	0.073
830.52	0.073
830.70	0.074
830.88	0.074
831.07	0.074
831.25	0.074
831.44	0.073
831.62	0.073
831.81	0.073
831.99	0.073
832.17	0.073
832.36	0.074
832.54	0.074
832.73	0.074
832.91	0.074
833.09	0.073
833.28	0.074
833.46	0.074
833.65	0.074
833.83	0.074
834.01	0.075
834.20	0.074
834.38	0.074
834.56	0.074
834.75	0.075
834.93	0.074
835.12	0.075
835.30	0.075
835.48	0.075
835.67	0.075
835.85	0.075
836.03	0.075
836.22	0.075
836.40	0.075
836.59	0.075
836.77	0.075
836.95	0.075
837.14	0.075
837.32	0.075
837.50	0.075
837.69	0.075
837.87	0.075
838.05	0.075
838.24	0.075
838.42	0.075
838.60	0.075
838.79	0.076
838.97	0.075
839.15	0.076
839.34	0.076
839.52	0.076
839.70	0.076
839.89	0.076
840.07	0.076
840.25	0.076
840.44	0.076
840.62	0.076
840.80	0.076
840.99	0.076
841.17	0.076
841.35	0.076
841.54	0.076
841.72	0.076
841.90	0.076
842.09	0.076
842.27	0.076
842.45	0.076
842.64	0.076
842.82	0.076
843.00	0.076
843.19	0.076
843.37	0.076
843.55	0.076
843.73	0.076
843.92	0.076
844.10	0.076
844.28	0.076
844.47	0.076
844.65	0.076
844.83	0.076
845.01	0.076
845.20	0.076
845.38	0.077
845.56	0.077
845.75	0.077
845.93	0.077
846.11	0.077
846.29	0.077
846.48	0.077
846.66	0.077
846.84	0.077
847.02	0.076
847.21	0.076
847.39	0.076
847.57	0.076
847.76	0.076
847.94	0.076
848.12	0.076
848.30	0.076
848.49	0.076
848.67	0.076
848.85	0.076
849.03	0.076
849.22	0.076
849.40	0.077
849.58	0.077
849.76	0.077
849.95	0.077
850.13	0.077
850.31	0.077
850.49	0.077
850.67	0.077
850.86	0.077
851.04	0.077
851.22	0.077
851.40	0.077
851.59	0.077
851.77	0.077
851.95	0.077
852.13	0.077
852.31	0.077
852.50	0.077
852.68	0.078
852.86	0.077
853.04	0.077
853.23	0.077
853.41	0.077
853.59	0.077
853.77	0.077
853.95	0.077
854.14	0.077
854.32	0.077
854.50	0.077
854.68	0.077
854.86	0.077
855.04	0.077
855.23	0.077
855.41	0.077
855.59	0.077
855.77	0.077
855.95	0.077
856.14	0.077
856.32	0.077
856.50	0.077
856.68	0.077
856.86	0.077
857.04	0.077
857.23	0.077
857.41	0.077
857.59	0.077
857.77	0.077
857.95	0.077
858.13	0.077
858.32	0.077
858.50	0.077
858.68	0.077
858.86	0.077
859.04	0.077
859.22	0.077
859.41	0.077
859.59	0.077
859.77	0.077
859.95	0.077
860.13	0.077
860.31	0.077
860.49	0.077
860.68	0.077
860.86	0.077
861.04	0.077
861.22	0.077
861.40	0.077
861.58	0.077
861.76	0.077
861.94	0.077
862.13	0.077
862.31	0.077
862.49	0.078
862.67	0.078
862.85	0.078
863.03	0.078
863.21	0.078
863.39	0.078
863.57	0.078
863.76	0.078
863.94	0.078
864.12	0.078
864.30	0.078
864.48	0.078
864.66	0.078
864.84	0.078
865.02	0.079
865.20	0.079
865.38	0.079
865.57	0.079
865.75	0.079
865.93	0.079
866.11	0.079
866.29	0.079
866.47	0.079
866.65	0.079
866.83	0.079
867.01	0.079
867.19	0.078
867.37	0.078
867.55	0.078
867.73	0.078
867.92	0.078
868.10	0.078
868.28	0.078
868.46	0.078
868.64	0.078
868.82	0.078
869.00	0.079
869.18	0.079
869.36	0.079
869.54	0.079
869.72	0.080
869.90	0.079
870.08	0.079
870.26	0.079
870.44	0.079
870.62	0.079
870.80	0.079
870.98	0.079
871.16	0.079
871.34	0.078
871.53	0.078
871.71	0.078
871.89	0.079
872.07	0.079
872.25	0.079
872.43	0.079
872.61	0.079
872.79	0.079
872.97	0.079
873.15	0.079
873.33	0.080
873.51	0.080
873.69	0.080
873.87	0.080
874.05	0.080
874.23	0.080
874.41	0.080
874.59	0.081
874.77	0.080
874.95	0.080
875.13	0.080
875.31	0.080
875.49	0.081
875.67	0.081
875.85	0.081
876.03	0.081
876.21	0.081
876.39	0.081
876.57	0.081
876.75	0.082
876.93	0.082
877.11	0.081
877.29	0.081
877.47	0.080
877.65	0.081
877.82	0.081
878.00	0.081
878.18	0.081
878.36	0.081
878.54	0.081
878.72	0.080
878.90	0.080
879.08	0.081
879.26	0.081
879.44	0.081
879.62	0.081
879.80	0.081
879.98	0.081
880.16	0.081
880.34	0.080
880.52	0.081
880.70	0.080
880.88	0.080
881.06	0.081
881.24	0.080
881.42	0.080
881.59	0.080
881.77	0.080
881.95	0.080
882.13	0.081
882.31	0.081
882.49	0.081
882.67	0.081
882.85	0.081
883.03	0.081
883.21	0.082
883.39	0.081
883.57	0.082
883.75	0.082
883.92	0.082
884.10	0.082
884.28	0.082
884.46	0.082
884.64	0.082
884.82	0.082
885.00	0.082
885.18	0.082
885.36	0.082
885.54	0.083
885.71	0.083
885.89	0.083
886.07	0.083
886.25	0.083
886.43	0.083
886.61	0.083
886.79	0.083
886.97	0.083
887.15	0.083
887.32	0.083
887.50	0.083
887.68	0.082
887.86	0.082
888.04	0.083
888.22	0.083
888.40	0.083
888.57	0.083
888.75	0.083
888.93	0.083
889.11	0.083
889.29	0.083
889.47	0.083
889.65	0.083
889.82	0.084
890.00	0.084
890.18	0.083
890.36	0.083
890.54	0.084
890.72	0.084
890.90	0.084
891.07	0.084
891.25	0.083
891.43	0.083
891.61	0.083
891.79	0.083
891.97	0.083
892.14	0.083
892.32	0.083
892.50	0.083
892.68	0.083
892.86	0.084
893.03	0.084
893.21	0.084
893.39	0.084
893.57	0.084
893.75	0.084
893.93	0.084
894.10	0.084
894.28	0.084
894.46	0.084
894.64	0.084
894.82	0.085
894.99	0.085
895.17	0.085
895.35	0.084
895.53	0.085
895.71	0.084
895.88	0.085
896.06	0.085
896.24	0.085
896.42	0.085
896.59	0.084
896.77	0.085
896.95	0.085
897.13	0.085
897.31	0.085
897.48	0.085
897.66	0.085
897.84	0.085
898.02	0.085
898.19	0.085
898.37	0.085
898.55	0.086
898.73	0.086
898.91	0.086
899.08	0.086
899.26	0.086
899.44	0.086
899.62	0.086
899.79	0.086
899.97	0.086
900.15	0.086
900.33	0.086
900.50	0.086
900.68	0.085
900.86	0.085
901.04	0.085
901.21	0.086
901.39	0.086
901.57	0.086
901.74	0.086
901.92	0.085
902.10	0.086
902.28	0.086
902.45	0.086
902.63	0.086
902.81	0.086
902.99	0.086
903.16	0.086
903.34	0.086
903.52	0.086
903.69	0.086
903.87	0.086
904.05	0.086
904.22	0.087
904.40	0.087
904.58	0.087
904.76	0.087
904.93	0.087
905.11	0.087
905.29	0.087
905.46	0.087
905.64	0.087
905.82	0.088
905.99	0.087
906.17	0.087
906.35	0.088
906.53	0.088
906.70	0.088
906.88	0.088
907.06	0.088
907.23	0.088
907.41	0.089
907.59	0.089
907.76	0.089
907.94	0.089
908.12	0.089
908.29	0.089
908.47	0.089
908.65	0.089
908.82	0.089
909.00	0.089
909.18	0.089
909.35	0.089
909.53	0.089
909.71	0.089
909.88	0.089
910.06	0.089
910.23	0.089
910.41	0.090
910.59	0.089
910.76	0.089
910.94	0.089
911.12	0.089
911.29	0.089
911.47	0.089
911.65	0.089
911.82	0.089
912.00	0.090
912.17	0.090
912.35	0.090
912.53	0.091
912.70	0.091
912.88	0.091
913.06	0.092
913.23	0.092
913.41	0.092
913.58	0.092
913.76	0.092
913.94	0.092
914.11	0.092
914.29	0.092
914.46	0.092
914.64	0.092
914.82	0.092
914.99	0.092
915.17	0.092
915.34	0.092
915.52	0.092
915.70	0.092
915.87	0.092
916.05	0.093
916.22	0.092
916.40	0.092
916.57	0.093
916.75	0.093
916.93	0.093
917.10	0.093
917.28	0.093
917.45	0.093
917.63	0.093
917.80	0.093
917.98	0.093
918.16	0.094
918.33	0.094
918.51	0.094
918.68	0.094
918.86	0.094
919.03	0.094
919.21	0.095
919.39	0.095
919.56	0.096
919.74	0.096
919.91	0.096
920.09	0.096
920.26	0.096
920.44	0.097
920.61	0.097
920.79	0.097
920.96	0.097
921.14	0.098
921.31	0.098
921.49	0.098
921.67	0.098
921.84	0.099
922.02	0.099
922.19	0.099
922.37	0.099
922.54	0.099
922.72	0.099
922.89	0.100
923.07	0.100
923.24	0.100
923.42	0.100
923.59	0.101
923.77	0.101
923.94	0.101
924.12	0.101
924.29	0.102
924.47	0.102
924.64	0.102
924.82	0.102
924.99	0.103
925.17	0.103
925.34	0.103
925.52	0.104
925.69	0.104
925.87	0.105
926.04	0.105
926.22	0.105
926.39	0.105
926.57	0.105
926.74	0.106
926.91	0.106
927.09	0.106
927.26	0.106
927.44	0.107
927.61	0.107
927.79	0.107
927.96	0.108
928.14	0.108
928.31	0.108
928.49	0.108
928.66	0.109
928.84	0.110
929.01	0.110
929.18	0.111
929.36	0.111
929.53	0.112
929.71	0.112
929.88	0.112
930.06	0.113
930.23	0.113
930.41	0.113
930.58	0.114
930.75	0.114
930.93	0.114
931.10	0.114
931.28	0.115
931.45	0.115
931.63	0.116
931.80	0.115
931.97	0.116
932.15	0.117
932.32	0.117
932.50	0.117
932.67	0.118
932.84	0.118
933.02	0.119
933.19	0.119
933.37	0.120
933.54	0.120
933.71	0.121
933.89	0.122
934.06	0.122
934.24	0.123
934.41	0.123
934.58	0.124
934.76	0.124
934.93	0.125
935.11	0.125
935.28	0.125
935.45	0.126
935.63	0.126
935.80	0.126
935.98	0.127
936.15	0.127
936.32	0.128
936.50	0.128
936.67	0.129
936.84	0.129
937.02	0.130
937.19	0.131
937.36	0.131
937.54	0.131
937.71	0.133
937.89	0.132
938.06	0.133
938.23	0.133
938.41	0.134
938.58	0.135
938.75	0.135
938.93	0.136
939.10	0.136
939.27	0.136
939.45	0.137
939.62	0.137
939.79	0.138
939.97	0.138
940.14	0.139
940.31	0.140
940.49	0.140
940.66	0.141
940.83	0.142
941.01	0.142
941.18	0.143
941.35	0.144
941.53	0.144
941.70	0.145
941.87	0.145
942.05	0.145
942.22	0.146
942.39	0.147
942.57	0.147
942.74	0.148
942.91	0.148
943.08	0.149
943.26	0.149
943.43	0.150
943.60	0.151
943.78	0.152
943.95	0.153
944.12	0.153
944.29	0.154
944.47	0.155
944.64	0.156
944.81	0.157
944.99	0.158
945.16	0.159
945.33	0.159
945.50	0.160
945.68	0.161
945.85	0.162
946.02	0.163
946.20	0.164
946.37	0.165
946.54	0.165
946.71	0.166
946.89	0.167
947.06	0.167
947.23	0.168
947.40	0.170
947.58	0.170
947.75	0.171
947.92	0.171
948.09	0.172
948.27	0.173
948.44	0.174
948.61	0.175
948.78	0.176
948.96	0.178
949.13	0.178
949.30	0.179
949.47	0.180
949.65	0.182
949.82	0.184
949.99	0.184
950.16	0.186
950.33	0.186
950.51	0.188
950.68	0.189
950.85	0.189
951.02	0.191
951.20	0.191
951.37	0.193
951.54	0.193
951.71	0.195
951.88	0.196
952.06	0.197
952.23	0.198
952.40	0.200
952.57	0.201
952.74	0.203
952.92	0.204
953.09	0.206
953.26	0.207
953.43	0.208
953.60	0.208
953.77	0.209
953.95	0.210
954.12	0.213
954.29	0.213
954.46	0.216
954.63	0.216
954.81	0.217
954.98	0.218
955.15	0.220
955.32	0.221
955.49	0.222
955.66	0.223
955.84	0.225
956.01	0.225
956.18	0.227
956.35	0.228
956.52	0.228
956.69	0.230
956.87	0.231
957.04	0.232
957.21	0.234
957.38	0.234
957.55	0.235
957.72	0.237
957.89	0.237
958.07	0.237
958.24	0.240
958.41	0.241
958.58	0.241
958.75	0.242
958.92	0.243
959.09	0.243
959.26	0.244
959.44	0.244
959.61	0.246
959.78	0.246
959.95	0.248
960.12	0.248
960.29	0.250
960.46	0.249
960.63	0.249
960.81	0.250
960.98	0.251
961.15	0.251
961.32	0.252
961.49	0.251
961.66	0.253
961.83	0.253
962.00	0.253
962.17	0.254
962.34	0.254
962.52	0.255
962.69	0.256
962.86	0.255
963.03	0.255
963.20	0.256
963.37	0.255
963.54	0.256
963.71	0.256
963.88	0.256
964.05	0.256
964.22	0.257
964.39	0.256
964.56	0.256
964.74	0.257
964.91	0.257
965.08	0.257
965.25	0.258
965.42	0.258
965.59	0.259
965.76	0.259
965.93	0.260
966.10	0.259
966.27	0.260
966.44	0.259
966.61	0.260
966.78	0.261
966.95	0.260
967.12	0.261
967.29	0.263
967.46	0.262
967.63	0.261
967.80	0.262
967.97	0.262
968.14	0.261
968.32	0.262
968.49	0.263
968.66	0.261
968.83	0.262
969.00	0.262
969.17	0.262
969.34	0.263
969.51	0.265
969.68	0.263
969.85	0.264
970.02	0.264
970.19	0.264
970.36	0.265
970.53	0.265
970.70	0.263
970.87	0.264
971.04	0.263
971.21	0.263
971.38	0.263
971.55	0.263
971.72	0.263
971.89	0.264
972.06	0.263
972.23	0.263
972.40	0.264
972.57	0.263
972.74	0.263
972.91	0.264
973.07	0.264
973.24	0.264
973.41	0.265
973.58	0.263
973.75	0.276
973.92	0.264
974.09	0.263
974.26	0.263
974.43	0.262
974.60	0.263
974.77	0.264
974.94	0.263
975.11	0.264
975.28	0.265
975.45	0.263
975.62	0.264
975.79	0.265
975.96	0.263
976.13	0.262
976.30	0.264
976.47	0.262
976.64	0.262
976.80	0.262
976.97	0.262
977.14	0.262
977.31	0.262
977.48	0.263
977.65	0.262
977.82	0.261
977.99	0.263
978.16	0.263
978.33	0.263
978.50	0.262
978.67	0.262
978.83	0.262
979.00	0.262
979.17	0.261
979.34	0.261
979.51	0.261
979.68	0.261
979.85	0.260
980.02	0.261
980.19	0.259
980.36	0.261
980.52	0.262
980.69	0.260
980.86	0.260
981.03	0.260
981.20	0.258
981.37	0.258
981.54	0.259
981.71	0.257
981.88	0.259
982.04	0.259
982.21	0.257
982.38	0.259
982.55	0.258
982.72	0.257
982.89	0.258
983.06	0.257
983.22	0.257
983.39	0.256
983.56	0.256
983.73	0.254
983.90	0.254
984.07	0.256
984.24	0.254
984.40	0.254
984.57	0.252
984.74	0.254
984.91	0.256
985.08	0.253
985.25	0.251
985.41	0.252
985.58	0.252
985.75	0.253
985.92	0.252
986.09	0.251
986.26	0.251
986.42	0.250
986.59	0.249
986.76	0.250
986.93	0.250
987.10	0.250
987.27	0.248
987.43	0.247
987.60	0.249
987.77	0.249
987.94	0.248
988.11	0.249
988.27	0.249
988.44	0.248
988.61	0.247
988.78	0.246
988.95	0.247
989.11	0.248
989.28	0.247
989.45	0.246
989.62	0.246
989.79	0.246
989.95	0.244
990.12	0.245
990.29	0.245
990.46	0.243
990.62	0.241
990.79	0.241
990.96	0.241
991.13	0.241
991.30	0.240
991.46	0.239
991.63	0.238
991.80	0.237
991.97	0.237
992.13	0.237
992.30	0.238
992.47	0.237
992.64	0.237
992.80	0.237
992.97	0.237
993.14	0.235
993.31	0.233
993.47	0.235
993.64	0.234
993.81	0.233
993.98	0.234
994.14	0.232
994.31	0.232
994.48	0.233
994.64	0.233
994.81	0.232
994.98	0.232
995.15	0.230
995.31	0.230
995.48	0.229
995.65	0.231
995.82	0.229
995.98	0.229
996.15	0.230
996.32	0.231
996.48	0.229
996.65	0.228
996.82	0.226
996.99	0.227
997.15	0.226
997.32	0.227
997.49	0.226
997.65	0.226
997.82	0.226
997.99	0.224
998.15	0.224
998.32	0.226
998.49	0.225
998.65	0.225
998.82	0.224
998.99	0.222
999.15	0.222
999.32	0.221
999.49	0.220
999.65	0.221
999.82	0.218
999.99	0.219
1000.15	0.219
1000.32	0.219
1000.49	0.220
1000.65	0.218
1000.82	0.217
1000.99	0.218
1001.15	0.218
1001.32	0.218
1001.49	0.218
1001.65	0.218
1001.82	0.221
1001.99	0.217
1002.15	0.216
1002.32	0.216
1002.49	0.216
1002.65	0.215
1002.82	0.214
1002.99	0.213
1003.15	0.215
1003.32	0.213
1003.48	0.213
1003.65	0.212
1003.82	0.211
1003.98	0.208
1004.15	0.208
1004.32	0.209
1004.48	0.209
1004.65	0.210
1004.81	0.207
1004.98	0.206
1005.15	0.207
1005.31	0.207
1005.48	0.206
1005.64	0.205
1005.81	0.208
1005.98	0.205
1006.14	0.204
1006.31	0.204
1006.47	0.203
1006.64	0.202
1006.81	0.202
1006.97	0.202
1007.14	0.201
1007.30	0.202
1007.47	0.202
1007.63	0.200
1007.80	0.198
1007.97	0.198
1008.13	0.198
1008.30	0.198
1008.46	0.199
1008.63	0.197
1008.79	0.198
1008.96	0.198
1009.13	0.199
1009.29	0.196
1009.46	0.196
1009.62	0.196
1009.79	0.194
1009.95	0.194
1010.12	0.194
1010.28	0.195
1010.45	0.194
1010.62	0.193
1010.78	0.192
1010.95	0.191
1011.11	0.192
1011.28	0.191
1011.44	0.193
1011.61	0.191
1011.77	0.190
1011.94	0.190
1012.10	0.189
1012.27	0.189
1012.43	0.189
1012.60	0.188
1012.76	0.188
1012.93	0.187
1013.10	0.185
1013.26	0.183
1013.43	0.184
1013.59	0.191
1013.76	0.184
1013.92	0.183
1014.09	0.182
1014.25	0.183
1014.42	0.182
1014.58	0.182
1014.75	0.185
1014.91	0.184
1015.08	0.185
1015.24	0.181
1015.41	0.183
1015.57	0.182
1015.73	0.181
1015.90	0.180
1016.06	0.181
1016.23	0.179
1016.39	0.180
1016.56	0.180
1016.72	0.179
1016.89	0.179
1017.05	0.181
1017.22	0.178
1017.38	0.179
1017.55	0.178
1017.71	0.179
1017.88	0.179
1018.04	0.180
1018.21	0.176
1018.37	0.176
1018.53	0.176
1018.70	0.174
1018.86	0.174
1019.03	0.175
1019.19	0.174
1019.36	0.173
1019.52	0.174
1019.69	0.174
1019.85	0.174
1020.01	0.174
1020.18	0.172
1020.34	0.172
1020.51	0.171
1020.67	0.172
1020.84	0.170
1021.00	0.171
1021.16	0.168
1021.33	0.169
1021.49	0.168
1021.66	0.169
1021.82	0.167
1021.98	0.168
1022.15	0.168
1022.31	0.167
1022.48	0.166
1022.64	0.169
1022.80	0.167
1022.97	0.166
1023.13	0.165
1023.30	0.165
1023.46	0.166
1023.62	0.164
1023.79	0.165
1023.95	0.165
1024.12	0.164
1024.28	0.163
1024.44	0.162
1024.61	0.161
1024.77	0.161
1024.93	0.161
1025.10	0.161
1025.26	0.158
1025.43	0.158
1025.59	0.154
1025.75	0.159
1025.92	0.158
1026.08	0.158
1026.24	0.158
1026.41	0.159
1026.57	0.157
1026.73	0.156
1026.90	0.158
1027.06	0.157
1027.23	0.158
1027.39	0.158
1027.55	0.157
1027.72	0.157
1027.88	0.156
1028.04	0.156
1028.21	0.156
1028.37	0.151
1028.53	0.156
1028.70	0.154
1028.86	0.152
1029.02	0.152
1029.19	0.154
1029.35	0.152
1029.51	0.150
1029.67	0.150
1029.84	0.152
1030.00	0.148
1030.16	0.148
1030.33	0.150
1030.49	0.147
1030.65	0.144
1030.82	0.159
1030.98	0.145
1031.14	0.144
1031.31	0.145
1031.47	0.142
1031.63	0.144
1031.79	0.142
1031.96	0.143
1032.12	0.145
1032.28	0.143
1032.45	0.148
1032.61	0.146
1032.77	0.146
1032.93	0.145
1033.10	0.146
1033.26	0.148
1033.42	0.146
1033.58	0.146
1033.75	0.148
1033.91	0.146
1034.07	0.148
1034.24	0.146
1034.40	0.144
1034.56	0.143
1034.72	0.143
1034.89	0.143
1035.05	0.140
1035.21	0.140
1035.37	0.140
1035.54	0.142
1035.70	0.140
1035.86	0.139
1036.02	0.140
1036.19	0.138
1036.35	0.136
1036.51	0.141
1036.67	0.139
1036.83	0.138
1037.00	0.139
1037.16	0.138
1037.32	0.139
1037.48	0.138
1037.65	0.142
1037.81	0.138
1037.97	0.138
1038.13	0.139
1038.29	0.136
1038.46	0.133
1038.62	0.137
1038.78	0.134
1038.94	0.131
1039.10	0.134
1039.27	0.131
1039.43	0.133
1039.59	0.132
1039.75	0.132
1039.91	0.130
1040.08	0.130
1040.24	0.134
1040.40	0.136
1040.56	0.134
1040.72	0.127
1040.89	0.130
1041.05	0.132
1041.21	0.130
1041.37	0.129
1041.53	0.135
1041.69	0.132
1041.86	0.133
1042.02	0.128
1042.18	0.128
1042.34	0.131
1042.50	0.136
1042.66	0.131
1042.83	0.131
1042.99	0.134
1043.15	0.129
1043.31	0.129
1043.47	0.134
1043.63	0.130
1043.79	0.131
1043.96	0.133
1044.12	0.136
1044.28	0.132
1044.44	0.135
1044.60	0.130
1044.76	0.128
1044.92	0.130
1045.09	0.132
1045.25	0.128
1045.41	0.129
1045.57	0.124
1045.73	0.124
1045.89	0.124
1046.05	0.126
1046.21	0.128
1046.38	0.135
1046.54	0.131
1046.70	0.125
1046.86	0.128
>>>>>End Processed Spectral Data<<<<<
