SpectraSuite Data File
++++++++++++++++++++++++++++++++++++
Date: Mon May 20 12:11:23 CDT 2013
User: Students
Dark Spectrum Present: Yes
Reference Spectrum Present: Yes
Number of Sampled Component Spectra: 1
Spectrometers: USB4H00887
Integration Time (usec): 60000 (USB4H00887)
Spectra Averaged: 5 (USB4H00887)
Boxcar Smoothing: 5 (USB4H00887)
Correct for Electrical Dark: No (USB4H00887)
Strobe/Lamp Enabled: No (USB4H00887)
Correct for Detector Non-linearity: No (USB4H00887)
Correct for Stray Light: No (USB4H00887)
Number of Pixels in Processed Spectrum: 3648
>>>>>Begin Processed Spectral Data<<<<<
345.83	-0.028
346.05	-0.028
346.26	-0.028
346.48	0.574
346.70	0.207
346.92	0.076
347.14	0.053
347.35	0.063
347.57	0.384
347.79	-0.277
348.01	-0.195
348.23	-0.327
348.44	-0.000
348.66	0.399
348.88	-0.420
349.10	-0.221
349.32	0.135
349.53	-0.057
349.75	-0.092
349.97	-0.060
350.19	-0.043
350.41	-0.058
350.62	1.299
350.84	-0.020
351.06	-0.002
351.28	-0.016
351.50	-0.015
351.71	0.116
351.93	0.124
352.15	0.044
352.37	0.184
352.58	0.055
352.80	0.055
353.02	0.081
353.24	0.067
353.46	0.326
353.67	-0.102
353.89	0.017
354.11	0.009
354.33	0.008
354.54	0.022
354.76	0.054
354.98	0.122
355.20	0.146
355.41	0.087
355.63	0.182
355.85	0.067
356.07	0.634
356.28	0.062
356.50	0.128
356.72	0.044
356.94	0.082
357.15	0.119
357.37	0.372
357.59	0.021
357.81	-0.002
358.02	0.026
358.24	0.038
358.46	0.093
358.68	0.086
358.89	0.047
359.11	-0.000
359.33	0.058
359.55	-0.480
359.76	0.122
359.98	0.144
360.20	0.160
360.42	0.148
360.63	0.166
360.85	0.119
361.07	0.993
361.29	0.107
361.50	0.277
361.72	0.102
361.94	0.337
362.15	0.133
362.37	0.061
362.59	0.048
362.81	0.079
363.02	0.139
363.24	0.238
363.46	0.146
363.68	0.211
363.89	0.144
364.11	0.215
364.33	0.262
364.54	0.155
364.76	0.223
364.98	0.233
365.20	0.193
365.41	0.113
365.63	0.138
365.85	0.090
366.06	0.186
366.28	0.182
366.50	0.112
366.71	0.053
366.93	0.070
367.15	0.049
367.37	0.055
367.58	0.092
367.80	0.128
368.02	0.309
368.23	0.106
368.45	0.121
368.67	0.121
368.88	0.119
369.10	-0.000
369.32	0.137
369.53	0.082
369.75	0.131
369.97	0.329
370.19	0.172
370.40	0.080
370.62	0.266
370.84	0.110
371.05	0.714
371.27	0.145
371.49	0.137
371.70	0.144
371.92	0.227
372.14	0.105
372.35	0.113
372.57	0.132
372.79	0.295
373.00	0.071
373.22	0.096
373.44	0.062
373.65	0.077
373.87	0.134
374.09	0.554
374.30	0.118
374.52	0.130
374.74	0.103
374.95	0.367
375.17	0.114
375.39	-0.000
375.60	0.124
375.82	0.229
376.04	0.086
376.25	0.088
376.47	0.061
376.68	0.151
376.90	0.092
377.12	0.155
377.33	0.113
377.55	0.252
377.77	0.139
377.98	0.198
378.20	0.126
378.42	0.159
378.63	0.212
378.85	-0.000
379.07	0.139
379.28	0.517
379.50	0.324
379.71	0.156
379.93	0.111
380.15	0.163
380.36	0.238
380.58	0.160
380.80	0.487
381.01	0.135
381.23	0.117
381.44	0.117
381.66	0.128
381.88	0.158
382.09	-0.079
382.31	0.122
382.53	0.122
382.74	0.736
382.96	0.191
383.17	0.144
383.39	0.183
383.61	0.201
383.82	0.160
384.04	0.197
384.25	0.242
384.47	0.215
384.69	0.208
384.90	0.195
385.12	0.359
385.33	0.245
385.55	0.188
385.77	0.338
385.98	0.188
386.20	0.243
386.41	0.209
386.63	0.243
386.85	0.210
387.06	0.262
387.28	0.389
387.49	0.247
387.71	0.187
387.93	0.181
388.14	0.523
388.36	0.212
388.57	0.202
388.79	0.228
389.01	-0.000
389.22	0.276
389.44	0.235
389.65	0.195
389.87	0.206
390.08	0.237
390.30	0.168
390.52	0.332
390.73	0.328
390.95	0.221
391.16	0.224
391.38	-0.000
391.59	0.271
391.81	0.229
392.03	0.215
392.24	0.253
392.46	0.205
392.67	0.183
392.89	0.257
393.10	0.388
393.32	0.267
393.53	0.288
393.75	0.171
393.97	0.198
394.18	0.263
394.40	0.226
394.61	0.221
394.83	0.212
395.04	0.255
395.26	0.171
395.47	0.252
395.69	0.221
395.91	0.250
396.12	0.313
396.34	0.297
396.55	0.197
396.77	0.303
396.98	1.156
397.20	0.354
397.41	0.385
397.63	0.270
397.84	0.244
398.06	0.215
398.27	0.207
398.49	0.245
398.71	0.182
398.92	0.219
399.14	0.253
399.35	0.312
399.57	0.276
399.78	0.195
400.00	0.183
400.21	0.218
400.43	0.192
400.64	0.203
400.86	0.374
401.07	0.227
401.29	0.200
401.50	0.216
401.72	0.306
401.93	0.207
402.15	0.264
402.36	0.243
402.58	0.210
402.79	0.232
403.01	0.378
403.22	0.310
403.44	0.220
403.65	0.333
403.87	0.378
404.08	0.299
404.30	0.476
404.51	0.256
404.73	0.296
404.94	0.258
405.16	0.258
405.37	0.198
405.59	0.321
405.80	0.213
406.02	0.259
406.23	0.254
406.45	0.274
406.66	0.289
406.88	0.202
407.09	0.312
407.31	0.254
407.52	0.297
407.74	0.257
407.95	0.291
408.17	0.278
408.38	0.293
408.60	0.206
408.81	0.320
409.03	0.242
409.24	0.252
409.45	0.277
409.67	0.269
409.88	0.255
410.10	0.309
410.31	0.262
410.53	0.248
410.74	0.322
410.96	0.298
411.17	0.304
411.39	0.252
411.60	0.228
411.82	0.266
412.03	0.254
412.24	0.240
412.46	0.308
412.67	0.279
412.89	0.283
413.10	0.283
413.32	0.272
413.53	0.312
413.75	0.327
413.96	0.263
414.17	0.326
414.39	0.333
414.60	0.292
414.82	0.384
415.03	0.303
415.25	0.329
415.46	0.246
415.68	0.328
415.89	0.514
416.10	0.428
416.32	0.266
416.53	0.311
416.75	0.300
416.96	0.339
417.18	0.299
417.39	0.292
417.60	0.291
417.82	0.380
418.03	0.349
418.25	0.309
418.46	0.329
418.67	0.302
418.89	0.319
419.10	0.328
419.32	0.415
419.53	0.385
419.75	0.335
419.96	0.300
420.17	0.356
420.39	0.337
420.60	0.340
420.82	0.391
421.03	0.331
421.24	0.287
421.46	0.313
421.67	0.332
421.89	0.298
422.10	0.316
422.31	0.315
422.53	0.406
422.74	0.326
422.96	0.270
423.17	0.298
423.38	0.358
423.60	0.313
423.81	0.374
424.03	0.336
424.24	0.352
424.45	0.355
424.67	0.354
424.88	0.323
425.09	0.342
425.31	0.323
425.52	0.336
425.74	0.369
425.95	0.390
426.16	0.316
426.38	0.353
426.59	0.339
426.80	0.376
427.02	0.383
427.23	0.323
427.45	0.398
427.66	0.391
427.87	0.324
428.09	0.337
428.30	0.366
428.51	0.365
428.73	0.394
428.94	0.356
429.15	0.352
429.37	0.349
429.58	0.360
429.79	0.341
430.01	0.401
430.22	0.400
430.44	0.408
430.65	0.380
430.86	0.401
431.08	0.393
431.29	0.365
431.50	0.408
431.72	0.488
431.93	0.426
432.14	0.344
432.36	0.367
432.57	0.368
432.78	0.374
433.00	0.347
433.21	0.345
433.42	0.409
433.64	0.376
433.85	0.417
434.06	0.358
434.28	0.376
434.49	0.383
434.70	0.385
434.92	0.391
435.13	0.417
435.34	0.421
435.56	0.404
435.77	0.401
435.98	0.477
436.20	0.422
436.41	0.372
436.62	0.361
436.83	0.394
437.05	0.432
437.26	0.398
437.47	0.367
437.69	0.391
437.90	0.370
438.11	0.364
438.33	0.387
438.54	0.397
438.75	0.477
438.97	0.475
439.18	0.388
439.39	0.402
439.60	0.421
439.82	0.402
440.03	0.382
440.24	0.496
440.46	0.408
440.67	0.399
440.88	0.422
441.10	0.399
441.31	0.397
441.52	0.422
441.73	0.459
441.95	0.424
442.16	0.396
442.37	0.530
442.58	0.386
442.80	0.383
443.01	0.459
443.22	0.431
443.44	0.385
443.65	0.438
443.86	0.434
444.07	0.452
444.29	0.405
444.50	0.482
444.71	0.403
444.92	0.384
445.14	0.451
445.35	0.472
445.56	0.402
445.78	0.453
445.99	0.449
446.20	0.407
446.41	0.446
446.63	0.450
446.84	0.425
447.05	0.427
447.26	0.485
447.48	0.434
447.69	0.417
447.90	0.456
448.11	0.415
448.33	0.431
448.54	0.442
448.75	0.458
448.96	0.465
449.18	0.490
449.39	0.452
449.60	0.443
449.81	0.502
450.03	0.452
450.24	0.476
450.45	0.462
450.66	0.454
450.87	0.468
451.09	0.447
451.30	0.433
451.51	0.466
451.72	0.466
451.94	0.474
452.15	0.509
452.36	0.455
452.57	0.465
452.78	0.461
453.00	0.475
453.21	0.453
453.42	0.439
453.63	0.486
453.85	0.468
454.06	0.467
454.27	0.521
454.48	0.478
454.69	0.443
454.91	0.473
455.12	0.433
455.33	0.471
455.54	0.481
455.75	0.473
455.97	0.485
456.18	0.480
456.39	0.487
456.60	0.496
456.81	0.470
457.03	0.476
457.24	0.476
457.45	0.517
457.66	0.492
457.87	0.472
458.09	0.477
458.30	0.436
458.51	0.491
458.72	0.499
458.93	0.509
459.15	0.469
459.36	0.499
459.57	0.510
459.78	0.527
459.99	0.487
460.20	0.473
460.42	0.508
460.63	0.490
460.84	0.484
461.05	0.494
461.26	0.518
461.47	0.485
461.69	0.506
461.90	0.520
462.11	0.503
462.32	0.532
462.53	0.503
462.74	0.547
462.96	0.498
463.17	0.494
463.38	0.510
463.59	0.552
463.80	0.487
464.01	0.498
464.23	0.534
464.44	0.520
464.65	0.520
464.86	0.533
465.07	0.531
465.28	0.519
465.49	0.532
465.71	0.512
465.92	0.530
466.13	0.552
466.34	0.526
466.55	0.552
466.76	0.534
466.97	0.548
467.19	0.545
467.40	0.564
467.61	0.563
467.82	0.528
468.03	0.521
468.24	0.550
468.45	0.563
468.66	0.556
468.88	0.559
469.09	0.562
469.30	0.579
469.51	0.547
469.72	0.564
469.93	0.553
470.14	0.543
470.35	0.579
470.57	0.561
470.78	0.538
470.99	0.590
471.20	0.567
471.41	0.546
471.62	0.565
471.83	0.555
472.04	0.564
472.25	0.583
472.47	0.551
472.68	0.554
472.89	0.557
473.10	0.575
473.31	0.556
473.52	0.580
473.73	0.593
473.94	0.560
474.15	0.572
474.36	0.576
474.57	0.584
474.79	0.575
475.00	0.574
475.21	0.567
475.42	0.602
475.63	0.566
475.84	0.579
476.05	0.580
476.26	0.570
476.47	0.584
476.68	0.602
476.89	0.575
477.10	0.595
477.32	0.593
477.53	0.615
477.74	0.581
477.95	0.597
478.16	0.575
478.37	0.594
478.58	0.598
478.79	0.603
479.00	0.602
479.21	0.588
479.42	0.604
479.63	0.605
479.84	0.592
480.05	0.593
480.26	0.604
480.47	0.611
480.69	0.611
480.90	0.597
481.11	0.597
481.32	0.620
481.53	0.594
481.74	0.615
481.95	0.603
482.16	0.609
482.37	0.612
482.58	0.599
482.79	0.605
483.00	0.616
483.21	0.596
483.42	0.587
483.63	0.620
483.84	0.632
484.05	0.627
484.26	0.617
484.47	0.614
484.68	0.599
484.89	0.604
485.10	0.625
485.31	0.617
485.52	0.618
485.73	0.617
485.94	0.629
486.15	0.610
486.37	0.618
486.58	0.605
486.79	0.610
487.00	0.631
487.21	0.628
487.42	0.625
487.63	0.627
487.84	0.632
488.05	0.633
488.26	0.617
488.47	0.619
488.68	0.629
488.89	0.620
489.10	0.621
489.31	0.624
489.52	0.636
489.73	0.625
489.94	0.639
490.15	0.626
490.36	0.641
490.57	0.624
490.78	0.618
490.99	0.634
491.20	0.662
491.41	0.646
491.62	0.625
491.83	0.637
492.04	0.634
492.25	0.639
492.45	0.637
492.66	0.646
492.87	0.641
493.08	0.638
493.29	0.630
493.50	0.627
493.71	0.630
493.92	0.629
494.13	0.633
494.34	0.643
494.55	0.643
494.76	0.655
494.97	0.653
495.18	0.641
495.39	0.646
495.60	0.628
495.81	0.630
496.02	0.637
496.23	0.635
496.44	0.649
496.65	0.644
496.86	0.648
497.07	0.657
497.28	0.655
497.49	0.636
497.70	0.639
497.91	0.647
498.12	0.640
498.32	0.658
498.53	0.652
498.74	0.648
498.95	0.658
499.16	0.641
499.37	0.642
499.58	0.648
499.79	0.660
500.00	0.656
500.21	0.667
500.42	0.645
500.63	0.645
500.84	0.653
501.05	0.646
501.26	0.656
501.46	0.671
501.67	0.657
501.88	0.657
502.09	0.648
502.30	0.652
502.51	0.669
502.72	0.655
502.93	0.661
503.14	0.669
503.35	0.658
503.56	0.656
503.77	0.666
503.97	0.658
504.18	0.659
504.39	0.670
504.60	0.658
504.81	0.669
505.02	0.664
505.23	0.664
505.44	0.656
505.65	0.659
505.86	0.651
506.07	0.674
506.27	0.660
506.48	0.663
506.69	0.657
506.90	0.664
507.11	0.663
507.32	0.654
507.53	0.656
507.74	0.653
507.95	0.659
508.15	0.663
508.36	0.665
508.57	0.669
508.78	0.662
508.99	0.661
509.20	0.652
509.41	0.661
509.62	0.659
509.82	0.659
510.03	0.663
510.24	0.663
510.45	0.672
510.66	0.668
510.87	0.667
511.08	0.652
511.29	0.669
511.49	0.662
511.70	0.677
511.91	0.653
512.12	0.652
512.33	0.665
512.54	0.669
512.75	0.662
512.95	0.672
513.16	0.669
513.37	0.661
513.58	0.673
513.79	0.660
514.00	0.664
514.20	0.670
514.41	0.666
514.62	0.652
514.83	0.666
515.04	0.664
515.25	0.655
515.46	0.659
515.66	0.660
515.87	0.666
516.08	0.655
516.29	0.662
516.50	0.655
516.71	0.653
516.91	0.658
517.12	0.665
517.33	0.659
517.54	0.654
517.75	0.655
517.95	0.659
518.16	0.662
518.37	0.649
518.58	0.651
518.79	0.642
519.00	0.653
519.20	0.656
519.41	0.646
519.62	0.652
519.83	0.656
520.04	0.643
520.24	0.643
520.45	0.646
520.66	0.655
520.87	0.641
521.08	0.639
521.28	0.641
521.49	0.648
521.70	0.636
521.91	0.640
522.12	0.633
522.32	0.642
522.53	0.633
522.74	0.629
522.95	0.631
523.16	0.632
523.36	0.636
523.57	0.628
523.78	0.626
523.99	0.628
524.20	0.625
524.40	0.629
524.61	0.631
524.82	0.621
525.03	0.623
525.23	0.622
525.44	0.616
525.65	0.615
525.86	0.626
526.06	0.613
526.27	0.612
526.48	0.617
526.69	0.610
526.90	0.612
527.10	0.625
527.31	0.607
527.52	0.605
527.73	0.601
527.93	0.605
528.14	0.605
528.35	0.601
528.56	0.601
528.76	0.596
528.97	0.592
529.18	0.587
529.39	0.587
529.59	0.588
529.80	0.600
530.01	0.589
530.22	0.588
530.42	0.576
530.63	0.584
530.84	0.574
531.05	0.580
531.25	0.581
531.46	0.577
531.67	0.568
531.88	0.576
532.08	0.572
532.29	0.570
532.50	0.567
532.70	0.562
532.91	0.558
533.12	0.560
533.33	0.571
533.53	0.558
533.74	0.558
533.95	0.561
534.15	0.555
534.36	0.556
534.57	0.548
534.78	0.548
534.98	0.553
535.19	0.539
535.40	0.539
535.60	0.546
535.81	0.537
536.02	0.538
536.23	0.533
536.43	0.534
536.64	0.528
536.85	0.531
537.05	0.536
537.26	0.526
537.47	0.528
537.67	0.523
537.88	0.521
538.09	0.524
538.30	0.519
538.50	0.514
538.71	0.520
538.92	0.513
539.12	0.511
539.33	0.509
539.54	0.509
539.74	0.510
539.95	0.506
540.16	0.504
540.36	0.500
540.57	0.500
540.78	0.497
540.98	0.497
541.19	0.496
541.40	0.489
541.60	0.495
541.81	0.493
542.02	0.492
542.22	0.487
542.43	0.484
542.64	0.482
542.84	0.482
543.05	0.477
543.26	0.477
543.46	0.479
543.67	0.479
543.88	0.476
544.08	0.471
544.29	0.469
544.50	0.470
544.70	0.471
544.91	0.466
545.12	0.467
545.32	0.465
545.53	0.467
545.74	0.460
545.94	0.458
546.15	0.457
546.35	0.456
546.56	0.453
546.77	0.451
546.97	0.450
547.18	0.445
547.39	0.445
547.59	0.444
547.80	0.442
548.01	0.445
548.21	0.443
548.42	0.438
548.62	0.438
548.83	0.437
549.04	0.435
549.24	0.431
549.45	0.430
549.65	0.430
549.86	0.427
550.07	0.427
550.27	0.426
550.48	0.431
550.69	0.422
550.89	0.422
551.10	0.421
551.30	0.420
551.51	0.420
551.72	0.414
551.92	0.415
552.13	0.416
552.33	0.416
552.54	0.413
552.75	0.408
552.95	0.409
553.16	0.406
553.36	0.405
553.57	0.404
553.78	0.402
553.98	0.403
554.19	0.398
554.39	0.396
554.60	0.398
554.80	0.398
555.01	0.394
555.22	0.396
555.42	0.394
555.63	0.390
555.83	0.394
556.04	0.390
556.25	0.392
556.45	0.385
556.66	0.384
556.86	0.387
557.07	0.386
557.27	0.386
557.48	0.382
557.68	0.381
557.89	0.382
558.10	0.380
558.30	0.378
558.51	0.377
558.71	0.375
558.92	0.372
559.12	0.373
559.33	0.375
559.54	0.372
559.74	0.369
559.95	0.367
560.15	0.367
560.36	0.366
560.56	0.362
560.77	0.363
560.97	0.363
561.18	0.360
561.38	0.360
561.59	0.363
561.79	0.360
562.00	0.359
562.21	0.357
562.41	0.356
562.62	0.356
562.82	0.355
563.03	0.353
563.23	0.353
563.44	0.353
563.64	0.351
563.85	0.353
564.05	0.348
564.26	0.349
564.46	0.349
564.67	0.350
564.87	0.347
565.08	0.344
565.28	0.344
565.49	0.345
565.69	0.343
565.90	0.341
566.10	0.343
566.31	0.337
566.51	0.339
566.72	0.340
566.92	0.335
567.13	0.335
567.33	0.335
567.54	0.334
567.74	0.334
567.95	0.331
568.15	0.333
568.36	0.333
568.56	0.332
568.77	0.328
568.97	0.327
569.18	0.328
569.38	0.327
569.59	0.328
569.79	0.326
570.00	0.324
570.20	0.323
570.41	0.321
570.61	0.320
570.82	0.321
571.02	0.318
571.23	0.320
571.43	0.317
571.64	0.316
571.84	0.315
572.05	0.314
572.25	0.314
572.45	0.313
572.66	0.311
572.86	0.310
573.07	0.309
573.27	0.310
573.48	0.309
573.68	0.306
573.89	0.306
574.09	0.307
574.30	0.306
574.50	0.305
574.70	0.305
574.91	0.303
575.11	0.304
575.32	0.305
575.52	0.302
575.73	0.302
575.93	0.301
576.14	0.301
576.34	0.300
576.54	0.299
576.75	0.298
576.95	0.297
577.16	0.296
577.36	0.295
577.57	0.294
577.77	0.292
577.97	0.291
578.18	0.293
578.38	0.290
578.59	0.289
578.79	0.289
579.00	0.289
579.20	0.288
579.40	0.288
579.61	0.287
579.81	0.287
580.02	0.285
580.22	0.285
580.42	0.284
580.63	0.285
580.83	0.284
581.04	0.282
581.24	0.282
581.45	0.281
581.65	0.281
581.85	0.281
582.06	0.280
582.26	0.280
582.47	0.279
582.67	0.279
582.87	0.279
583.08	0.277
583.28	0.277
583.48	0.276
583.69	0.273
583.89	0.274
584.10	0.275
584.30	0.272
584.50	0.271
584.71	0.270
584.91	0.270
585.12	0.268
585.32	0.269
585.52	0.267
585.73	0.266
585.93	0.267
586.13	0.266
586.34	0.265
586.54	0.265
586.75	0.264
586.95	0.263
587.15	0.263
587.36	0.263
587.56	0.263
587.76	0.262
587.97	0.261
588.17	0.260
588.37	0.260
588.58	0.261
588.78	0.258
588.98	0.259
589.19	0.258
589.39	0.257
589.60	0.258
589.80	0.255
590.00	0.255
590.21	0.255
590.41	0.254
590.61	0.254
590.82	0.254
591.02	0.254
591.22	0.252
591.43	0.253
591.63	0.251
591.83	0.252
592.04	0.250
592.24	0.251
592.44	0.249
592.65	0.248
592.85	0.248
593.05	0.248
593.26	0.247
593.46	0.247
593.66	0.247
593.86	0.246
594.07	0.245
594.27	0.245
594.47	0.244
594.68	0.243
594.88	0.244
595.08	0.243
595.29	0.244
595.49	0.242
595.69	0.242
595.90	0.241
596.10	0.241
596.30	0.241
596.50	0.240
596.71	0.240
596.91	0.240
597.11	0.239
597.32	0.239
597.52	0.238
597.72	0.238
597.93	0.238
598.13	0.236
598.33	0.237
598.53	0.236
598.74	0.235
598.94	0.234
599.14	0.234
599.35	0.235
599.55	0.235
599.75	0.234
599.95	0.234
600.16	0.234
600.36	0.233
600.56	0.233
600.76	0.233
600.97	0.231
601.17	0.231
601.37	0.231
601.58	0.230
601.78	0.230
601.98	0.229
602.18	0.228
602.39	0.228
602.59	0.228
602.79	0.227
602.99	0.227
603.20	0.226
603.40	0.227
603.60	0.227
603.80	0.226
604.01	0.226
604.21	0.225
604.41	0.225
604.61	0.224
604.82	0.223
605.02	0.224
605.22	0.223
605.42	0.223
605.62	0.223
605.83	0.222
606.03	0.221
606.23	0.222
606.43	0.222
606.64	0.222
606.84	0.221
607.04	0.221
607.24	0.220
607.45	0.220
607.65	0.219
607.85	0.220
608.05	0.218
608.25	0.218
608.46	0.218
608.66	0.218
608.86	0.217
609.06	0.216
609.26	0.216
609.47	0.217
609.67	0.215
609.87	0.217
610.07	0.216
610.28	0.214
610.48	0.215
610.68	0.215
610.88	0.213
611.08	0.214
611.29	0.213
611.49	0.212
611.69	0.213
611.89	0.210
612.09	0.210
612.29	0.210
612.50	0.209
612.70	0.209
612.90	0.208
613.10	0.208
613.30	0.208
613.51	0.208
613.71	0.207
613.91	0.212
614.11	0.207
614.31	0.207
614.51	0.207
614.72	0.206
614.92	0.206
615.12	0.206
615.32	0.206
615.52	0.206
615.72	0.206
615.93	0.206
616.13	0.206
616.33	0.206
616.53	0.205
616.73	0.206
616.93	0.204
617.14	0.205
617.34	0.205
617.54	0.205
617.74	0.204
617.94	0.204
618.14	0.203
618.34	0.202
618.55	0.202
618.75	0.203
618.95	0.203
619.15	0.202
619.35	0.201
619.55	0.201
619.75	0.202
619.96	0.201
620.16	0.201
620.36	0.201
620.56	0.200
620.76	0.200
620.96	0.199
621.16	0.199
621.36	0.199
621.57	0.200
621.77	0.200
621.97	0.198
622.17	0.198
622.37	0.198
622.57	0.198
622.77	0.198
622.97	0.197
623.18	0.197
623.38	0.197
623.58	0.197
623.78	0.196
623.98	0.196
624.18	0.195
624.38	0.195
624.58	0.195
624.78	0.195
624.98	0.195
625.19	0.195
625.39	0.194
625.59	0.194
625.79	0.194
625.99	0.193
626.19	0.193
626.39	0.193
626.59	0.192
626.79	0.193
626.99	0.193
627.19	0.192
627.40	0.192
627.60	0.192
627.80	0.192
628.00	0.192
628.20	0.191
628.40	0.191
628.60	0.191
628.80	0.190
629.00	0.190
629.20	0.190
629.40	0.190
629.60	0.189
629.80	0.189
630.00	0.189
630.20	0.189
630.41	0.188
630.61	0.188
630.81	0.188
631.01	0.189
631.21	0.188
631.41	0.188
631.61	0.188
631.81	0.188
632.01	0.187
632.21	0.187
632.41	0.186
632.61	0.186
632.81	0.186
633.01	0.186
633.21	0.185
633.41	0.186
633.61	0.184
633.81	0.184
634.01	0.183
634.21	0.184
634.41	0.183
634.61	0.184
634.81	0.183
635.01	0.183
635.22	0.183
635.42	0.183
635.62	0.183
635.82	0.183
636.02	0.182
636.22	0.182
636.42	0.181
636.62	0.181
636.82	0.181
637.02	0.180
637.22	0.181
637.42	0.180
637.62	0.179
637.82	0.179
638.02	0.179
638.22	0.179
638.42	0.178
638.62	0.178
638.82	0.178
639.02	0.178
639.22	0.178
639.42	0.177
639.62	0.176
639.82	0.176
640.02	0.176
640.22	0.176
640.42	0.176
640.62	0.176
640.82	0.176
641.02	0.175
641.22	0.175
641.42	0.174
641.61	0.174
641.81	0.174
642.01	0.174
642.21	0.174
642.41	0.174
642.61	0.173
642.81	0.172
643.01	0.172
643.21	0.172
643.41	0.172
643.61	0.172
643.81	0.171
644.01	0.170
644.21	0.170
644.41	0.170
644.61	0.169
644.81	0.170
645.01	0.170
645.21	0.169
645.41	0.169
645.61	0.169
645.81	0.169
646.01	0.169
646.21	0.170
646.40	0.169
646.60	0.169
646.80	0.170
647.00	0.169
647.20	0.168
647.40	0.167
647.60	0.167
647.80	0.167
648.00	0.167
648.20	0.167
648.40	0.166
648.60	0.166
648.80	0.166
649.00	0.165
649.20	0.166
649.39	0.165
649.59	0.165
649.79	0.164
649.99	0.164
650.19	0.163
650.39	0.163
650.59	0.163
650.79	0.163
650.99	0.163
651.19	0.162
651.39	0.162
651.58	0.161
651.78	0.161
651.98	0.161
652.18	0.161
652.38	0.161
652.58	0.161
652.78	0.161
652.98	0.160
653.18	0.161
653.38	0.161
653.57	0.160
653.77	0.160
653.97	0.160
654.17	0.159
654.37	0.159
654.57	0.159
654.77	0.158
654.97	0.158
655.16	0.158
655.36	0.158
655.56	0.157
655.76	0.156
655.96	0.157
656.16	0.156
656.36	0.156
656.56	0.156
656.75	0.155
656.95	0.155
657.15	0.155
657.35	0.154
657.55	0.154
657.75	0.154
657.95	0.154
658.14	0.154
658.34	0.154
658.54	0.153
658.74	0.153
658.94	0.153
659.14	0.152
659.34	0.152
659.53	0.152
659.73	0.152
659.93	0.152
660.13	0.151
660.33	0.151
660.53	0.151
660.72	0.152
660.92	0.151
661.12	0.151
661.32	0.151
661.52	0.150
661.72	0.150
661.91	0.149
662.11	0.150
662.31	0.149
662.51	0.149
662.71	0.148
662.90	0.147
663.10	0.147
663.30	0.147
663.50	0.147
663.70	0.147
663.90	0.146
664.09	0.146
664.29	0.145
664.49	0.146
664.69	0.145
664.89	0.145
665.08	0.145
665.28	0.145
665.48	0.145
665.68	0.144
665.88	0.144
666.07	0.144
666.27	0.144
666.47	0.144
666.67	0.144
666.87	0.144
667.06	0.143
667.26	0.142
667.46	0.142
667.66	0.142
667.85	0.142
668.05	0.142
668.25	0.142
668.45	0.142
668.65	0.142
668.84	0.141
669.04	0.141
669.24	0.141
669.44	0.140
669.63	0.140
669.83	0.140
670.03	0.139
670.23	0.138
670.42	0.138
670.62	0.137
670.82	0.137
671.02	0.136
671.22	0.136
671.41	0.135
671.61	0.136
671.81	0.136
672.01	0.136
672.20	0.135
672.40	0.135
672.60	0.135
672.80	0.135
672.99	0.135
673.19	0.134
673.39	0.135
673.58	0.134
673.78	0.134
673.98	0.133
674.18	0.133
674.37	0.133
674.57	0.132
674.77	0.133
674.97	0.132
675.16	0.133
675.36	0.132
675.56	0.131
675.75	0.131
675.95	0.130
676.15	0.131
676.35	0.131
676.54	0.130
676.74	0.130
676.94	0.130
677.13	0.129
677.33	0.129
677.53	0.129
677.73	0.129
677.92	0.128
678.12	0.129
678.32	0.127
678.51	0.128
678.71	0.128
678.91	0.127
679.11	0.127
679.30	0.127
679.50	0.126
679.70	0.126
679.89	0.125
680.09	0.125
680.29	0.125
680.48	0.125
680.68	0.125
680.88	0.125
681.07	0.125
681.27	0.124
681.47	0.125
681.66	0.125
681.86	0.124
682.06	0.124
682.25	0.124
682.45	0.124
682.65	0.123
682.84	0.122
683.04	0.122
683.24	0.122
683.43	0.122
683.63	0.121
683.83	0.121
684.02	0.121
684.22	0.121
684.42	0.121
684.61	0.121
684.81	0.121
685.01	0.120
685.20	0.120
685.40	0.120
685.60	0.120
685.79	0.120
685.99	0.120
686.19	0.119
686.38	0.119
686.58	0.119
686.77	0.119
686.97	0.119
687.17	0.119
687.36	0.119
687.56	0.119
687.76	0.119
687.95	0.119
688.15	0.119
688.34	0.119
688.54	0.118
688.74	0.117
688.93	0.117
689.13	0.117
689.33	0.117
689.52	0.116
689.72	0.116
689.91	0.115
690.11	0.115
690.31	0.114
690.50	0.114
690.70	0.115
690.89	0.114
691.09	0.114
691.29	0.113
691.48	0.113
691.68	0.113
691.87	0.113
692.07	0.114
692.27	0.113
692.46	0.113
692.66	0.113
692.85	0.112
693.05	0.112
693.25	0.112
693.44	0.112
693.64	0.112
693.83	0.111
694.03	0.111
694.22	0.110
694.42	0.110
694.62	0.110
694.81	0.111
695.01	0.111
695.20	0.110
695.40	0.110
695.59	0.110
695.79	0.109
695.99	0.110
696.18	0.109
696.38	0.109
696.57	0.109
696.77	0.109
696.96	0.109
697.16	0.109
697.36	0.109
697.55	0.109
697.75	0.109
697.94	0.108
698.14	0.109
698.33	0.108
698.53	0.108
698.72	0.108
698.92	0.107
699.11	0.107
699.31	0.107
699.51	0.107
699.70	0.107
699.90	0.106
700.09	0.106
700.29	0.106
700.48	0.106
700.68	0.105
700.87	0.105
701.07	0.105
701.26	0.104
701.46	0.104
701.65	0.104
701.85	0.104
702.04	0.104
702.24	0.104
702.43	0.104
702.63	0.103
702.82	0.103
703.02	0.103
703.21	0.103
703.41	0.103
703.60	0.103
703.80	0.102
703.99	0.102
704.19	0.102
704.38	0.102
704.58	0.102
704.77	0.102
704.97	0.102
705.16	0.102
705.36	0.102
705.55	0.102
705.75	0.101
705.94	0.101
706.14	0.101
706.33	0.101
706.53	0.101
706.72	0.101
706.92	0.100
707.11	0.100
707.31	0.100
707.50	0.100
707.70	0.100
707.89	0.100
708.09	0.099
708.28	0.099
708.48	0.099
708.67	0.099
708.86	0.099
709.06	0.099
709.25	0.099
709.45	0.099
709.64	0.098
709.84	0.098
710.03	0.098
710.23	0.097
710.42	0.097
710.62	0.097
710.81	0.097
711.00	0.097
711.20	0.097
711.39	0.097
711.59	0.097
711.78	0.097
711.98	0.097
712.17	0.097
712.37	0.097
712.56	0.097
712.75	0.097
712.95	0.097
713.14	0.097
713.34	0.097
713.53	0.097
713.73	0.097
713.92	0.097
714.11	0.097
714.31	0.097
714.50	0.097
714.70	0.096
714.89	0.096
715.08	0.096
715.28	0.096
715.47	0.096
715.67	0.096
715.86	0.096
716.06	0.096
716.25	0.095
716.44	0.095
716.64	0.095
716.83	0.095
717.03	0.095
717.22	0.095
717.41	0.094
717.61	0.094
717.80	0.094
717.99	0.094
718.19	0.094
718.38	0.094
718.58	0.094
718.77	0.094
718.96	0.094
719.16	0.094
719.35	0.093
719.55	0.093
719.74	0.093
719.93	0.093
720.13	0.093
720.32	0.092
720.51	0.093
720.71	0.093
720.90	0.092
721.10	0.092
721.29	0.092
721.48	0.091
721.68	0.091
721.87	0.092
722.06	0.091
722.26	0.092
722.45	0.091
722.64	0.091
722.84	0.091
723.03	0.091
723.22	0.092
723.42	0.092
723.61	0.092
723.80	0.092
724.00	0.092
724.19	0.092
724.38	0.092
724.58	0.092
724.77	0.092
724.96	0.091
725.16	0.091
725.35	0.091
725.54	0.091
725.74	0.091
725.93	0.091
726.12	0.091
726.32	0.091
726.51	0.091
726.70	0.091
726.90	0.092
727.09	0.091
727.28	0.091
727.48	0.091
727.67	0.090
727.86	0.091
728.06	0.091
728.25	0.091
728.44	0.091
728.64	0.091
728.83	0.091
729.02	0.090
729.21	0.091
729.41	0.090
729.60	0.091
729.79	0.091
729.99	0.091
730.18	0.091
730.37	0.090
730.56	0.090
730.76	0.090
730.95	0.090
731.14	0.089
731.34	0.089
731.53	0.090
731.72	0.090
731.91	0.090
732.11	0.089
732.30	0.090
732.49	0.090
732.69	0.090
732.88	0.090
733.07	0.090
733.26	0.090
733.46	0.090
733.65	0.090
733.84	0.089
734.03	0.089
734.23	0.090
734.42	0.090
734.61	0.090
734.80	0.090
735.00	0.090
735.19	0.090
735.38	0.090
735.57	0.090
735.77	0.090
735.96	0.090
736.15	0.090
736.34	0.090
736.54	0.090
736.73	0.090
736.92	0.090
737.11	0.090
737.31	0.089
737.50	0.089
737.69	0.089
737.88	0.089
738.07	0.089
738.27	0.090
738.46	0.089
738.65	0.089
738.84	0.089
739.04	0.089
739.23	0.089
739.42	0.089
739.61	0.089
739.80	0.089
740.00	0.089
740.19	0.089
740.38	0.088
740.57	0.088
740.76	0.088
740.96	0.088
741.15	0.088
741.34	0.088
741.53	0.088
741.72	0.088
741.92	0.088
742.11	0.088
742.30	0.088
742.49	0.088
742.68	0.088
742.88	0.088
743.07	0.088
743.26	0.088
743.45	0.088
743.64	0.087
743.84	0.087
744.03	0.087
744.22	0.087
744.41	0.086
744.60	0.086
744.79	0.086
744.99	0.086
745.18	0.086
745.37	0.086
745.56	0.085
745.75	0.085
745.94	0.085
746.14	0.085
746.33	0.085
746.52	0.086
746.71	0.086
746.90	0.085
747.09	0.085
747.28	0.085
747.48	0.085
747.67	0.085
747.86	0.085
748.05	0.085
748.24	0.084
748.43	0.084
748.62	0.084
748.82	0.084
749.01	0.084
749.20	0.084
749.39	0.084
749.58	0.084
749.77	0.084
749.96	0.084
750.16	0.084
750.35	0.084
750.54	0.084
750.73	0.084
750.92	0.084
751.11	0.084
751.30	0.084
751.49	0.084
751.68	0.083
751.88	0.083
752.07	0.082
752.26	0.083
752.45	0.083
752.64	0.082
752.83	0.082
753.02	0.082
753.21	0.082
753.40	0.081
753.60	0.082
753.79	0.082
753.98	0.082
754.17	0.082
754.36	0.081
754.55	0.082
754.74	0.082
754.93	0.082
755.12	0.082
755.31	0.082
755.50	0.082
755.70	0.082
755.89	0.081
756.08	0.082
756.27	0.081
756.46	0.082
756.65	0.081
756.84	0.081
757.03	0.081
757.22	0.080
757.41	0.081
757.60	0.080
757.79	0.081
757.98	0.081
758.17	0.081
758.36	0.081
758.56	0.081
758.75	0.080
758.94	0.080
759.13	0.080
759.32	0.080
759.51	0.080
759.70	0.080
759.89	0.080
760.08	0.080
760.27	0.080
760.46	0.080
760.65	0.080
760.84	0.079
761.03	0.080
761.22	0.080
761.41	0.080
761.60	0.080
761.79	0.079
761.98	0.079
762.17	0.079
762.36	0.079
762.55	0.079
762.74	0.079
762.93	0.079
763.12	0.079
763.31	0.079
763.50	0.079
763.69	0.079
763.88	0.078
764.07	0.078
764.26	0.078
764.45	0.078
764.64	0.078
764.83	0.078
765.02	0.078
765.21	0.078
765.40	0.078
765.59	0.077
765.78	0.078
765.97	0.078
766.16	0.077
766.35	0.077
766.54	0.077
766.73	0.077
766.92	0.077
767.11	0.077
767.30	0.077
767.49	0.077
767.68	0.077
767.87	0.077
768.06	0.077
768.25	0.077
768.44	0.077
768.63	0.076
768.82	0.077
769.01	0.076
769.20	0.076
769.39	0.076
769.58	0.076
769.77	0.076
769.96	0.076
770.15	0.076
770.34	0.076
770.53	0.076
770.72	0.076
770.91	0.076
771.10	0.076
771.29	0.076
771.47	0.075
771.66	0.075
771.85	0.076
772.04	0.076
772.23	0.076
772.42	0.076
772.61	0.076
772.80	0.076
772.99	0.076
773.18	0.075
773.37	0.076
773.56	0.075
773.75	0.076
773.94	0.076
774.13	0.075
774.31	0.075
774.50	0.075
774.69	0.075
774.88	0.075
775.07	0.075
775.26	0.075
775.45	0.075
775.64	0.075
775.83	0.075
776.02	0.075
776.21	0.075
776.40	0.075
776.58	0.075
776.77	0.075
776.96	0.075
777.15	0.075
777.34	0.075
777.53	0.075
777.72	0.075
777.91	0.075
778.10	0.075
778.28	0.074
778.47	0.074
778.66	0.074
778.85	0.074
779.04	0.074
779.23	0.073
779.42	0.073
779.61	0.073
779.79	0.073
779.98	0.073
780.17	0.073
780.36	0.073
780.55	0.073
780.74	0.073
780.93	0.073
781.12	0.073
781.30	0.073
781.49	0.073
781.68	0.073
781.87	0.073
782.06	0.073
782.25	0.073
782.44	0.073
782.62	0.073
782.81	0.073
783.00	0.073
783.19	0.073
783.38	0.073
783.57	0.073
783.75	0.072
783.94	0.072
784.13	0.072
784.32	0.072
784.51	0.072
784.70	0.072
784.88	0.072
785.07	0.072
785.26	0.072
785.45	0.072
785.64	0.071
785.83	0.072
786.01	0.071
786.20	0.071
786.39	0.072
786.58	0.071
786.77	0.071
786.95	0.071
787.14	0.071
787.33	0.071
787.52	0.071
787.71	0.071
787.90	0.071
788.08	0.071
788.27	0.071
788.46	0.071
788.65	0.071
788.84	0.072
789.02	0.071
789.21	0.071
789.40	0.071
789.59	0.071
789.77	0.071
789.96	0.071
790.15	0.071
790.34	0.071
790.53	0.071
790.71	0.070
790.90	0.070
791.09	0.070
791.28	0.070
791.46	0.070
791.65	0.070
791.84	0.070
792.03	0.070
792.22	0.070
792.40	0.070
792.59	0.070
792.78	0.070
792.97	0.070
793.15	0.070
793.34	0.070
793.53	0.070
793.72	0.070
793.90	0.070
794.09	0.070
794.28	0.070
794.47	0.070
794.65	0.069
794.84	0.069
795.03	0.069
795.22	0.069
795.40	0.069
795.59	0.069
795.78	0.069
795.97	0.069
796.15	0.069
796.34	0.069
796.53	0.070
796.71	0.070
796.90	0.070
797.09	0.070
797.28	0.070
797.46	0.070
797.65	0.070
797.84	0.070
798.02	0.070
798.21	0.070
798.40	0.070
798.59	0.069
798.77	0.069
798.96	0.069
799.15	0.068
799.33	0.068
799.52	0.068
799.71	0.068
799.90	0.068
800.08	0.068
800.27	0.068
800.46	0.068
800.64	0.068
800.83	0.068
801.02	0.068
801.20	0.068
801.39	0.068
801.58	0.068
801.76	0.067
801.95	0.068
802.14	0.068
802.32	0.068
802.51	0.068
802.70	0.068
802.88	0.068
803.07	0.068
803.26	0.067
803.44	0.067
803.63	0.067
803.82	0.067
804.00	0.067
804.19	0.067
804.38	0.068
804.56	0.067
804.75	0.068
804.94	0.068
805.12	0.068
805.31	0.068
805.50	0.068
805.68	0.068
805.87	0.068
806.06	0.068
806.24	0.068
806.43	0.068
806.62	0.068
806.80	0.068
806.99	0.067
807.17	0.067
807.36	0.068
807.55	0.067
807.73	0.067
807.92	0.067
808.11	0.067
808.29	0.067
808.48	0.067
808.66	0.067
808.85	0.066
809.04	0.067
809.22	0.067
809.41	0.067
809.59	0.066
809.78	0.067
809.97	0.066
810.15	0.066
810.34	0.066
810.53	0.066
810.71	0.066
810.90	0.066
811.08	0.066
811.27	0.066
811.45	0.066
811.64	0.066
811.83	0.066
812.01	0.067
812.20	0.067
812.38	0.066
812.57	0.067
812.76	0.066
812.94	0.066
813.13	0.066
813.31	0.066
813.50	0.066
813.68	0.066
813.87	0.066
814.06	0.066
814.24	0.066
814.43	0.066
814.61	0.065
814.80	0.065
814.98	0.066
815.17	0.066
815.36	0.066
815.54	0.066
815.73	0.066
815.91	0.066
816.10	0.066
816.28	0.066
816.47	0.066
816.65	0.066
816.84	0.067
817.03	0.067
817.21	0.067
817.40	0.067
817.58	0.066
817.77	0.067
817.95	0.067
818.14	0.067
818.32	0.067
818.51	0.067
818.69	0.067
818.88	0.066
819.06	0.066
819.25	0.066
819.43	0.066
819.62	0.066
819.80	0.066
819.99	0.066
820.18	0.066
820.36	0.066
820.55	0.066
820.73	0.066
820.92	0.066
821.10	0.066
821.29	0.066
821.47	0.066
821.66	0.066
821.84	0.066
822.03	0.066
822.21	0.066
822.40	0.066
822.58	0.067
822.77	0.066
822.95	0.067
823.14	0.066
823.32	0.067
823.50	0.067
823.69	0.067
823.87	0.067
824.06	0.067
824.24	0.067
824.43	0.067
824.61	0.067
824.80	0.068
824.98	0.068
825.17	0.068
825.35	0.068
825.54	0.068
825.72	0.068
825.91	0.068
826.09	0.068
826.28	0.067
826.46	0.068
826.64	0.068
826.83	0.068
827.01	0.068
827.20	0.068
827.38	0.068
827.57	0.068
827.75	0.068
827.94	0.068
828.12	0.069
828.31	0.069
828.49	0.069
828.67	0.069
828.86	0.069
829.04	0.069
829.23	0.069
829.41	0.070
829.60	0.070
829.78	0.070
829.96	0.071
830.15	0.070
830.33	0.070
830.52	0.071
830.70	0.070
830.88	0.070
831.07	0.071
831.25	0.071
831.44	0.070
831.62	0.070
831.81	0.070
831.99	0.071
832.17	0.071
832.36	0.071
832.54	0.071
832.73	0.071
832.91	0.071
833.09	0.071
833.28	0.071
833.46	0.072
833.65	0.072
833.83	0.071
834.01	0.072
834.20	0.072
834.38	0.071
834.56	0.071
834.75	0.071
834.93	0.072
835.12	0.072
835.30	0.072
835.48	0.072
835.67	0.072
835.85	0.072
836.03	0.072
836.22	0.072
836.40	0.072
836.59	0.072
836.77	0.072
836.95	0.072
837.14	0.072
837.32	0.071
837.50	0.071
837.69	0.072
837.87	0.072
838.05	0.072
838.24	0.072
838.42	0.072
838.60	0.072
838.79	0.072
838.97	0.072
839.15	0.073
839.34	0.073
839.52	0.073
839.70	0.073
839.89	0.073
840.07	0.074
840.25	0.074
840.44	0.073
840.62	0.073
840.80	0.073
840.99	0.074
841.17	0.073
841.35	0.073
841.54	0.073
841.72	0.073
841.90	0.073
842.09	0.073
842.27	0.073
842.45	0.073
842.64	0.073
842.82	0.073
843.00	0.073
843.19	0.073
843.37	0.073
843.55	0.073
843.73	0.073
843.92	0.073
844.10	0.073
844.28	0.073
844.47	0.073
844.65	0.073
844.83	0.073
845.01	0.073
845.20	0.073
845.38	0.074
845.56	0.074
845.75	0.073
845.93	0.073
846.11	0.073
846.29	0.073
846.48	0.073
846.66	0.074
846.84	0.073
847.02	0.073
847.21	0.073
847.39	0.073
847.57	0.073
847.76	0.073
847.94	0.073
848.12	0.073
848.30	0.073
848.49	0.073
848.67	0.073
848.85	0.074
849.03	0.074
849.22	0.074
849.40	0.075
849.58	0.075
849.76	0.075
849.95	0.075
850.13	0.075
850.31	0.075
850.49	0.075
850.67	0.075
850.86	0.075
851.04	0.075
851.22	0.075
851.40	0.074
851.59	0.074
851.77	0.074
851.95	0.074
852.13	0.074
852.31	0.074
852.50	0.074
852.68	0.074
852.86	0.074
853.04	0.074
853.23	0.074
853.41	0.074
853.59	0.074
853.77	0.074
853.95	0.074
854.14	0.074
854.32	0.074
854.50	0.074
854.68	0.074
854.86	0.074
855.04	0.074
855.23	0.074
855.41	0.075
855.59	0.075
855.77	0.075
855.95	0.075
856.14	0.075
856.32	0.075
856.50	0.075
856.68	0.075
856.86	0.075
857.04	0.074
857.23	0.074
857.41	0.074
857.59	0.074
857.77	0.074
857.95	0.074
858.13	0.074
858.32	0.074
858.50	0.074
858.68	0.074
858.86	0.074
859.04	0.075
859.22	0.074
859.41	0.075
859.59	0.075
859.77	0.075
859.95	0.074
860.13	0.075
860.31	0.075
860.49	0.075
860.68	0.075
860.86	0.075
861.04	0.075
861.22	0.075
861.40	0.075
861.58	0.075
861.76	0.075
861.94	0.075
862.13	0.075
862.31	0.075
862.49	0.075
862.67	0.075
862.85	0.076
863.03	0.076
863.21	0.076
863.39	0.076
863.57	0.076
863.76	0.076
863.94	0.076
864.12	0.076
864.30	0.075
864.48	0.075
864.66	0.075
864.84	0.075
865.02	0.076
865.20	0.075
865.38	0.076
865.57	0.076
865.75	0.076
865.93	0.076
866.11	0.076
866.29	0.077
866.47	0.077
866.65	0.077
866.83	0.077
867.01	0.076
867.19	0.076
867.37	0.076
867.55	0.076
867.73	0.076
867.92	0.076
868.10	0.076
868.28	0.076
868.46	0.076
868.64	0.076
868.82	0.076
869.00	0.076
869.18	0.076
869.36	0.076
869.54	0.077
869.72	0.077
869.90	0.077
870.08	0.077
870.26	0.077
870.44	0.077
870.62	0.076
870.80	0.076
870.98	0.076
871.16	0.076
871.34	0.076
871.53	0.076
871.71	0.076
871.89	0.076
872.07	0.077
872.25	0.076
872.43	0.077
872.61	0.077
872.79	0.078
872.97	0.078
873.15	0.078
873.33	0.078
873.51	0.078
873.69	0.078
873.87	0.078
874.05	0.078
874.23	0.078
874.41	0.077
874.59	0.078
874.77	0.077
874.95	0.077
875.13	0.077
875.31	0.077
875.49	0.077
875.67	0.077
875.85	0.077
876.03	0.077
876.21	0.078
876.39	0.078
876.57	0.079
876.75	0.079
876.93	0.079
877.11	0.078
877.29	0.078
877.47	0.078
877.65	0.079
877.82	0.079
878.00	0.079
878.18	0.079
878.36	0.079
878.54	0.079
878.72	0.079
878.90	0.079
879.08	0.079
879.26	0.079
879.44	0.079
879.62	0.079
879.80	0.079
879.98	0.079
880.16	0.078
880.34	0.078
880.52	0.078
880.70	0.078
880.88	0.078
881.06	0.078
881.24	0.078
881.42	0.079
881.59	0.078
881.77	0.078
881.95	0.079
882.13	0.079
882.31	0.079
882.49	0.078
882.67	0.079
882.85	0.079
883.03	0.079
883.21	0.079
883.39	0.079
883.57	0.079
883.75	0.079
883.92	0.079
884.10	0.079
884.28	0.079
884.46	0.080
884.64	0.080
884.82	0.080
885.00	0.080
885.18	0.079
885.36	0.080
885.54	0.080
885.71	0.080
885.89	0.080
886.07	0.080
886.25	0.080
886.43	0.080
886.61	0.080
886.79	0.080
886.97	0.080
887.15	0.080
887.32	0.080
887.50	0.080
887.68	0.080
887.86	0.080
888.04	0.080
888.22	0.080
888.40	0.080
888.57	0.081
888.75	0.081
888.93	0.081
889.11	0.081
889.29	0.081
889.47	0.081
889.65	0.081
889.82	0.081
890.00	0.081
890.18	0.081
890.36	0.081
890.54	0.081
890.72	0.081
890.90	0.081
891.07	0.081
891.25	0.081
891.43	0.081
891.61	0.081
891.79	0.081
891.97	0.081
892.14	0.081
892.32	0.081
892.50	0.081
892.68	0.081
892.86	0.081
893.03	0.081
893.21	0.082
893.39	0.082
893.57	0.082
893.75	0.082
893.93	0.082
894.10	0.082
894.28	0.082
894.46	0.082
894.64	0.082
894.82	0.082
894.99	0.082
895.17	0.082
895.35	0.082
895.53	0.082
895.71	0.082
895.88	0.082
896.06	0.082
896.24	0.082
896.42	0.082
896.59	0.082
896.77	0.082
896.95	0.082
897.13	0.082
897.31	0.082
897.48	0.082
897.66	0.083
897.84	0.082
898.02	0.083
898.19	0.083
898.37	0.083
898.55	0.083
898.73	0.083
898.91	0.083
899.08	0.083
899.26	0.083
899.44	0.083
899.62	0.083
899.79	0.084
899.97	0.084
900.15	0.084
900.33	0.084
900.50	0.084
900.68	0.084
900.86	0.084
901.04	0.084
901.21	0.084
901.39	0.084
901.57	0.084
901.74	0.083
901.92	0.083
902.10	0.084
902.28	0.083
902.45	0.084
902.63	0.083
902.81	0.083
902.99	0.084
903.16	0.084
903.34	0.084
903.52	0.084
903.69	0.084
903.87	0.084
904.05	0.084
904.22	0.085
904.40	0.084
904.58	0.084
904.76	0.085
904.93	0.084
905.11	0.085
905.29	0.085
905.46	0.085
905.64	0.085
905.82	0.085
905.99	0.085
906.17	0.085
906.35	0.085
906.53	0.085
906.70	0.085
906.88	0.086
907.06	0.086
907.23	0.086
907.41	0.086
907.59	0.086
907.76	0.086
907.94	0.086
908.12	0.086
908.29	0.087
908.47	0.087
908.65	0.087
908.82	0.087
909.00	0.087
909.18	0.087
909.35	0.087
909.53	0.087
909.71	0.087
909.88	0.088
910.06	0.087
910.23	0.087
910.41	0.087
910.59	0.087
910.76	0.087
910.94	0.087
911.12	0.087
911.29	0.087
911.47	0.087
911.65	0.087
911.82	0.087
912.00	0.088
912.17	0.088
912.35	0.088
912.53	0.088
912.70	0.088
912.88	0.088
913.06	0.089
913.23	0.089
913.41	0.089
913.58	0.089
913.76	0.089
913.94	0.089
914.11	0.090
914.29	0.089
914.46	0.090
914.64	0.090
914.82	0.090
914.99	0.090
915.17	0.090
915.34	0.090
915.52	0.090
915.70	0.090
915.87	0.090
916.05	0.090
916.22	0.090
916.40	0.090
916.57	0.091
916.75	0.091
916.93	0.091
917.10	0.090
917.28	0.091
917.45	0.091
917.63	0.091
917.80	0.091
917.98	0.091
918.16	0.091
918.33	0.092
918.51	0.092
918.68	0.092
918.86	0.092
919.03	0.092
919.21	0.092
919.39	0.093
919.56	0.093
919.74	0.093
919.91	0.093
920.09	0.093
920.26	0.093
920.44	0.093
920.61	0.093
920.79	0.094
920.96	0.094
921.14	0.094
921.31	0.094
921.49	0.094
921.67	0.095
921.84	0.095
922.02	0.095
922.19	0.095
922.37	0.096
922.54	0.096
922.72	0.096
922.89	0.097
923.07	0.097
923.24	0.097
923.42	0.097
923.59	0.097
923.77	0.098
923.94	0.098
924.12	0.098
924.29	0.099
924.47	0.099
924.64	0.099
924.82	0.099
924.99	0.100
925.17	0.100
925.34	0.100
925.52	0.101
925.69	0.101
925.87	0.102
926.04	0.102
926.22	0.102
926.39	0.102
926.57	0.102
926.74	0.103
926.91	0.103
927.09	0.103
927.26	0.103
927.44	0.103
927.61	0.104
927.79	0.104
927.96	0.105
928.14	0.105
928.31	0.106
928.49	0.106
928.66	0.106
928.84	0.107
929.01	0.107
929.18	0.108
929.36	0.109
929.53	0.109
929.71	0.109
929.88	0.110
930.06	0.110
930.23	0.110
930.41	0.110
930.58	0.111
930.75	0.111
930.93	0.112
931.10	0.112
931.28	0.112
931.45	0.113
931.63	0.113
931.80	0.113
931.97	0.114
932.15	0.115
932.32	0.115
932.50	0.115
932.67	0.116
932.84	0.117
933.02	0.118
933.19	0.118
933.37	0.118
933.54	0.119
933.71	0.119
933.89	0.120
934.06	0.120
934.24	0.121
934.41	0.121
934.58	0.121
934.76	0.122
934.93	0.122
935.11	0.123
935.28	0.123
935.45	0.123
935.63	0.124
935.80	0.124
935.98	0.125
936.15	0.125
936.32	0.125
936.50	0.126
936.67	0.126
936.84	0.126
937.02	0.128
937.19	0.128
937.36	0.129
937.54	0.129
937.71	0.130
937.89	0.130
938.06	0.131
938.23	0.132
938.41	0.132
938.58	0.133
938.75	0.133
938.93	0.134
939.10	0.134
939.27	0.135
939.45	0.135
939.62	0.136
939.79	0.137
939.97	0.137
940.14	0.138
940.31	0.139
940.49	0.139
940.66	0.139
940.83	0.140
941.01	0.141
941.18	0.142
941.35	0.143
941.53	0.143
941.70	0.144
941.87	0.144
942.05	0.144
942.22	0.145
942.39	0.146
942.57	0.146
942.74	0.147
942.91	0.146
943.08	0.147
943.26	0.147
943.43	0.148
943.60	0.149
943.78	0.149
943.95	0.150
944.12	0.151
944.29	0.152
944.47	0.153
944.64	0.153
944.81	0.155
944.99	0.155
945.16	0.156
945.33	0.156
945.50	0.157
945.68	0.159
945.85	0.159
946.02	0.161
946.20	0.161
946.37	0.162
946.54	0.163
946.71	0.164
946.89	0.164
947.06	0.165
947.23	0.166
947.40	0.167
947.58	0.167
947.75	0.169
947.92	0.169
948.09	0.170
948.27	0.171
948.44	0.172
948.61	0.173
948.78	0.174
948.96	0.176
949.13	0.176
949.30	0.177
949.47	0.178
949.65	0.179
949.82	0.181
949.99	0.181
950.16	0.183
950.33	0.183
950.51	0.185
950.68	0.186
950.85	0.187
951.02	0.189
951.20	0.190
951.37	0.191
951.54	0.192
951.71	0.193
951.88	0.195
952.06	0.196
952.23	0.197
952.40	0.198
952.57	0.199
952.74	0.201
952.92	0.201
953.09	0.203
953.26	0.204
953.43	0.205
953.60	0.206
953.77	0.207
953.95	0.208
954.12	0.210
954.29	0.211
954.46	0.213
954.63	0.214
954.81	0.215
954.98	0.215
955.15	0.217
955.32	0.219
955.49	0.219
955.66	0.220
955.84	0.222
956.01	0.222
956.18	0.224
956.35	0.225
956.52	0.225
956.69	0.227
956.87	0.227
957.04	0.228
957.21	0.231
957.38	0.231
957.55	0.233
957.72	0.233
957.89	0.235
958.07	0.235
958.24	0.237
958.41	0.238
958.58	0.238
958.75	0.239
958.92	0.240
959.09	0.240
959.26	0.241
959.44	0.241
959.61	0.243
959.78	0.243
959.95	0.244
960.12	0.244
960.29	0.246
960.46	0.246
960.63	0.246
960.81	0.247
960.98	0.248
961.15	0.248
961.32	0.249
961.49	0.249
961.66	0.250
961.83	0.250
962.00	0.250
962.17	0.251
962.34	0.251
962.52	0.252
962.69	0.253
962.86	0.252
963.03	0.253
963.20	0.254
963.37	0.253
963.54	0.254
963.71	0.254
963.88	0.254
964.05	0.254
964.22	0.256
964.39	0.254
964.56	0.255
964.74	0.256
964.91	0.256
965.08	0.256
965.25	0.256
965.42	0.257
965.59	0.258
965.76	0.258
965.93	0.259
966.10	0.257
966.27	0.258
966.44	0.258
966.61	0.259
966.78	0.258
966.95	0.258
967.12	0.259
967.29	0.261
967.46	0.260
967.63	0.259
967.80	0.260
967.97	0.260
968.14	0.260
968.32	0.260
968.49	0.260
968.66	0.259
968.83	0.259
969.00	0.259
969.17	0.259
969.34	0.260
969.51	0.261
969.68	0.259
969.85	0.260
970.02	0.260
970.19	0.260
970.36	0.261
970.53	0.261
970.70	0.260
970.87	0.260
971.04	0.260
971.21	0.260
971.38	0.260
971.55	0.261
971.72	0.261
971.89	0.262
972.06	0.261
972.23	0.261
972.40	0.261
972.57	0.260
972.74	0.260
972.91	0.261
973.07	0.262
973.24	0.261
973.41	0.261
973.58	0.260
973.75	0.272
973.92	0.261
974.09	0.260
974.26	0.260
974.43	0.260
974.60	0.261
974.77	0.262
974.94	0.261
975.11	0.262
975.28	0.263
975.45	0.261
975.62	0.262
975.79	0.262
975.96	0.261
976.13	0.260
976.30	0.262
976.47	0.260
976.64	0.260
976.80	0.260
976.97	0.261
977.14	0.261
977.31	0.261
977.48	0.262
977.65	0.262
977.82	0.261
977.99	0.262
978.16	0.262
978.33	0.261
978.50	0.260
978.67	0.261
978.83	0.260
979.00	0.260
979.17	0.259
979.34	0.258
979.51	0.258
979.68	0.259
979.85	0.258
980.02	0.258
980.19	0.257
980.36	0.258
980.52	0.259
980.69	0.258
980.86	0.258
981.03	0.258
981.20	0.256
981.37	0.257
981.54	0.257
981.71	0.256
981.88	0.256
982.04	0.256
982.21	0.255
982.38	0.257
982.55	0.255
982.72	0.255
982.89	0.256
983.06	0.254
983.22	0.254
983.39	0.254
983.56	0.254
983.73	0.253
983.90	0.253
984.07	0.254
984.24	0.253
984.40	0.253
984.57	0.251
984.74	0.253
984.91	0.254
985.08	0.252
985.25	0.249
985.41	0.250
985.58	0.250
985.75	0.251
985.92	0.250
986.09	0.249
986.26	0.249
986.42	0.249
986.59	0.247
986.76	0.249
986.93	0.249
987.10	0.249
987.27	0.247
987.43	0.245
987.60	0.247
987.77	0.247
987.94	0.245
988.11	0.246
988.27	0.246
988.44	0.245
988.61	0.244
988.78	0.242
988.95	0.243
989.11	0.245
989.28	0.243
989.45	0.242
989.62	0.242
989.79	0.242
989.95	0.241
990.12	0.242
990.29	0.242
990.46	0.240
990.62	0.239
990.79	0.239
990.96	0.239
991.13	0.240
991.30	0.238
991.46	0.237
991.63	0.236
991.80	0.236
991.97	0.235
992.13	0.236
992.30	0.237
992.47	0.235
992.64	0.235
992.80	0.235
992.97	0.235
993.14	0.232
993.31	0.231
993.47	0.233
993.64	0.230
993.81	0.230
993.98	0.231
994.14	0.229
994.31	0.229
994.48	0.230
994.64	0.230
994.81	0.228
994.98	0.229
995.15	0.227
995.31	0.228
995.48	0.228
995.65	0.229
995.82	0.226
995.98	0.226
996.15	0.228
996.32	0.229
996.48	0.228
996.65	0.228
996.82	0.226
996.99	0.226
997.15	0.225
997.32	0.226
997.49	0.224
997.65	0.225
997.82	0.224
997.99	0.221
998.15	0.221
998.32	0.223
998.49	0.221
998.65	0.221
998.82	0.221
998.99	0.218
999.15	0.219
999.32	0.218
999.49	0.218
999.65	0.218
999.82	0.216
999.99	0.217
1000.15	0.216
1000.32	0.216
1000.49	0.217
1000.65	0.214
1000.82	0.215
1000.99	0.215
1001.15	0.215
1001.32	0.214
1001.49	0.215
1001.65	0.215
1001.82	0.217
1001.99	0.214
1002.15	0.213
1002.32	0.213
1002.49	0.214
1002.65	0.212
1002.82	0.210
1002.99	0.210
1003.15	0.212
1003.32	0.210
1003.48	0.210
1003.65	0.210
1003.82	0.208
1003.98	0.206
1004.15	0.206
1004.32	0.206
1004.48	0.206
1004.65	0.208
1004.81	0.206
1004.98	0.205
1005.15	0.206
1005.31	0.205
1005.48	0.204
1005.64	0.203
1005.81	0.206
1005.98	0.203
1006.14	0.202
1006.31	0.202
1006.47	0.200
1006.64	0.198
1006.81	0.197
1006.97	0.197
1007.14	0.197
1007.30	0.197
1007.47	0.198
1007.63	0.195
1007.80	0.194
1007.97	0.195
1008.13	0.196
1008.30	0.196
1008.46	0.197
1008.63	0.196
1008.79	0.197
1008.96	0.197
1009.13	0.198
1009.29	0.195
1009.46	0.196
1009.62	0.196
1009.79	0.194
1009.95	0.194
1010.12	0.194
1010.28	0.194
1010.45	0.193
1010.62	0.192
1010.78	0.190
1010.95	0.188
1011.11	0.189
1011.28	0.188
1011.44	0.190
1011.61	0.188
1011.77	0.187
1011.94	0.186
1012.10	0.186
1012.27	0.185
1012.43	0.185
1012.60	0.184
1012.76	0.185
1012.93	0.184
1013.10	0.182
1013.26	0.179
1013.43	0.180
1013.59	0.188
1013.76	0.181
1013.92	0.180
1014.09	0.179
1014.25	0.180
1014.42	0.181
1014.58	0.181
1014.75	0.183
1014.91	0.182
1015.08	0.184
1015.24	0.181
1015.41	0.181
1015.57	0.181
1015.73	0.180
1015.90	0.178
1016.06	0.179
1016.23	0.177
1016.39	0.178
1016.56	0.178
1016.72	0.178
1016.89	0.177
1017.05	0.180
1017.22	0.176
1017.38	0.177
1017.55	0.176
1017.71	0.178
1017.88	0.177
1018.04	0.178
1018.21	0.175
1018.37	0.175
1018.53	0.175
1018.70	0.173
1018.86	0.173
1019.03	0.175
1019.19	0.172
1019.36	0.172
1019.52	0.173
1019.69	0.174
1019.85	0.172
1020.01	0.172
1020.18	0.170
1020.34	0.170
1020.51	0.169
1020.67	0.170
1020.84	0.169
1021.00	0.169
1021.16	0.166
1021.33	0.167
1021.49	0.166
1021.66	0.166
1021.82	0.165
1021.98	0.165
1022.15	0.164
1022.31	0.164
1022.48	0.162
1022.64	0.165
1022.80	0.163
1022.97	0.163
1023.13	0.162
1023.30	0.162
1023.46	0.163
1023.62	0.160
1023.79	0.161
1023.95	0.162
1024.12	0.161
1024.28	0.160
1024.44	0.159
1024.61	0.159
1024.77	0.158
1024.93	0.158
1025.10	0.158
1025.26	0.156
1025.43	0.158
1025.59	0.153
1025.75	0.157
1025.92	0.156
1026.08	0.155
1026.24	0.155
1026.41	0.155
1026.57	0.154
1026.73	0.151
1026.90	0.154
1027.06	0.151
1027.23	0.153
1027.39	0.153
1027.55	0.153
1027.72	0.151
1027.88	0.151
1028.04	0.152
1028.21	0.153
1028.37	0.147
1028.53	0.153
1028.70	0.151
1028.86	0.149
1029.02	0.149
1029.19	0.150
1029.35	0.148
1029.51	0.148
1029.67	0.147
1029.84	0.149
1030.00	0.144
1030.16	0.145
1030.33	0.146
1030.49	0.143
1030.65	0.141
1030.82	0.155
1030.98	0.142
1031.14	0.142
1031.31	0.143
1031.47	0.141
1031.63	0.143
1031.79	0.143
1031.96	0.144
1032.12	0.145
1032.28	0.144
1032.45	0.148
1032.61	0.146
1032.77	0.146
1032.93	0.144
1033.10	0.145
1033.26	0.147
1033.42	0.144
1033.58	0.144
1033.75	0.145
1033.91	0.144
1034.07	0.147
1034.24	0.145
1034.40	0.144
1034.56	0.143
1034.72	0.143
1034.89	0.143
1035.05	0.141
1035.21	0.141
1035.37	0.140
1035.54	0.143
1035.70	0.141
1035.86	0.139
1036.02	0.141
1036.19	0.140
1036.35	0.138
1036.51	0.142
1036.67	0.139
1036.83	0.138
1037.00	0.138
1037.16	0.137
1037.32	0.137
1037.48	0.136
1037.65	0.140
1037.81	0.135
1037.97	0.136
1038.13	0.136
1038.29	0.134
1038.46	0.132
1038.62	0.136
1038.78	0.132
1038.94	0.130
1039.10	0.133
1039.27	0.130
1039.43	0.131
1039.59	0.131
1039.75	0.130
1039.91	0.129
1040.08	0.128
1040.24	0.131
1040.40	0.133
1040.56	0.133
1040.72	0.127
1040.89	0.129
1041.05	0.130
1041.21	0.129
1041.37	0.127
1041.53	0.133
1041.69	0.130
1041.86	0.128
1042.02	0.126
1042.18	0.126
1042.34	0.126
1042.50	0.131
1042.66	0.127
1042.83	0.126
1042.99	0.129
1043.15	0.124
1043.31	0.125
1043.47	0.130
1043.63	0.128
1043.79	0.128
1043.96	0.128
1044.12	0.133
1044.28	0.129
1044.44	0.131
1044.60	0.127
1044.76	0.126
1044.92	0.129
1045.09	0.131
1045.25	0.127
1045.41	0.128
1045.57	0.123
1045.73	0.125
1045.89	0.124
1046.05	0.126
1046.21	0.125
1046.38	0.129
1046.54	0.134
1046.70	0.123
1046.86	0.121
>>>>>End Processed Spectral Data<<<<<
