SpectraSuite Data File
++++++++++++++++++++++++++++++++++++
Date: Mon May 20 12:13:42 CDT 2013
User: Students
Dark Spectrum Present: Yes
Reference Spectrum Present: Yes
Number of Sampled Component Spectra: 1
Spectrometers: USB4H00887
Integration Time (usec): 60000 (USB4H00887)
Spectra Averaged: 5 (USB4H00887)
Boxcar Smoothing: 5 (USB4H00887)
Correct for Electrical Dark: No (USB4H00887)
Strobe/Lamp Enabled: No (USB4H00887)
Correct for Detector Non-linearity: No (USB4H00887)
Correct for Stray Light: No (USB4H00887)
Number of Pixels in Processed Spectrum: 3648
>>>>>Begin Processed Spectral Data<<<<<
345.83	0.090
346.05	0.090
346.26	0.090
346.48	-0.000
346.70	-0.237
346.92	-0.011
347.14	0.023
347.35	0.025
347.57	0.141
347.79	-0.174
348.01	-0.091
348.23	-0.149
348.44	-0.000
348.66	0.087
348.88	-0.157
349.10	0.039
349.32	-0.011
349.53	0.051
349.75	0.092
349.97	0.068
350.19	0.157
350.41	0.148
350.62	-0.309
350.84	0.027
351.06	0.028
351.28	0.011
351.50	-0.056
351.71	-0.087
351.93	-0.073
352.15	-0.020
352.37	-0.101
352.58	-0.023
352.80	-0.007
353.02	0.015
353.24	0.025
353.46	0.073
353.67	0.037
353.89	0.011
354.11	0.025
354.33	0.034
354.54	0.063
354.76	0.132
354.98	0.146
355.20	0.149
355.41	0.073
355.63	0.144
355.85	0.072
356.07	0.980
356.28	0.093
356.50	0.164
356.72	0.072
356.94	0.204
357.15	0.252
357.37	-0.000
357.59	0.126
357.81	0.074
358.02	0.116
358.24	0.089
358.46	0.200
358.68	0.131
358.89	0.064
359.11	-0.000
359.33	0.053
359.55	-0.431
359.76	0.096
359.98	0.111
360.20	0.122
360.42	0.114
360.63	0.118
360.85	0.085
361.07	0.542
361.29	0.085
361.50	0.298
361.72	0.109
361.94	0.482
362.15	0.170
362.37	0.102
362.59	0.098
362.81	0.131
363.02	0.250
363.24	0.350
363.46	0.180
363.68	0.263
363.89	0.154
364.11	0.196
364.33	0.237
364.54	0.138
364.76	0.176
364.98	0.179
365.20	0.226
365.41	0.123
365.63	0.161
365.85	0.114
366.06	0.294
366.28	0.337
366.50	0.232
366.71	0.106
366.93	0.158
367.15	0.129
367.37	0.125
367.58	0.170
367.80	0.209
368.02	0.692
368.23	0.174
368.45	0.186
368.67	0.131
368.88	0.159
369.10	-0.000
369.32	0.164
369.53	0.105
369.75	0.163
369.97	0.470
370.19	0.242
370.40	0.086
370.62	0.296
370.84	0.106
371.05	0.928
371.27	0.164
371.49	0.170
371.70	0.194
371.92	0.252
372.14	0.094
372.35	0.100
372.57	0.107
372.79	0.253
373.00	0.068
373.22	0.087
373.44	0.083
373.65	0.059
373.87	0.059
374.09	0.222
374.30	0.078
374.52	0.114
374.74	0.079
374.95	0.302
375.17	0.104
375.39	-0.000
375.60	0.144
375.82	0.228
376.04	0.104
376.25	0.128
376.47	0.085
376.68	0.199
376.90	0.109
377.12	0.239
377.33	0.142
377.55	0.336
377.77	0.150
377.98	0.208
378.20	0.134
378.42	0.164
378.63	0.218
378.85	-0.000
379.07	0.142
379.28	0.575
379.50	0.336
379.71	0.171
379.93	0.129
380.15	0.185
380.36	0.269
380.58	0.174
380.80	0.484
381.01	0.140
381.23	0.120
381.44	0.129
381.66	0.150
381.88	0.162
382.09	-0.073
382.31	0.103
382.53	0.107
382.74	0.566
382.96	0.167
383.17	0.138
383.39	0.180
383.61	0.237
383.82	0.167
384.04	0.176
384.25	0.230
384.47	0.219
384.69	0.206
384.90	0.206
385.12	0.442
385.33	0.299
385.55	0.230
385.77	0.361
385.98	0.180
386.20	0.247
386.41	0.236
386.63	0.268
386.85	0.209
387.06	0.252
387.28	0.342
387.49	0.207
387.71	0.151
387.93	0.136
388.14	0.384
388.36	0.187
388.57	0.180
388.79	0.201
389.01	1.092
389.22	0.263
389.44	0.230
389.65	0.199
389.87	0.197
390.08	0.246
390.30	0.187
390.52	0.356
390.73	0.328
390.95	0.222
391.16	0.204
391.38	-0.000
391.59	0.223
391.81	0.202
392.03	0.190
392.24	0.223
392.46	0.171
392.67	0.157
392.89	0.217
393.10	0.319
393.32	0.213
393.53	0.249
393.75	0.166
393.97	0.189
394.18	0.248
394.40	0.228
394.61	0.226
394.83	0.190
395.04	0.203
395.26	0.142
395.47	0.214
395.69	0.185
395.91	0.202
396.12	0.246
396.34	0.236
396.55	0.159
396.77	0.223
396.98	0.643
397.20	0.293
397.41	0.350
397.63	0.238
397.84	0.218
398.06	0.203
398.27	0.187
398.49	0.219
398.71	0.173
398.92	0.204
399.14	0.268
399.35	0.324
399.57	0.290
399.78	0.206
400.00	0.205
400.21	0.245
400.43	0.205
400.64	0.225
400.86	0.446
401.07	0.275
401.29	0.243
401.50	0.240
401.72	0.317
401.93	0.226
402.15	0.262
402.36	0.241
402.58	0.208
402.79	0.231
403.01	0.350
403.22	0.269
403.44	0.184
403.65	0.266
403.87	0.290
404.08	0.237
404.30	0.351
404.51	0.221
404.73	0.254
404.94	0.226
405.16	0.227
405.37	0.189
405.59	0.324
405.80	0.212
406.02	0.255
406.23	0.262
406.45	0.300
406.66	0.320
406.88	0.219
407.09	0.333
407.31	0.267
407.52	0.317
407.74	0.255
407.95	0.289
408.17	0.271
408.38	0.289
408.60	0.201
408.81	0.303
409.03	0.233
409.24	0.226
409.45	0.254
409.67	0.239
409.88	0.215
410.10	0.271
410.31	0.239
410.53	0.237
410.74	0.317
410.96	0.319
411.17	0.333
411.39	0.263
411.60	0.256
411.82	0.292
412.03	0.286
412.24	0.277
412.46	0.373
412.67	0.317
412.89	0.309
413.10	0.301
413.32	0.272
413.53	0.304
413.75	0.309
413.96	0.240
414.17	0.293
414.39	0.294
414.60	0.259
414.82	0.315
415.03	0.256
415.25	0.276
415.46	0.203
415.68	0.275
415.89	0.419
416.10	0.370
416.32	0.235
416.53	0.271
416.75	0.259
416.96	0.289
417.18	0.266
417.39	0.258
417.60	0.262
417.82	0.350
418.03	0.310
418.25	0.276
418.46	0.285
418.67	0.269
418.89	0.290
419.10	0.298
419.32	0.374
419.53	0.346
419.75	0.300
419.96	0.268
420.17	0.311
420.39	0.296
420.60	0.302
420.82	0.357
421.03	0.299
421.24	0.256
421.46	0.278
421.67	0.299
421.89	0.265
422.10	0.281
422.31	0.275
422.53	0.356
422.74	0.287
422.96	0.241
423.17	0.264
423.38	0.306
423.60	0.273
423.81	0.325
424.03	0.284
424.24	0.309
424.45	0.306
424.67	0.311
424.88	0.284
425.09	0.306
425.31	0.282
425.52	0.286
425.74	0.315
425.95	0.331
426.16	0.272
426.38	0.307
426.59	0.288
426.80	0.313
427.02	0.318
427.23	0.264
427.45	0.315
427.66	0.312
427.87	0.269
428.09	0.280
428.30	0.299
428.51	0.295
428.73	0.317
428.94	0.291
429.15	0.290
429.37	0.282
429.58	0.299
429.79	0.284
430.01	0.321
430.22	0.311
430.44	0.312
430.65	0.292
430.86	0.308
431.08	0.299
431.29	0.283
431.50	0.321
431.72	0.390
431.93	0.339
432.14	0.278
432.36	0.304
432.57	0.312
432.78	0.325
433.00	0.303
433.21	0.301
433.42	0.354
433.64	0.320
433.85	0.351
434.06	0.301
434.28	0.316
434.49	0.320
434.70	0.319
434.92	0.323
435.13	0.338
435.34	0.339
435.56	0.323
435.77	0.322
435.98	0.376
436.20	0.334
436.41	0.300
436.62	0.296
436.83	0.326
437.05	0.352
437.26	0.326
437.47	0.303
437.69	0.328
437.90	0.312
438.11	0.310
438.33	0.329
438.54	0.339
438.75	0.399
438.97	0.391
439.18	0.323
439.39	0.336
439.60	0.352
439.82	0.340
440.03	0.321
440.24	0.409
440.46	0.342
440.67	0.337
440.88	0.352
441.10	0.337
441.31	0.335
441.52	0.356
441.73	0.386
441.95	0.357
442.16	0.334
442.37	0.437
442.58	0.331
442.80	0.327
443.01	0.382
443.22	0.362
443.44	0.323
443.65	0.362
443.86	0.358
444.07	0.369
444.29	0.335
444.50	0.388
444.71	0.328
444.92	0.311
445.14	0.358
445.35	0.372
445.56	0.318
445.78	0.357
445.99	0.358
446.20	0.325
446.41	0.351
446.63	0.351
446.84	0.339
447.05	0.339
447.26	0.379
447.48	0.348
447.69	0.339
447.90	0.367
448.11	0.338
448.33	0.347
448.54	0.356
448.75	0.364
448.96	0.368
449.18	0.377
449.39	0.351
449.60	0.348
449.81	0.386
450.03	0.356
450.24	0.376
450.45	0.364
450.66	0.360
450.87	0.372
451.09	0.355
451.30	0.350
451.51	0.378
451.72	0.388
451.94	0.393
452.15	0.416
452.36	0.370
452.57	0.377
452.78	0.377
453.00	0.387
453.21	0.370
453.42	0.364
453.63	0.395
453.85	0.384
454.06	0.385
454.27	0.420
454.48	0.394
454.69	0.372
454.91	0.392
455.12	0.360
455.33	0.388
455.54	0.394
455.75	0.390
455.97	0.398
456.18	0.394
456.39	0.391
456.60	0.404
456.81	0.384
457.03	0.388
457.24	0.390
457.45	0.416
457.66	0.399
457.87	0.387
458.09	0.389
458.30	0.364
458.51	0.407
458.72	0.416
458.93	0.415
459.15	0.384
459.36	0.406
459.57	0.414
459.78	0.433
459.99	0.406
460.20	0.392
460.42	0.418
460.63	0.404
460.84	0.398
461.05	0.403
461.26	0.423
461.47	0.401
461.69	0.418
461.90	0.429
462.11	0.413
462.32	0.434
462.53	0.417
462.74	0.448
462.96	0.410
463.17	0.407
463.38	0.420
463.59	0.451
463.80	0.404
464.01	0.410
464.23	0.438
464.44	0.426
464.65	0.426
464.86	0.431
465.07	0.435
465.28	0.425
465.49	0.431
465.71	0.419
465.92	0.431
466.13	0.446
466.34	0.427
466.55	0.446
466.76	0.433
466.97	0.440
467.19	0.440
467.40	0.449
467.61	0.452
467.82	0.428
468.03	0.424
468.24	0.446
468.45	0.457
468.66	0.454
468.88	0.454
469.09	0.457
469.30	0.472
469.51	0.450
469.72	0.461
469.93	0.454
470.14	0.448
470.35	0.473
470.57	0.460
470.78	0.442
470.99	0.478
471.20	0.463
471.41	0.449
471.62	0.465
471.83	0.456
472.04	0.465
472.25	0.477
472.47	0.454
472.68	0.455
472.89	0.458
473.10	0.472
473.31	0.461
473.52	0.478
473.73	0.486
473.94	0.464
474.15	0.472
474.36	0.473
474.57	0.480
474.79	0.473
475.00	0.473
475.21	0.469
475.42	0.492
475.63	0.465
475.84	0.473
476.05	0.474
476.26	0.465
476.47	0.474
476.68	0.490
476.89	0.471
477.10	0.486
477.32	0.483
477.53	0.497
477.74	0.476
477.95	0.484
478.16	0.471
478.37	0.484
478.58	0.486
478.79	0.492
479.00	0.489
479.21	0.479
479.42	0.490
479.63	0.492
479.84	0.482
480.05	0.483
480.26	0.493
480.47	0.498
480.69	0.496
480.90	0.490
481.11	0.490
481.32	0.506
481.53	0.489
481.74	0.504
481.95	0.494
482.16	0.500
482.37	0.502
482.58	0.494
482.79	0.500
483.00	0.510
483.21	0.495
483.42	0.486
483.63	0.508
483.84	0.517
484.05	0.514
484.26	0.507
484.47	0.507
484.68	0.497
484.89	0.499
485.10	0.512
485.31	0.507
485.52	0.509
485.73	0.511
485.94	0.520
486.15	0.506
486.37	0.511
486.58	0.502
486.79	0.505
487.00	0.519
487.21	0.516
487.42	0.515
487.63	0.516
487.84	0.520
488.05	0.518
488.26	0.509
488.47	0.512
488.68	0.521
488.89	0.514
489.10	0.513
489.31	0.515
489.52	0.523
489.73	0.514
489.94	0.524
490.15	0.512
490.36	0.524
490.57	0.512
490.78	0.506
490.99	0.517
491.20	0.536
491.41	0.526
491.62	0.513
491.83	0.521
492.04	0.520
492.25	0.524
492.45	0.526
492.66	0.533
492.87	0.530
493.08	0.527
493.29	0.522
493.50	0.521
493.71	0.524
493.92	0.523
494.13	0.528
494.34	0.533
494.55	0.535
494.76	0.541
494.97	0.537
495.18	0.530
495.39	0.534
495.60	0.523
495.81	0.522
496.02	0.527
496.23	0.526
496.44	0.535
496.65	0.532
496.86	0.532
497.07	0.540
497.28	0.539
497.49	0.526
497.70	0.527
497.91	0.532
498.12	0.528
498.32	0.540
498.53	0.535
498.74	0.533
498.95	0.541
499.16	0.530
499.37	0.532
499.58	0.536
499.79	0.544
500.00	0.542
500.21	0.549
500.42	0.535
500.63	0.535
500.84	0.540
501.05	0.534
501.26	0.540
501.46	0.551
501.67	0.540
501.88	0.540
502.09	0.534
502.30	0.536
502.51	0.550
502.72	0.538
502.93	0.543
503.14	0.548
503.35	0.542
503.56	0.542
503.77	0.550
503.97	0.544
504.18	0.544
504.39	0.553
504.60	0.545
504.81	0.552
505.02	0.549
505.23	0.550
505.44	0.546
505.65	0.548
505.86	0.543
506.07	0.559
506.27	0.549
506.48	0.550
506.69	0.546
506.90	0.552
507.11	0.552
507.32	0.545
507.53	0.547
507.74	0.545
507.95	0.549
508.15	0.550
508.36	0.552
508.57	0.555
508.78	0.550
508.99	0.549
509.20	0.543
509.41	0.549
509.62	0.546
509.82	0.545
510.03	0.546
510.24	0.546
510.45	0.552
510.66	0.550
510.87	0.549
511.08	0.539
511.29	0.551
511.49	0.545
511.70	0.556
511.91	0.539
512.12	0.539
512.33	0.549
512.54	0.553
512.75	0.547
512.95	0.553
513.16	0.551
513.37	0.544
513.58	0.554
513.79	0.544
514.00	0.547
514.20	0.552
514.41	0.549
514.62	0.539
514.83	0.550
515.04	0.548
515.25	0.542
515.46	0.546
515.66	0.547
515.87	0.550
516.08	0.542
516.29	0.549
516.50	0.543
516.71	0.541
516.91	0.543
517.12	0.548
517.33	0.545
517.54	0.543
517.75	0.542
517.95	0.546
518.16	0.549
518.37	0.540
518.58	0.540
518.79	0.534
519.00	0.543
519.20	0.546
519.41	0.538
519.62	0.542
519.83	0.544
520.04	0.535
520.24	0.533
520.45	0.536
520.66	0.542
520.87	0.533
521.08	0.533
521.28	0.534
521.49	0.537
521.70	0.529
521.91	0.533
522.12	0.529
522.32	0.535
522.53	0.531
522.74	0.527
522.95	0.530
523.16	0.529
523.36	0.530
523.57	0.524
523.78	0.524
523.99	0.525
524.20	0.523
524.40	0.525
524.61	0.527
524.82	0.519
525.03	0.520
525.23	0.519
525.44	0.515
525.65	0.515
525.86	0.522
526.06	0.514
526.27	0.514
526.48	0.517
526.69	0.512
526.90	0.514
527.10	0.524
527.31	0.510
527.52	0.508
527.73	0.505
527.93	0.508
528.14	0.509
528.35	0.506
528.56	0.506
528.76	0.504
528.97	0.502
529.18	0.499
529.39	0.499
529.59	0.500
529.80	0.509
530.01	0.501
530.22	0.500
530.42	0.490
530.63	0.495
530.84	0.488
531.05	0.492
531.25	0.492
531.46	0.488
531.67	0.481
531.88	0.487
532.08	0.486
532.29	0.485
532.50	0.483
532.70	0.480
532.91	0.477
533.12	0.478
533.33	0.487
533.53	0.477
533.74	0.478
533.95	0.480
534.15	0.477
534.36	0.477
534.57	0.471
534.78	0.471
534.98	0.476
535.19	0.465
535.40	0.465
535.60	0.471
535.81	0.464
536.02	0.465
536.23	0.462
536.43	0.462
536.64	0.458
536.85	0.461
537.05	0.464
537.26	0.455
537.47	0.457
537.67	0.454
537.88	0.452
538.09	0.455
538.30	0.451
538.50	0.447
538.71	0.452
538.92	0.446
539.12	0.445
539.33	0.443
539.54	0.444
539.74	0.446
539.95	0.443
540.16	0.442
540.36	0.438
540.57	0.438
540.78	0.436
540.98	0.436
541.19	0.436
541.40	0.431
541.60	0.436
541.81	0.435
542.02	0.435
542.22	0.431
542.43	0.429
542.64	0.428
542.84	0.428
543.05	0.425
543.26	0.425
543.46	0.427
543.67	0.427
543.88	0.426
544.08	0.421
544.29	0.419
544.50	0.420
544.70	0.420
544.91	0.416
545.12	0.417
545.32	0.415
545.53	0.418
545.74	0.412
545.94	0.411
546.15	0.410
546.35	0.409
546.56	0.407
546.77	0.406
546.97	0.405
547.18	0.401
547.39	0.402
547.59	0.401
547.80	0.399
548.01	0.401
548.21	0.400
548.42	0.396
548.62	0.397
548.83	0.396
549.04	0.395
549.24	0.392
549.45	0.393
549.65	0.392
549.86	0.391
550.07	0.390
550.27	0.390
550.48	0.395
550.69	0.387
550.89	0.388
551.10	0.386
551.30	0.385
551.51	0.386
551.72	0.380
551.92	0.381
552.13	0.382
552.33	0.383
552.54	0.381
552.75	0.376
552.95	0.378
553.16	0.375
553.36	0.374
553.57	0.373
553.78	0.372
553.98	0.373
554.19	0.368
554.39	0.366
554.60	0.369
554.80	0.369
555.01	0.365
555.22	0.367
555.42	0.365
555.63	0.362
555.83	0.365
556.04	0.362
556.25	0.364
556.45	0.360
556.66	0.359
556.86	0.362
557.07	0.361
557.27	0.362
557.48	0.358
557.68	0.358
557.89	0.359
558.10	0.356
558.30	0.354
558.51	0.353
558.71	0.352
558.92	0.350
559.12	0.352
559.33	0.354
559.54	0.351
559.74	0.348
559.95	0.348
560.15	0.348
560.36	0.348
560.56	0.346
560.77	0.347
560.97	0.347
561.18	0.344
561.38	0.344
561.59	0.346
561.79	0.344
562.00	0.343
562.21	0.341
562.41	0.340
562.62	0.340
562.82	0.338
563.03	0.336
563.23	0.336
563.44	0.337
563.64	0.335
563.85	0.336
564.05	0.332
564.26	0.332
564.46	0.332
564.67	0.333
564.87	0.331
565.08	0.329
565.28	0.330
565.49	0.330
565.69	0.329
565.90	0.327
566.10	0.329
566.31	0.325
566.51	0.327
566.72	0.328
566.92	0.323
567.13	0.323
567.33	0.323
567.54	0.322
567.74	0.322
567.95	0.319
568.15	0.321
568.36	0.321
568.56	0.320
568.77	0.316
568.97	0.315
569.18	0.316
569.38	0.315
569.59	0.316
569.79	0.314
570.00	0.312
570.20	0.312
570.41	0.310
570.61	0.310
570.82	0.311
571.02	0.308
571.23	0.311
571.43	0.308
571.64	0.307
571.84	0.307
572.05	0.306
572.25	0.306
572.45	0.305
572.66	0.303
572.86	0.303
573.07	0.302
573.27	0.302
573.48	0.302
573.68	0.300
573.89	0.300
574.09	0.301
574.30	0.301
574.50	0.300
574.70	0.301
574.91	0.299
575.11	0.299
575.32	0.300
575.52	0.297
575.73	0.298
575.93	0.298
576.14	0.297
576.34	0.296
576.54	0.296
576.75	0.294
576.95	0.294
577.16	0.293
577.36	0.293
577.57	0.293
577.77	0.292
577.97	0.289
578.18	0.291
578.38	0.288
578.59	0.287
578.79	0.286
579.00	0.287
579.20	0.285
579.40	0.285
579.61	0.285
579.81	0.284
580.02	0.282
580.22	0.282
580.42	0.281
580.63	0.282
580.83	0.281
581.04	0.280
581.24	0.279
581.45	0.279
581.65	0.279
581.85	0.279
582.06	0.277
582.26	0.278
582.47	0.277
582.67	0.277
582.87	0.277
583.08	0.275
583.28	0.276
583.48	0.274
583.69	0.271
583.89	0.272
584.10	0.273
584.30	0.271
584.50	0.270
584.71	0.270
584.91	0.270
585.12	0.268
585.32	0.270
585.52	0.268
585.73	0.267
585.93	0.268
586.13	0.267
586.34	0.267
586.54	0.266
586.75	0.266
586.95	0.265
587.15	0.265
587.36	0.264
587.56	0.264
587.76	0.263
587.97	0.263
588.17	0.262
588.37	0.262
588.58	0.262
588.78	0.260
588.98	0.260
589.19	0.259
589.39	0.257
589.60	0.259
589.80	0.257
590.00	0.258
590.21	0.258
590.41	0.257
590.61	0.257
590.82	0.257
591.02	0.257
591.22	0.255
591.43	0.256
591.63	0.255
591.83	0.255
592.04	0.254
592.24	0.255
592.44	0.252
592.65	0.251
592.85	0.252
593.05	0.252
593.26	0.251
593.46	0.251
593.66	0.252
593.86	0.251
594.07	0.250
594.27	0.250
594.47	0.249
594.68	0.248
594.88	0.249
595.08	0.248
595.29	0.249
595.49	0.247
595.69	0.247
595.90	0.245
596.10	0.246
596.30	0.246
596.50	0.244
596.71	0.245
596.91	0.244
597.11	0.244
597.32	0.245
597.52	0.244
597.72	0.243
597.93	0.243
598.13	0.242
598.33	0.242
598.53	0.241
598.74	0.241
598.94	0.240
599.14	0.240
599.35	0.240
599.55	0.240
599.75	0.239
599.95	0.239
600.16	0.239
600.36	0.238
600.56	0.238
600.76	0.237
600.97	0.236
601.17	0.236
601.37	0.236
601.58	0.235
601.78	0.236
601.98	0.235
602.18	0.234
602.39	0.234
602.59	0.235
602.79	0.234
602.99	0.234
603.20	0.233
603.40	0.234
603.60	0.233
603.80	0.232
604.01	0.232
604.21	0.231
604.41	0.231
604.61	0.230
604.82	0.230
605.02	0.230
605.22	0.229
605.42	0.229
605.62	0.230
605.83	0.228
606.03	0.228
606.23	0.229
606.43	0.229
606.64	0.229
606.84	0.228
607.04	0.228
607.24	0.228
607.45	0.228
607.65	0.227
607.85	0.228
608.05	0.226
608.25	0.226
608.46	0.226
608.66	0.226
608.86	0.225
609.06	0.224
609.26	0.223
609.47	0.224
609.67	0.222
609.87	0.224
610.07	0.223
610.28	0.222
610.48	0.221
610.68	0.222
610.88	0.221
611.08	0.222
611.29	0.221
611.49	0.220
611.69	0.221
611.89	0.219
612.09	0.219
612.29	0.219
612.50	0.218
612.70	0.218
612.90	0.218
613.10	0.217
613.30	0.217
613.51	0.217
613.71	0.216
613.91	0.221
614.11	0.216
614.31	0.216
614.51	0.216
614.72	0.215
614.92	0.215
615.12	0.215
615.32	0.216
615.52	0.215
615.72	0.216
615.93	0.215
616.13	0.215
616.33	0.215
616.53	0.214
616.73	0.214
616.93	0.213
617.14	0.213
617.34	0.213
617.54	0.213
617.74	0.214
617.94	0.212
618.14	0.212
618.34	0.212
618.55	0.211
618.75	0.212
618.95	0.212
619.15	0.212
619.35	0.211
619.55	0.210
619.75	0.211
619.96	0.210
620.16	0.211
620.36	0.210
620.56	0.209
620.76	0.209
620.96	0.209
621.16	0.208
621.36	0.208
621.57	0.208
621.77	0.209
621.97	0.207
622.17	0.207
622.37	0.207
622.57	0.207
622.77	0.206
622.97	0.205
623.18	0.206
623.38	0.206
623.58	0.206
623.78	0.205
623.98	0.205
624.18	0.204
624.38	0.204
624.58	0.204
624.78	0.204
624.98	0.204
625.19	0.205
625.39	0.205
625.59	0.204
625.79	0.204
625.99	0.204
626.19	0.204
626.39	0.203
626.59	0.203
626.79	0.203
626.99	0.203
627.19	0.202
627.40	0.203
627.60	0.202
627.80	0.202
628.00	0.202
628.20	0.201
628.40	0.201
628.60	0.201
628.80	0.200
629.00	0.200
629.20	0.199
629.40	0.200
629.60	0.198
629.80	0.198
630.00	0.198
630.20	0.198
630.41	0.197
630.61	0.196
630.81	0.196
631.01	0.196
631.21	0.196
631.41	0.196
631.61	0.196
631.81	0.196
632.01	0.196
632.21	0.196
632.41	0.195
632.61	0.195
632.81	0.195
633.01	0.196
633.21	0.195
633.41	0.196
633.61	0.195
633.81	0.194
634.01	0.193
634.21	0.194
634.41	0.193
634.61	0.193
634.81	0.193
635.01	0.192
635.22	0.193
635.42	0.192
635.62	0.192
635.82	0.193
636.02	0.192
636.22	0.191
636.42	0.191
636.62	0.191
636.82	0.191
637.02	0.190
637.22	0.191
637.42	0.190
637.62	0.189
637.82	0.189
638.02	0.188
638.22	0.189
638.42	0.188
638.62	0.188
638.82	0.188
639.02	0.187
639.22	0.187
639.42	0.186
639.62	0.186
639.82	0.185
640.02	0.186
640.22	0.186
640.42	0.185
640.62	0.185
640.82	0.185
641.02	0.184
641.22	0.185
641.42	0.184
641.61	0.184
641.81	0.184
642.01	0.184
642.21	0.184
642.41	0.184
642.61	0.183
642.81	0.182
643.01	0.182
643.21	0.182
643.41	0.182
643.61	0.182
643.81	0.182
644.01	0.181
644.21	0.181
644.41	0.181
644.61	0.181
644.81	0.181
645.01	0.180
645.21	0.180
645.41	0.180
645.61	0.180
645.81	0.179
646.01	0.178
646.21	0.179
646.40	0.178
646.60	0.178
646.80	0.179
647.00	0.178
647.20	0.177
647.40	0.177
647.60	0.178
647.80	0.177
648.00	0.178
648.20	0.177
648.40	0.177
648.60	0.177
648.80	0.176
649.00	0.176
649.20	0.177
649.39	0.176
649.59	0.175
649.79	0.175
649.99	0.174
650.19	0.174
650.39	0.174
650.59	0.174
650.79	0.173
650.99	0.173
651.19	0.173
651.39	0.173
651.58	0.172
651.78	0.172
651.98	0.171
652.18	0.171
652.38	0.170
652.58	0.171
652.78	0.170
652.98	0.170
653.18	0.170
653.38	0.170
653.57	0.169
653.77	0.170
653.97	0.169
654.17	0.169
654.37	0.168
654.57	0.169
654.77	0.168
654.97	0.168
655.16	0.168
655.36	0.168
655.56	0.167
655.76	0.166
655.96	0.167
656.16	0.166
656.36	0.166
656.56	0.166
656.75	0.165
656.95	0.165
657.15	0.165
657.35	0.165
657.55	0.164
657.75	0.165
657.95	0.164
658.14	0.164
658.34	0.164
658.54	0.164
658.74	0.163
658.94	0.163
659.14	0.163
659.34	0.162
659.53	0.162
659.73	0.161
659.93	0.161
660.13	0.160
660.33	0.161
660.53	0.160
660.72	0.160
660.92	0.160
661.12	0.159
661.32	0.159
661.52	0.159
661.72	0.159
661.91	0.158
662.11	0.158
662.31	0.158
662.51	0.158
662.71	0.158
662.90	0.157
663.10	0.156
663.30	0.156
663.50	0.156
663.70	0.155
663.90	0.155
664.09	0.155
664.29	0.154
664.49	0.154
664.69	0.154
664.89	0.154
665.08	0.154
665.28	0.153
665.48	0.153
665.68	0.153
665.88	0.153
666.07	0.152
666.27	0.152
666.47	0.152
666.67	0.152
666.87	0.152
667.06	0.151
667.26	0.151
667.46	0.151
667.66	0.151
667.85	0.151
668.05	0.152
668.25	0.151
668.45	0.151
668.65	0.151
668.84	0.151
669.04	0.150
669.24	0.150
669.44	0.149
669.63	0.149
669.83	0.148
670.03	0.147
670.23	0.147
670.42	0.146
670.62	0.146
670.82	0.145
671.02	0.145
671.22	0.145
671.41	0.144
671.61	0.145
671.81	0.145
672.01	0.145
672.20	0.145
672.40	0.144
672.60	0.144
672.80	0.144
672.99	0.144
673.19	0.143
673.39	0.143
673.58	0.143
673.78	0.143
673.98	0.142
674.18	0.142
674.37	0.141
674.57	0.141
674.77	0.141
674.97	0.141
675.16	0.141
675.36	0.141
675.56	0.140
675.75	0.140
675.95	0.140
676.15	0.140
676.35	0.140
676.54	0.140
676.74	0.139
676.94	0.140
677.13	0.139
677.33	0.138
677.53	0.139
677.73	0.139
677.92	0.138
678.12	0.138
678.32	0.137
678.51	0.137
678.71	0.137
678.91	0.136
679.11	0.136
679.30	0.136
679.50	0.135
679.70	0.135
679.89	0.135
680.09	0.135
680.29	0.134
680.48	0.135
680.68	0.134
680.88	0.134
681.07	0.134
681.27	0.134
681.47	0.134
681.66	0.133
681.86	0.133
682.06	0.133
682.25	0.133
682.45	0.133
682.65	0.132
682.84	0.132
683.04	0.131
683.24	0.131
683.43	0.131
683.63	0.131
683.83	0.131
684.02	0.131
684.22	0.130
684.42	0.130
684.61	0.130
684.81	0.130
685.01	0.130
685.20	0.129
685.40	0.129
685.60	0.129
685.79	0.129
685.99	0.129
686.19	0.128
686.38	0.128
686.58	0.128
686.77	0.128
686.97	0.127
687.17	0.127
687.36	0.127
687.56	0.127
687.76	0.126
687.95	0.126
688.15	0.126
688.34	0.127
688.54	0.126
688.74	0.126
688.93	0.125
689.13	0.125
689.33	0.126
689.52	0.124
689.72	0.125
689.91	0.124
690.11	0.124
690.31	0.123
690.50	0.124
690.70	0.124
690.89	0.123
691.09	0.123
691.29	0.123
691.48	0.123
691.68	0.123
691.87	0.123
692.07	0.123
692.27	0.122
692.46	0.122
692.66	0.122
692.85	0.121
693.05	0.121
693.25	0.121
693.44	0.120
693.64	0.120
693.83	0.121
694.03	0.120
694.22	0.119
694.42	0.119
694.62	0.119
694.81	0.119
695.01	0.120
695.20	0.119
695.40	0.119
695.59	0.118
695.79	0.118
695.99	0.118
696.18	0.118
696.38	0.118
696.57	0.118
696.77	0.117
696.96	0.117
697.16	0.117
697.36	0.116
697.55	0.116
697.75	0.116
697.94	0.116
698.14	0.116
698.33	0.116
698.53	0.115
698.72	0.115
698.92	0.115
699.11	0.115
699.31	0.115
699.51	0.115
699.70	0.114
699.90	0.114
700.09	0.114
700.29	0.114
700.48	0.114
700.68	0.113
700.87	0.113
701.07	0.112
701.26	0.112
701.46	0.112
701.65	0.112
701.85	0.112
702.04	0.112
702.24	0.112
702.43	0.112
702.63	0.111
702.82	0.111
703.02	0.111
703.21	0.111
703.41	0.111
703.60	0.111
703.80	0.110
703.99	0.110
704.19	0.110
704.38	0.109
704.58	0.109
704.77	0.109
704.97	0.109
705.16	0.109
705.36	0.109
705.55	0.109
705.75	0.109
705.94	0.109
706.14	0.109
706.33	0.109
706.53	0.109
706.72	0.109
706.92	0.108
707.11	0.109
707.31	0.108
707.50	0.108
707.70	0.108
707.89	0.108
708.09	0.108
708.28	0.108
708.48	0.108
708.67	0.107
708.86	0.108
709.06	0.107
709.25	0.107
709.45	0.107
709.64	0.107
709.84	0.107
710.03	0.107
710.23	0.107
710.42	0.106
710.62	0.106
710.81	0.106
711.00	0.106
711.20	0.106
711.39	0.105
711.59	0.105
711.78	0.105
711.98	0.105
712.17	0.105
712.37	0.105
712.56	0.105
712.75	0.104
712.95	0.104
713.14	0.104
713.34	0.105
713.53	0.105
713.73	0.105
713.92	0.105
714.11	0.105
714.31	0.105
714.50	0.104
714.70	0.104
714.89	0.104
715.08	0.104
715.28	0.104
715.47	0.103
715.67	0.103
715.86	0.103
716.06	0.103
716.25	0.103
716.44	0.103
716.64	0.102
716.83	0.102
717.03	0.102
717.22	0.101
717.41	0.101
717.61	0.102
717.80	0.102
717.99	0.102
718.19	0.101
718.38	0.102
718.58	0.101
718.77	0.101
718.96	0.101
719.16	0.101
719.35	0.101
719.55	0.100
719.74	0.100
719.93	0.100
720.13	0.100
720.32	0.099
720.51	0.099
720.71	0.099
720.90	0.099
721.10	0.099
721.29	0.099
721.48	0.099
721.68	0.099
721.87	0.099
722.06	0.099
722.26	0.100
722.45	0.100
722.64	0.100
722.84	0.100
723.03	0.100
723.22	0.100
723.42	0.100
723.61	0.100
723.80	0.100
724.00	0.100
724.19	0.100
724.38	0.100
724.58	0.099
724.77	0.099
724.96	0.099
725.16	0.099
725.35	0.099
725.54	0.099
725.74	0.099
725.93	0.099
726.12	0.099
726.32	0.099
726.51	0.099
726.70	0.099
726.90	0.099
727.09	0.099
727.28	0.098
727.48	0.099
727.67	0.098
727.86	0.098
728.06	0.098
728.25	0.098
728.44	0.098
728.64	0.098
728.83	0.098
729.02	0.098
729.21	0.099
729.41	0.098
729.60	0.098
729.79	0.098
729.99	0.098
730.18	0.098
730.37	0.098
730.56	0.098
730.76	0.097
730.95	0.098
731.14	0.097
731.34	0.097
731.53	0.097
731.72	0.097
731.91	0.098
732.11	0.097
732.30	0.098
732.49	0.097
732.69	0.098
732.88	0.098
733.07	0.097
733.26	0.098
733.46	0.097
733.65	0.097
733.84	0.097
734.03	0.098
734.23	0.098
734.42	0.098
734.61	0.097
734.80	0.097
735.00	0.097
735.19	0.097
735.38	0.097
735.57	0.097
735.77	0.097
735.96	0.097
736.15	0.096
736.34	0.096
736.54	0.097
736.73	0.096
736.92	0.096
737.11	0.096
737.31	0.096
737.50	0.096
737.69	0.097
737.88	0.096
738.07	0.096
738.27	0.096
738.46	0.096
738.65	0.096
738.84	0.096
739.04	0.096
739.23	0.096
739.42	0.096
739.61	0.096
739.80	0.096
740.00	0.096
740.19	0.096
740.38	0.096
740.57	0.096
740.76	0.096
740.96	0.095
741.15	0.095
741.34	0.095
741.53	0.095
741.72	0.095
741.92	0.094
742.11	0.094
742.30	0.095
742.49	0.095
742.68	0.095
742.88	0.095
743.07	0.095
743.26	0.095
743.45	0.095
743.64	0.094
743.84	0.094
744.03	0.094
744.22	0.094
744.41	0.094
744.60	0.093
744.79	0.093
744.99	0.093
745.18	0.093
745.37	0.092
745.56	0.092
745.75	0.092
745.94	0.092
746.14	0.092
746.33	0.092
746.52	0.092
746.71	0.092
746.90	0.092
747.09	0.092
747.28	0.092
747.48	0.092
747.67	0.092
747.86	0.091
748.05	0.092
748.24	0.091
748.43	0.092
748.62	0.091
748.82	0.091
749.01	0.091
749.20	0.091
749.39	0.091
749.58	0.091
749.77	0.090
749.96	0.091
750.16	0.091
750.35	0.091
750.54	0.090
750.73	0.090
750.92	0.091
751.11	0.090
751.30	0.090
751.49	0.091
751.68	0.091
751.88	0.091
752.07	0.090
752.26	0.090
752.45	0.090
752.64	0.090
752.83	0.090
753.02	0.090
753.21	0.090
753.40	0.089
753.60	0.090
753.79	0.089
753.98	0.089
754.17	0.089
754.36	0.089
754.55	0.089
754.74	0.089
754.93	0.089
755.12	0.089
755.31	0.089
755.50	0.089
755.70	0.088
755.89	0.088
756.08	0.088
756.27	0.088
756.46	0.088
756.65	0.087
756.84	0.088
757.03	0.088
757.22	0.087
757.41	0.087
757.60	0.087
757.79	0.088
757.98	0.088
758.17	0.088
758.36	0.088
758.56	0.088
758.75	0.088
758.94	0.087
759.13	0.087
759.32	0.087
759.51	0.087
759.70	0.087
759.89	0.087
760.08	0.087
760.27	0.087
760.46	0.087
760.65	0.087
760.84	0.086
761.03	0.087
761.22	0.087
761.41	0.087
761.60	0.086
761.79	0.086
761.98	0.086
762.17	0.086
762.36	0.086
762.55	0.085
762.74	0.085
762.93	0.085
763.12	0.085
763.31	0.085
763.50	0.085
763.69	0.085
763.88	0.085
764.07	0.085
764.26	0.085
764.45	0.085
764.64	0.085
764.83	0.084
765.02	0.084
765.21	0.084
765.40	0.085
765.59	0.084
765.78	0.084
765.97	0.085
766.16	0.085
766.35	0.084
766.54	0.085
766.73	0.085
766.92	0.085
767.11	0.084
767.30	0.084
767.49	0.084
767.68	0.084
767.87	0.084
768.06	0.084
768.25	0.084
768.44	0.084
768.63	0.083
768.82	0.083
769.01	0.083
769.20	0.083
769.39	0.083
769.58	0.083
769.77	0.083
769.96	0.083
770.15	0.083
770.34	0.083
770.53	0.083
770.72	0.083
770.91	0.083
771.10	0.083
771.29	0.082
771.47	0.082
771.66	0.082
771.85	0.082
772.04	0.082
772.23	0.082
772.42	0.081
772.61	0.081
772.80	0.081
772.99	0.081
773.18	0.081
773.37	0.081
773.56	0.081
773.75	0.082
773.94	0.081
774.13	0.081
774.31	0.082
774.50	0.082
774.69	0.082
774.88	0.082
775.07	0.082
775.26	0.082
775.45	0.082
775.64	0.082
775.83	0.082
776.02	0.081
776.21	0.081
776.40	0.081
776.58	0.081
776.77	0.081
776.96	0.081
777.15	0.081
777.34	0.081
777.53	0.081
777.72	0.081
777.91	0.081
778.10	0.082
778.28	0.081
778.47	0.081
778.66	0.081
778.85	0.081
779.04	0.081
779.23	0.080
779.42	0.080
779.61	0.080
779.79	0.080
779.98	0.080
780.17	0.080
780.36	0.080
780.55	0.079
780.74	0.079
780.93	0.079
781.12	0.079
781.30	0.079
781.49	0.079
781.68	0.079
781.87	0.079
782.06	0.079
782.25	0.079
782.44	0.079
782.62	0.079
782.81	0.080
783.00	0.079
783.19	0.079
783.38	0.079
783.57	0.079
783.75	0.079
783.94	0.079
784.13	0.079
784.32	0.078
784.51	0.078
784.70	0.078
784.88	0.078
785.07	0.078
785.26	0.078
785.45	0.078
785.64	0.078
785.83	0.078
786.01	0.078
786.20	0.078
786.39	0.078
786.58	0.079
786.77	0.078
786.95	0.078
787.14	0.078
787.33	0.078
787.52	0.078
787.71	0.078
787.90	0.078
788.08	0.078
788.27	0.077
788.46	0.077
788.65	0.077
788.84	0.077
789.02	0.077
789.21	0.077
789.40	0.077
789.59	0.077
789.77	0.077
789.96	0.077
790.15	0.077
790.34	0.077
790.53	0.077
790.71	0.077
790.90	0.077
791.09	0.076
791.28	0.077
791.46	0.077
791.65	0.076
791.84	0.076
792.03	0.076
792.22	0.076
792.40	0.076
792.59	0.076
792.78	0.076
792.97	0.076
793.15	0.076
793.34	0.076
793.53	0.076
793.72	0.076
793.90	0.076
794.09	0.076
794.28	0.075
794.47	0.076
794.65	0.076
794.84	0.076
795.03	0.076
795.22	0.076
795.40	0.076
795.59	0.076
795.78	0.076
795.97	0.076
796.15	0.076
796.34	0.076
796.53	0.076
796.71	0.076
796.90	0.076
797.09	0.076
797.28	0.076
797.46	0.076
797.65	0.076
797.84	0.076
798.02	0.076
798.21	0.075
798.40	0.075
798.59	0.075
798.77	0.075
798.96	0.075
799.15	0.075
799.33	0.075
799.52	0.075
799.71	0.075
799.90	0.075
800.08	0.075
800.27	0.075
800.46	0.074
800.64	0.074
800.83	0.074
801.02	0.074
801.20	0.074
801.39	0.074
801.58	0.074
801.76	0.073
801.95	0.073
802.14	0.073
802.32	0.073
802.51	0.073
802.70	0.073
802.88	0.073
803.07	0.073
803.26	0.073
803.44	0.073
803.63	0.073
803.82	0.073
804.00	0.073
804.19	0.074
804.38	0.074
804.56	0.074
804.75	0.074
804.94	0.074
805.12	0.074
805.31	0.074
805.50	0.074
805.68	0.074
805.87	0.074
806.06	0.074
806.24	0.074
806.43	0.073
806.62	0.074
806.80	0.074
806.99	0.074
807.17	0.073
807.36	0.073
807.55	0.073
807.73	0.073
807.92	0.073
808.11	0.073
808.29	0.072
808.48	0.072
808.66	0.072
808.85	0.072
809.04	0.072
809.22	0.072
809.41	0.072
809.59	0.072
809.78	0.072
809.97	0.072
810.15	0.072
810.34	0.072
810.53	0.072
810.71	0.072
810.90	0.072
811.08	0.073
811.27	0.073
811.45	0.073
811.64	0.073
811.83	0.073
812.01	0.073
812.20	0.072
812.38	0.072
812.57	0.073
812.76	0.072
812.94	0.072
813.13	0.072
813.31	0.072
813.50	0.072
813.68	0.072
813.87	0.072
814.06	0.072
814.24	0.072
814.43	0.072
814.61	0.072
814.80	0.072
814.98	0.072
815.17	0.072
815.36	0.072
815.54	0.072
815.73	0.072
815.91	0.072
816.10	0.072
816.28	0.072
816.47	0.071
816.65	0.072
816.84	0.072
817.03	0.072
817.21	0.073
817.40	0.073
817.58	0.072
817.77	0.073
817.95	0.073
818.14	0.073
818.32	0.073
818.51	0.073
818.69	0.073
818.88	0.073
819.06	0.073
819.25	0.073
819.43	0.072
819.62	0.073
819.80	0.072
819.99	0.072
820.18	0.072
820.36	0.072
820.55	0.072
820.73	0.072
820.92	0.072
821.10	0.072
821.29	0.072
821.47	0.072
821.66	0.072
821.84	0.072
822.03	0.072
822.21	0.073
822.40	0.072
822.58	0.073
822.77	0.072
822.95	0.073
823.14	0.073
823.32	0.073
823.50	0.073
823.69	0.073
823.87	0.073
824.06	0.073
824.24	0.073
824.43	0.074
824.61	0.073
824.80	0.074
824.98	0.074
825.17	0.074
825.35	0.074
825.54	0.074
825.72	0.074
825.91	0.074
826.09	0.074
826.28	0.074
826.46	0.074
826.64	0.074
826.83	0.074
827.01	0.074
827.20	0.074
827.38	0.073
827.57	0.074
827.75	0.074
827.94	0.074
828.12	0.074
828.31	0.074
828.49	0.074
828.67	0.074
828.86	0.074
829.04	0.074
829.23	0.074
829.41	0.075
829.60	0.075
829.78	0.075
829.96	0.076
830.15	0.076
830.33	0.076
830.52	0.076
830.70	0.076
830.88	0.076
831.07	0.077
831.25	0.076
831.44	0.076
831.62	0.076
831.81	0.076
831.99	0.076
832.17	0.076
832.36	0.077
832.54	0.077
832.73	0.077
832.91	0.077
833.09	0.077
833.28	0.077
833.46	0.077
833.65	0.077
833.83	0.077
834.01	0.077
834.20	0.077
834.38	0.077
834.56	0.077
834.75	0.077
834.93	0.078
835.12	0.078
835.30	0.078
835.48	0.078
835.67	0.077
835.85	0.077
836.03	0.078
836.22	0.078
836.40	0.078
836.59	0.078
836.77	0.078
836.95	0.078
837.14	0.078
837.32	0.078
837.50	0.078
837.69	0.078
837.87	0.078
838.05	0.079
838.24	0.079
838.42	0.078
838.60	0.079
838.79	0.080
838.97	0.079
839.15	0.079
839.34	0.079
839.52	0.079
839.70	0.079
839.89	0.079
840.07	0.079
840.25	0.079
840.44	0.079
840.62	0.079
840.80	0.079
840.99	0.079
841.17	0.079
841.35	0.079
841.54	0.079
841.72	0.079
841.90	0.079
842.09	0.079
842.27	0.079
842.45	0.079
842.64	0.080
842.82	0.080
843.00	0.080
843.19	0.079
843.37	0.079
843.55	0.080
843.73	0.079
843.92	0.079
844.10	0.079
844.28	0.080
844.47	0.080
844.65	0.080
844.83	0.080
845.01	0.080
845.20	0.080
845.38	0.080
845.56	0.080
845.75	0.080
845.93	0.080
846.11	0.080
846.29	0.080
846.48	0.080
846.66	0.080
846.84	0.080
847.02	0.079
847.21	0.079
847.39	0.079
847.57	0.079
847.76	0.079
847.94	0.079
848.12	0.080
848.30	0.079
848.49	0.079
848.67	0.079
848.85	0.079
849.03	0.080
849.22	0.080
849.40	0.080
849.58	0.080
849.76	0.081
849.95	0.081
850.13	0.080
850.31	0.081
850.49	0.081
850.67	0.081
850.86	0.081
851.04	0.081
851.22	0.081
851.40	0.081
851.59	0.080
851.77	0.080
851.95	0.080
852.13	0.080
852.31	0.080
852.50	0.080
852.68	0.080
852.86	0.080
853.04	0.080
853.23	0.080
853.41	0.080
853.59	0.080
853.77	0.080
853.95	0.080
854.14	0.080
854.32	0.081
854.50	0.080
854.68	0.080
854.86	0.081
855.04	0.081
855.23	0.080
855.41	0.081
855.59	0.081
855.77	0.081
855.95	0.081
856.14	0.081
856.32	0.080
856.50	0.080
856.68	0.080
856.86	0.080
857.04	0.080
857.23	0.080
857.41	0.080
857.59	0.080
857.77	0.080
857.95	0.080
858.13	0.080
858.32	0.080
858.50	0.080
858.68	0.080
858.86	0.080
859.04	0.080
859.22	0.080
859.41	0.080
859.59	0.080
859.77	0.080
859.95	0.080
860.13	0.081
860.31	0.080
860.49	0.081
860.68	0.081
860.86	0.081
861.04	0.081
861.22	0.081
861.40	0.081
861.58	0.081
861.76	0.081
861.94	0.081
862.13	0.081
862.31	0.081
862.49	0.081
862.67	0.081
862.85	0.081
863.03	0.082
863.21	0.082
863.39	0.082
863.57	0.082
863.76	0.082
863.94	0.082
864.12	0.082
864.30	0.082
864.48	0.082
864.66	0.082
864.84	0.082
865.02	0.082
865.20	0.082
865.38	0.082
865.57	0.082
865.75	0.082
865.93	0.082
866.11	0.082
866.29	0.082
866.47	0.082
866.65	0.082
866.83	0.082
867.01	0.082
867.19	0.082
867.37	0.082
867.55	0.082
867.73	0.082
867.92	0.082
868.10	0.082
868.28	0.082
868.46	0.082
868.64	0.082
868.82	0.082
869.00	0.083
869.18	0.083
869.36	0.082
869.54	0.082
869.72	0.083
869.90	0.083
870.08	0.082
870.26	0.083
870.44	0.083
870.62	0.083
870.80	0.083
870.98	0.083
871.16	0.083
871.34	0.083
871.53	0.083
871.71	0.083
871.89	0.083
872.07	0.083
872.25	0.083
872.43	0.083
872.61	0.083
872.79	0.083
872.97	0.083
873.15	0.084
873.33	0.084
873.51	0.084
873.69	0.084
873.87	0.084
874.05	0.084
874.23	0.084
874.41	0.084
874.59	0.084
874.77	0.083
874.95	0.084
875.13	0.083
875.31	0.083
875.49	0.084
875.67	0.083
875.85	0.083
876.03	0.083
876.21	0.084
876.39	0.084
876.57	0.084
876.75	0.084
876.93	0.083
877.11	0.083
877.29	0.083
877.47	0.083
877.65	0.084
877.82	0.084
878.00	0.084
878.18	0.084
878.36	0.084
878.54	0.085
878.72	0.085
878.90	0.085
879.08	0.085
879.26	0.085
879.44	0.085
879.62	0.085
879.80	0.085
879.98	0.085
880.16	0.085
880.34	0.084
880.52	0.084
880.70	0.084
880.88	0.084
881.06	0.085
881.24	0.084
881.42	0.084
881.59	0.084
881.77	0.084
881.95	0.084
882.13	0.084
882.31	0.085
882.49	0.085
882.67	0.085
882.85	0.084
883.03	0.084
883.21	0.084
883.39	0.084
883.57	0.085
883.75	0.085
883.92	0.085
884.10	0.085
884.28	0.085
884.46	0.085
884.64	0.085
884.82	0.085
885.00	0.085
885.18	0.086
885.36	0.086
885.54	0.086
885.71	0.086
885.89	0.086
886.07	0.086
886.25	0.086
886.43	0.086
886.61	0.086
886.79	0.086
886.97	0.086
887.15	0.086
887.32	0.086
887.50	0.086
887.68	0.086
887.86	0.086
888.04	0.086
888.22	0.086
888.40	0.086
888.57	0.086
888.75	0.086
888.93	0.086
889.11	0.086
889.29	0.087
889.47	0.087
889.65	0.087
889.82	0.087
890.00	0.088
890.18	0.087
890.36	0.088
890.54	0.088
890.72	0.088
890.90	0.088
891.07	0.088
891.25	0.087
891.43	0.087
891.61	0.088
891.79	0.087
891.97	0.087
892.14	0.087
892.32	0.087
892.50	0.088
892.68	0.088
892.86	0.088
893.03	0.088
893.21	0.088
893.39	0.088
893.57	0.088
893.75	0.088
893.93	0.088
894.10	0.087
894.28	0.087
894.46	0.087
894.64	0.087
894.82	0.088
894.99	0.088
895.17	0.088
895.35	0.088
895.53	0.088
895.71	0.088
895.88	0.088
896.06	0.088
896.24	0.088
896.42	0.088
896.59	0.088
896.77	0.088
896.95	0.088
897.13	0.088
897.31	0.088
897.48	0.088
897.66	0.089
897.84	0.088
898.02	0.089
898.19	0.089
898.37	0.089
898.55	0.089
898.73	0.090
898.91	0.090
899.08	0.090
899.26	0.090
899.44	0.090
899.62	0.090
899.79	0.091
899.97	0.091
900.15	0.090
900.33	0.090
900.50	0.090
900.68	0.090
900.86	0.090
901.04	0.090
901.21	0.090
901.39	0.090
901.57	0.090
901.74	0.090
901.92	0.090
902.10	0.090
902.28	0.090
902.45	0.090
902.63	0.090
902.81	0.090
902.99	0.090
903.16	0.090
903.34	0.090
903.52	0.091
903.69	0.091
903.87	0.091
904.05	0.091
904.22	0.091
904.40	0.091
904.58	0.091
904.76	0.091
904.93	0.091
905.11	0.091
905.29	0.091
905.46	0.091
905.64	0.091
905.82	0.091
905.99	0.091
906.17	0.091
906.35	0.091
906.53	0.091
906.70	0.092
906.88	0.092
907.06	0.092
907.23	0.092
907.41	0.092
907.59	0.092
907.76	0.092
907.94	0.092
908.12	0.092
908.29	0.092
908.47	0.092
908.65	0.092
908.82	0.093
909.00	0.093
909.18	0.093
909.35	0.093
909.53	0.092
909.71	0.092
909.88	0.092
910.06	0.093
910.23	0.093
910.41	0.093
910.59	0.093
910.76	0.093
910.94	0.092
911.12	0.093
911.29	0.093
911.47	0.093
911.65	0.093
911.82	0.093
912.00	0.094
912.17	0.093
912.35	0.094
912.53	0.094
912.70	0.094
912.88	0.094
913.06	0.095
913.23	0.095
913.41	0.095
913.58	0.095
913.76	0.095
913.94	0.095
914.11	0.095
914.29	0.095
914.46	0.095
914.64	0.095
914.82	0.095
914.99	0.096
915.17	0.095
915.34	0.096
915.52	0.096
915.70	0.096
915.87	0.097
916.05	0.097
916.22	0.097
916.40	0.097
916.57	0.097
916.75	0.097
916.93	0.098
917.10	0.097
917.28	0.097
917.45	0.097
917.63	0.097
917.80	0.097
917.98	0.097
918.16	0.097
918.33	0.097
918.51	0.097
918.68	0.097
918.86	0.098
919.03	0.098
919.21	0.098
919.39	0.099
919.56	0.099
919.74	0.100
919.91	0.099
920.09	0.100
920.26	0.100
920.44	0.100
920.61	0.100
920.79	0.101
920.96	0.101
921.14	0.101
921.31	0.101
921.49	0.101
921.67	0.101
921.84	0.101
922.02	0.101
922.19	0.102
922.37	0.102
922.54	0.102
922.72	0.102
922.89	0.103
923.07	0.103
923.24	0.103
923.42	0.103
923.59	0.104
923.77	0.104
923.94	0.105
924.12	0.105
924.29	0.105
924.47	0.105
924.64	0.106
924.82	0.106
924.99	0.106
925.17	0.106
925.34	0.107
925.52	0.107
925.69	0.108
925.87	0.108
926.04	0.108
926.22	0.109
926.39	0.109
926.57	0.109
926.74	0.109
926.91	0.110
927.09	0.110
927.26	0.110
927.44	0.110
927.61	0.111
927.79	0.111
927.96	0.112
928.14	0.112
928.31	0.112
928.49	0.112
928.66	0.112
928.84	0.113
929.01	0.113
929.18	0.114
929.36	0.114
929.53	0.114
929.71	0.115
929.88	0.115
930.06	0.116
930.23	0.116
930.41	0.117
930.58	0.118
930.75	0.118
930.93	0.118
931.10	0.118
931.28	0.119
931.45	0.120
931.63	0.120
931.80	0.120
931.97	0.121
932.15	0.121
932.32	0.121
932.50	0.121
932.67	0.122
932.84	0.122
933.02	0.123
933.19	0.123
933.37	0.124
933.54	0.124
933.71	0.125
933.89	0.126
934.06	0.126
934.24	0.127
934.41	0.127
934.58	0.128
934.76	0.128
934.93	0.129
935.11	0.129
935.28	0.129
935.45	0.130
935.63	0.130
935.80	0.130
935.98	0.131
936.15	0.131
936.32	0.131
936.50	0.132
936.67	0.132
936.84	0.132
937.02	0.133
937.19	0.134
937.36	0.134
937.54	0.135
937.71	0.136
937.89	0.136
938.06	0.136
938.23	0.137
938.41	0.138
938.58	0.138
938.75	0.139
938.93	0.139
939.10	0.139
939.27	0.140
939.45	0.141
939.62	0.142
939.79	0.143
939.97	0.143
940.14	0.144
940.31	0.145
940.49	0.145
940.66	0.146
940.83	0.147
941.01	0.147
941.18	0.148
941.35	0.148
941.53	0.149
941.70	0.150
941.87	0.150
942.05	0.150
942.22	0.151
942.39	0.152
942.57	0.152
942.74	0.153
942.91	0.154
943.08	0.154
943.26	0.155
943.43	0.155
943.60	0.155
943.78	0.156
943.95	0.157
944.12	0.158
944.29	0.159
944.47	0.159
944.64	0.160
944.81	0.161
944.99	0.162
945.16	0.163
945.33	0.163
945.50	0.164
945.68	0.165
945.85	0.165
946.02	0.167
946.20	0.167
946.37	0.168
946.54	0.169
946.71	0.170
946.89	0.170
947.06	0.171
947.23	0.172
947.40	0.174
947.58	0.174
947.75	0.175
947.92	0.175
948.09	0.176
948.27	0.177
948.44	0.178
948.61	0.179
948.78	0.180
948.96	0.182
949.13	0.182
949.30	0.183
949.47	0.184
949.65	0.185
949.82	0.187
949.99	0.188
950.16	0.190
950.33	0.190
950.51	0.192
950.68	0.193
950.85	0.194
951.02	0.196
951.20	0.196
951.37	0.198
951.54	0.198
951.71	0.200
951.88	0.201
952.06	0.202
952.23	0.203
952.40	0.204
952.57	0.205
952.74	0.207
952.92	0.207
953.09	0.209
953.26	0.210
953.43	0.211
953.60	0.212
953.77	0.213
953.95	0.214
954.12	0.215
954.29	0.216
954.46	0.219
954.63	0.220
954.81	0.220
954.98	0.221
955.15	0.224
955.32	0.225
955.49	0.225
955.66	0.227
955.84	0.228
956.01	0.228
956.18	0.230
956.35	0.231
956.52	0.232
956.69	0.234
956.87	0.234
957.04	0.235
957.21	0.238
957.38	0.237
957.55	0.238
957.72	0.240
957.89	0.240
958.07	0.240
958.24	0.243
958.41	0.244
958.58	0.244
958.75	0.244
958.92	0.245
959.09	0.246
959.26	0.246
959.44	0.247
959.61	0.248
959.78	0.249
959.95	0.250
960.12	0.251
960.29	0.253
960.46	0.252
960.63	0.253
960.81	0.253
960.98	0.254
961.15	0.255
961.32	0.256
961.49	0.256
961.66	0.257
961.83	0.257
962.00	0.257
962.17	0.258
962.34	0.257
962.52	0.259
962.69	0.259
962.86	0.259
963.03	0.259
963.20	0.260
963.37	0.259
963.54	0.259
963.71	0.259
963.88	0.259
964.05	0.260
964.22	0.262
964.39	0.260
964.56	0.260
964.74	0.261
964.91	0.261
965.08	0.262
965.25	0.262
965.42	0.263
965.59	0.263
965.76	0.263
965.93	0.264
966.10	0.262
966.27	0.264
966.44	0.263
966.61	0.264
966.78	0.264
966.95	0.263
967.12	0.264
967.29	0.266
967.46	0.265
967.63	0.265
967.80	0.265
967.97	0.265
968.14	0.264
968.32	0.265
968.49	0.265
968.66	0.265
968.83	0.265
969.00	0.265
969.17	0.265
969.34	0.266
969.51	0.267
969.68	0.266
969.85	0.267
970.02	0.267
970.19	0.266
970.36	0.267
970.53	0.267
970.70	0.266
970.87	0.267
971.04	0.266
971.21	0.267
971.38	0.266
971.55	0.267
971.72	0.267
971.89	0.268
972.06	0.268
972.23	0.267
972.40	0.267
972.57	0.266
972.74	0.266
972.91	0.267
973.07	0.267
973.24	0.267
973.41	0.267
973.58	0.265
973.75	0.278
973.92	0.266
974.09	0.266
974.26	0.266
974.43	0.266
974.60	0.267
974.77	0.267
974.94	0.266
975.11	0.267
975.28	0.268
975.45	0.266
975.62	0.267
975.79	0.268
975.96	0.266
976.13	0.265
976.30	0.267
976.47	0.265
976.64	0.265
976.80	0.266
976.97	0.266
977.14	0.266
977.31	0.266
977.48	0.266
977.65	0.265
977.82	0.265
977.99	0.266
978.16	0.266
978.33	0.266
978.50	0.265
978.67	0.265
978.83	0.265
979.00	0.265
979.17	0.264
979.34	0.264
979.51	0.264
979.68	0.264
979.85	0.264
980.02	0.264
980.19	0.262
980.36	0.264
980.52	0.265
980.69	0.263
980.86	0.263
981.03	0.263
981.20	0.261
981.37	0.263
981.54	0.263
981.71	0.262
981.88	0.263
982.04	0.262
982.21	0.261
982.38	0.263
982.55	0.262
982.72	0.261
982.89	0.263
983.06	0.261
983.22	0.261
983.39	0.260
983.56	0.259
983.73	0.258
983.90	0.257
984.07	0.259
984.24	0.257
984.40	0.257
984.57	0.256
984.74	0.258
984.91	0.258
985.08	0.256
985.25	0.254
985.41	0.256
985.58	0.256
985.75	0.257
985.92	0.256
986.09	0.255
986.26	0.255
986.42	0.254
986.59	0.253
986.76	0.255
986.93	0.255
987.10	0.255
987.27	0.252
987.43	0.251
987.60	0.253
987.77	0.253
987.94	0.252
988.11	0.253
988.27	0.253
988.44	0.253
988.61	0.251
988.78	0.249
988.95	0.250
989.11	0.251
989.28	0.249
989.45	0.248
989.62	0.248
989.79	0.248
989.95	0.247
990.12	0.249
990.29	0.248
990.46	0.246
990.62	0.244
990.79	0.244
990.96	0.244
991.13	0.245
991.30	0.244
991.46	0.244
991.63	0.242
991.80	0.242
991.97	0.241
992.13	0.242
992.30	0.243
992.47	0.241
992.64	0.241
992.80	0.241
992.97	0.242
993.14	0.239
993.31	0.237
993.47	0.239
993.64	0.237
993.81	0.236
993.98	0.237
994.14	0.236
994.31	0.235
994.48	0.236
994.64	0.236
994.81	0.235
994.98	0.236
995.15	0.234
995.31	0.234
995.48	0.233
995.65	0.235
995.82	0.233
995.98	0.232
996.15	0.233
996.32	0.235
996.48	0.233
996.65	0.232
996.82	0.229
996.99	0.230
997.15	0.230
997.32	0.231
997.49	0.229
997.65	0.231
997.82	0.230
997.99	0.228
998.15	0.229
998.32	0.230
998.49	0.229
998.65	0.230
998.82	0.229
998.99	0.226
999.15	0.227
999.32	0.227
999.49	0.226
999.65	0.227
999.82	0.224
999.99	0.224
1000.15	0.223
1000.32	0.224
1000.49	0.224
1000.65	0.221
1000.82	0.221
1000.99	0.221
1001.15	0.221
1001.32	0.220
1001.49	0.220
1001.65	0.220
1001.82	0.222
1001.99	0.220
1002.15	0.219
1002.32	0.219
1002.49	0.219
1002.65	0.218
1002.82	0.216
1002.99	0.216
1003.15	0.218
1003.32	0.216
1003.48	0.216
1003.65	0.216
1003.82	0.215
1003.98	0.212
1004.15	0.212
1004.32	0.212
1004.48	0.213
1004.65	0.214
1004.81	0.211
1004.98	0.209
1005.15	0.210
1005.31	0.210
1005.48	0.208
1005.64	0.208
1005.81	0.210
1005.98	0.207
1006.14	0.206
1006.31	0.206
1006.47	0.205
1006.64	0.204
1006.81	0.204
1006.97	0.204
1007.14	0.204
1007.30	0.205
1007.47	0.205
1007.63	0.203
1007.80	0.201
1007.97	0.202
1008.13	0.202
1008.30	0.201
1008.46	0.201
1008.63	0.200
1008.79	0.200
1008.96	0.200
1009.13	0.201
1009.29	0.199
1009.46	0.199
1009.62	0.199
1009.79	0.197
1009.95	0.198
1010.12	0.198
1010.28	0.198
1010.45	0.197
1010.62	0.196
1010.78	0.194
1010.95	0.193
1011.11	0.194
1011.28	0.194
1011.44	0.195
1011.61	0.193
1011.77	0.191
1011.94	0.191
1012.10	0.191
1012.27	0.191
1012.43	0.190
1012.60	0.189
1012.76	0.189
1012.93	0.188
1013.10	0.187
1013.26	0.184
1013.43	0.186
1013.59	0.194
1013.76	0.187
1013.92	0.186
1014.09	0.185
1014.25	0.187
1014.42	0.187
1014.58	0.187
1014.75	0.190
1014.91	0.188
1015.08	0.190
1015.24	0.186
1015.41	0.188
1015.57	0.188
1015.73	0.186
1015.90	0.184
1016.06	0.187
1016.23	0.185
1016.39	0.185
1016.56	0.185
1016.72	0.185
1016.89	0.184
1017.05	0.186
1017.22	0.182
1017.38	0.183
1017.55	0.181
1017.71	0.181
1017.88	0.180
1018.04	0.181
1018.21	0.178
1018.37	0.178
1018.53	0.178
1018.70	0.177
1018.86	0.176
1019.03	0.178
1019.19	0.176
1019.36	0.177
1019.52	0.178
1019.69	0.178
1019.85	0.177
1020.01	0.176
1020.18	0.174
1020.34	0.174
1020.51	0.174
1020.67	0.174
1020.84	0.173
1021.00	0.173
1021.16	0.171
1021.33	0.172
1021.49	0.172
1021.66	0.173
1021.82	0.171
1021.98	0.172
1022.15	0.171
1022.31	0.170
1022.48	0.169
1022.64	0.170
1022.80	0.169
1022.97	0.168
1023.13	0.166
1023.30	0.167
1023.46	0.168
1023.62	0.166
1023.79	0.168
1023.95	0.169
1024.12	0.168
1024.28	0.167
1024.44	0.168
1024.61	0.167
1024.77	0.166
1024.93	0.165
1025.10	0.166
1025.26	0.164
1025.43	0.165
1025.59	0.160
1025.75	0.163
1025.92	0.163
1026.08	0.161
1026.24	0.161
1026.41	0.162
1026.57	0.160
1026.73	0.158
1026.90	0.160
1027.06	0.159
1027.23	0.159
1027.39	0.160
1027.55	0.161
1027.72	0.158
1027.88	0.159
1028.04	0.159
1028.21	0.159
1028.37	0.154
1028.53	0.160
1028.70	0.157
1028.86	0.154
1029.02	0.155
1029.19	0.155
1029.35	0.152
1029.51	0.153
1029.67	0.152
1029.84	0.153
1030.00	0.149
1030.16	0.149
1030.33	0.152
1030.49	0.149
1030.65	0.148
1030.82	0.164
1030.98	0.151
1031.14	0.151
1031.31	0.150
1031.47	0.148
1031.63	0.151
1031.79	0.149
1031.96	0.151
1032.12	0.151
1032.28	0.148
1032.45	0.153
1032.61	0.151
1032.77	0.150
1032.93	0.148
1033.10	0.150
1033.26	0.152
1033.42	0.149
1033.58	0.150
1033.75	0.151
1033.91	0.150
1034.07	0.152
1034.24	0.149
1034.40	0.146
1034.56	0.146
1034.72	0.146
1034.89	0.146
1035.05	0.143
1035.21	0.144
1035.37	0.143
1035.54	0.146
1035.70	0.143
1035.86	0.144
1036.02	0.144
1036.19	0.143
1036.35	0.142
1036.51	0.146
1036.67	0.144
1036.83	0.145
1037.00	0.144
1037.16	0.142
1037.32	0.143
1037.48	0.143
1037.65	0.146
1037.81	0.142
1037.97	0.142
1038.13	0.142
1038.29	0.140
1038.46	0.137
1038.62	0.140
1038.78	0.138
1038.94	0.135
1039.10	0.140
1039.27	0.135
1039.43	0.138
1039.59	0.137
1039.75	0.138
1039.91	0.135
1040.08	0.135
1040.24	0.137
1040.40	0.139
1040.56	0.137
1040.72	0.131
1040.89	0.133
1041.05	0.135
1041.21	0.134
1041.37	0.132
1041.53	0.136
1041.69	0.134
1041.86	0.133
1042.02	0.131
1042.18	0.131
1042.34	0.133
1042.50	0.138
1042.66	0.134
1042.83	0.132
1042.99	0.134
1043.15	0.129
1043.31	0.131
1043.47	0.136
1043.63	0.133
1043.79	0.133
1043.96	0.133
1044.12	0.135
1044.28	0.132
1044.44	0.134
1044.60	0.129
1044.76	0.127
1044.92	0.130
1045.09	0.132
1045.25	0.129
1045.41	0.129
1045.57	0.124
1045.73	0.124
1045.89	0.127
1046.05	0.128
1046.21	0.129
1046.38	0.127
1046.54	0.130
1046.70	0.135
1046.86	0.120
>>>>>End Processed Spectral Data<<<<<
