SpectraSuite Data File
++++++++++++++++++++++++++++++++++++
Date: Mon May 20 12:12:30 CDT 2013
User: Students
Dark Spectrum Present: Yes
Reference Spectrum Present: Yes
Number of Sampled Component Spectra: 1
Spectrometers: USB4H00887
Integration Time (usec): 60000 (USB4H00887)
Spectra Averaged: 5 (USB4H00887)
Boxcar Smoothing: 5 (USB4H00887)
Correct for Electrical Dark: No (USB4H00887)
Strobe/Lamp Enabled: No (USB4H00887)
Correct for Detector Non-linearity: No (USB4H00887)
Correct for Stray Light: No (USB4H00887)
Number of Pixels in Processed Spectrum: 3648
>>>>>Begin Processed Spectral Data<<<<<
345.83	0.127
346.05	0.127
346.26	0.127
346.48	-0.000
346.70	0.288
346.92	0.011
347.14	0.024
347.35	0.022
347.57	0.212
347.79	-0.159
348.01	-0.132
348.23	-0.262
348.44	-0.000
348.66	0.241
348.88	-0.295
349.10	-0.039
349.32	-0.011
349.53	0.011
349.75	0.017
349.97	0.047
350.19	0.056
350.41	0.035
350.62	-0.192
350.84	0.019
351.06	0.048
351.28	0.026
351.50	-0.110
351.71	-0.131
351.93	-0.018
352.15	-0.015
352.37	-0.068
352.58	0.005
352.80	0.023
353.02	0.024
353.24	0.060
353.46	0.141
353.67	-0.035
353.89	0.052
354.11	0.051
354.33	0.047
354.54	0.072
354.76	0.131
354.98	0.105
355.20	0.119
355.41	0.090
355.63	0.136
355.85	0.080
356.07	-0.000
356.28	0.089
356.50	0.117
356.72	0.035
356.94	0.130
357.15	0.160
357.37	-0.000
357.59	0.090
357.81	0.048
358.02	0.064
358.24	0.049
358.46	0.083
358.68	0.083
358.89	0.065
359.11	-0.000
359.33	0.084
359.55	-0.598
359.76	0.126
359.98	0.166
360.20	0.154
360.42	0.153
360.63	0.163
360.85	0.123
361.07	0.384
361.29	0.061
361.50	0.204
361.72	0.077
361.94	0.257
362.15	0.140
362.37	0.075
362.59	0.083
362.81	0.127
363.02	0.273
363.24	0.465
363.46	0.289
363.68	0.422
363.89	0.233
364.11	0.361
364.33	0.451
364.54	0.232
364.76	0.310
364.98	0.346
365.20	0.393
365.41	0.214
365.63	0.248
365.85	0.154
366.06	0.545
366.28	0.527
366.50	0.252
366.71	0.100
366.93	0.132
367.15	0.112
367.37	0.102
367.58	0.140
367.80	0.148
368.02	0.447
368.23	0.136
368.45	0.119
368.67	0.100
368.88	0.107
369.10	-0.000
369.32	0.129
369.53	0.072
369.75	0.141
369.97	0.354
370.19	0.220
370.40	0.074
370.62	0.260
370.84	0.113
371.05	0.928
371.27	0.189
371.49	0.211
371.70	0.233
371.92	0.388
372.14	0.141
372.35	0.156
372.57	0.182
372.79	0.652
373.00	0.127
373.22	0.213
373.44	0.182
373.65	0.144
373.87	0.221
374.09	-0.000
374.30	0.183
374.52	0.198
374.74	0.139
374.95	0.607
375.17	0.175
375.39	-0.000
375.60	0.175
375.82	0.343
376.04	0.149
376.25	0.149
376.47	0.092
376.68	0.240
376.90	0.131
377.12	0.280
377.33	0.145
377.55	0.320
377.77	0.183
377.98	0.281
378.20	0.155
378.42	0.177
378.63	0.228
378.85	-0.000
379.07	0.154
379.28	0.642
379.50	0.345
379.71	0.190
379.93	0.147
380.15	0.185
380.36	0.267
380.58	0.204
380.80	0.603
381.01	0.169
381.23	0.136
381.44	0.131
381.66	0.150
381.88	0.181
382.09	-0.085
382.31	0.116
382.53	0.128
382.74	0.783
382.96	0.184
383.17	0.155
383.39	0.232
383.61	0.302
383.82	0.224
384.04	0.268
384.25	0.343
384.47	0.321
384.69	0.305
384.90	0.290
385.12	0.593
385.33	0.354
385.55	0.261
385.77	0.378
385.98	0.195
386.20	0.257
386.41	0.221
386.63	0.266
386.85	0.202
387.06	0.265
387.28	0.375
387.49	0.256
387.71	0.169
387.93	0.146
388.14	0.397
388.36	0.167
388.57	0.155
388.79	0.168
389.01	0.650
389.22	0.209
389.44	0.172
389.65	0.148
389.87	0.146
390.08	0.181
390.30	0.152
390.52	0.287
390.73	0.304
390.95	0.226
391.16	0.214
391.38	-0.000
391.59	0.255
391.81	0.218
392.03	0.194
392.24	0.222
392.46	0.190
392.67	0.170
392.89	0.240
393.10	0.351
393.32	0.244
393.53	0.278
393.75	0.178
393.97	0.203
394.18	0.273
394.40	0.234
394.61	0.257
394.83	0.221
395.04	0.259
395.26	0.177
395.47	0.274
395.69	0.237
395.91	0.278
396.12	0.345
396.34	0.342
396.55	0.220
396.77	0.354
396.98	-0.000
397.20	0.449
397.41	0.515
397.63	0.371
397.84	0.327
398.06	0.297
398.27	0.288
398.49	0.317
398.71	0.227
398.92	0.281
399.14	0.385
399.35	0.493
399.57	0.456
399.78	0.303
400.00	0.276
400.21	0.361
400.43	0.292
400.64	0.307
400.86	0.772
401.07	0.387
401.29	0.320
401.50	0.331
401.72	0.476
401.93	0.301
402.15	0.380
402.36	0.338
402.58	0.268
402.79	0.301
403.01	0.490
403.22	0.370
403.44	0.256
403.65	0.433
403.87	0.471
404.08	0.367
404.30	0.598
404.51	0.319
404.73	0.404
404.94	0.347
405.16	0.353
405.37	0.285
405.59	0.536
405.80	0.338
406.02	0.399
406.23	0.398
406.45	0.454
406.66	0.496
406.88	0.316
407.09	0.476
407.31	0.368
407.52	0.461
407.74	0.373
407.95	0.446
408.17	0.421
408.38	0.450
408.60	0.298
408.81	0.491
409.03	0.365
409.24	0.365
409.45	0.431
409.67	0.415
409.88	0.365
410.10	0.465
410.31	0.379
410.53	0.350
410.74	0.485
410.96	0.463
411.17	0.485
411.39	0.369
411.60	0.344
411.82	0.387
412.03	0.389
412.24	0.372
412.46	0.527
412.67	0.446
412.89	0.457
413.10	0.442
413.32	0.412
413.53	0.488
413.75	0.505
413.96	0.378
414.17	0.517
414.39	0.513
414.60	0.420
414.82	0.557
415.03	0.425
415.25	0.472
415.46	0.334
415.68	0.464
415.89	0.883
416.10	0.704
416.32	0.390
416.53	0.447
416.75	0.427
416.96	0.519
417.18	0.448
417.39	0.432
417.60	0.424
417.82	0.622
418.03	0.543
418.25	0.444
418.46	0.468
418.67	0.416
418.89	0.459
419.10	0.478
419.32	0.646
419.53	0.577
419.75	0.486
419.96	0.426
420.17	0.526
420.39	0.489
420.60	0.508
420.82	0.625
421.03	0.509
421.24	0.421
421.46	0.468
421.67	0.514
421.89	0.447
422.10	0.488
422.31	0.483
422.53	0.675
422.74	0.501
422.96	0.403
423.17	0.445
423.38	0.549
423.60	0.465
423.81	0.570
424.03	0.493
424.24	0.551
424.45	0.540
424.67	0.540
424.88	0.480
425.09	0.529
425.31	0.487
425.52	0.517
425.74	0.578
425.95	0.620
426.16	0.484
426.38	0.550
426.59	0.511
426.80	0.580
427.02	0.600
427.23	0.484
427.45	0.620
427.66	0.600
427.87	0.473
428.09	0.505
428.30	0.570
428.51	0.565
428.73	0.625
428.94	0.543
429.15	0.532
429.37	0.514
429.58	0.528
429.79	0.493
430.01	0.587
430.22	0.574
430.44	0.587
430.65	0.528
430.86	0.557
431.08	0.541
431.29	0.497
431.50	0.589
431.72	0.768
431.93	0.634
432.14	0.479
432.36	0.523
432.57	0.530
432.78	0.558
433.00	0.514
433.21	0.512
433.42	0.626
433.64	0.550
433.85	0.619
434.06	0.511
434.28	0.541
434.49	0.557
434.70	0.573
434.92	0.591
435.13	0.623
435.34	0.633
435.56	0.595
435.77	0.599
435.98	0.770
436.20	0.641
436.41	0.552
436.62	0.540
436.83	0.617
437.05	0.689
437.26	0.604
437.47	0.541
437.69	0.590
437.90	0.545
438.11	0.535
438.33	0.586
438.54	0.604
438.75	0.761
438.97	0.749
439.18	0.563
439.39	0.596
439.60	0.643
439.82	0.602
440.03	0.555
440.24	0.804
440.46	0.604
440.67	0.581
440.88	0.621
441.10	0.583
441.31	0.580
441.52	0.626
441.73	0.700
441.95	0.624
442.16	0.588
442.37	0.916
442.58	0.574
442.80	0.563
443.01	0.731
443.22	0.669
443.44	0.570
443.65	0.669
443.86	0.674
444.07	0.716
444.29	0.623
444.50	0.772
444.71	0.589
444.92	0.560
445.14	0.703
445.35	0.734
445.56	0.586
445.78	0.681
445.99	0.680
446.20	0.590
446.41	0.664
446.63	0.667
446.84	0.634
447.05	0.643
447.26	0.766
447.48	0.656
447.69	0.620
447.90	0.702
448.11	0.630
448.33	0.660
448.54	0.671
448.75	0.701
448.96	0.702
449.18	0.743
449.39	0.663
449.60	0.646
449.81	0.772
450.03	0.681
450.24	0.743
450.45	0.707
450.66	0.693
450.87	0.725
451.09	0.672
451.30	0.651
451.51	0.721
451.72	0.731
451.94	0.748
452.15	0.815
452.36	0.674
452.57	0.687
452.78	0.687
453.00	0.712
453.21	0.672
453.42	0.654
453.63	0.742
453.85	0.705
454.06	0.694
454.27	0.809
454.48	0.725
454.69	0.667
454.91	0.731
455.12	0.639
455.33	0.712
455.54	0.727
455.75	0.697
455.97	0.727
456.18	0.716
456.39	0.726
456.60	0.747
456.81	0.690
457.03	0.698
457.24	0.698
457.45	0.777
457.66	0.731
457.87	0.694
458.09	0.717
458.30	0.638
458.51	0.752
458.72	0.775
458.93	0.788
459.15	0.696
459.36	0.756
459.57	0.776
459.78	0.819
459.99	0.733
460.20	0.694
460.42	0.769
460.63	0.724
460.84	0.715
461.05	0.731
461.26	0.785
461.47	0.710
461.69	0.757
461.90	0.799
462.11	0.758
462.32	0.807
462.53	0.754
462.74	0.836
462.96	0.734
463.17	0.723
463.38	0.765
463.59	0.868
463.80	0.729
464.01	0.751
464.23	0.829
464.44	0.793
464.65	0.802
464.86	0.818
465.07	0.822
465.28	0.781
465.49	0.806
465.71	0.763
465.92	0.791
466.13	0.835
466.34	0.773
466.55	0.817
466.76	0.784
466.97	0.810
467.19	0.802
467.40	0.841
467.61	0.850
467.82	0.771
468.03	0.755
468.24	0.824
468.45	0.853
468.66	0.840
468.88	0.850
469.09	0.845
469.30	0.892
469.51	0.820
469.72	0.857
469.93	0.834
470.14	0.814
470.35	0.899
470.57	0.851
470.78	0.797
470.99	0.916
471.20	0.857
471.41	0.821
471.62	0.864
471.83	0.842
472.04	0.870
472.25	0.904
472.47	0.830
472.68	0.835
472.89	0.841
473.10	0.876
473.31	0.836
473.52	0.893
473.73	0.913
473.94	0.839
474.15	0.864
474.36	0.864
474.57	0.887
474.79	0.862
475.00	0.864
475.21	0.848
475.42	0.932
475.63	0.841
475.84	0.869
476.05	0.871
476.26	0.845
476.47	0.877
476.68	0.918
476.89	0.857
477.10	0.895
477.32	0.880
477.53	0.932
477.74	0.859
477.95	0.896
478.16	0.851
478.37	0.893
478.58	0.897
478.79	0.909
479.00	0.910
479.21	0.867
479.42	0.910
479.63	0.916
479.84	0.879
480.05	0.875
480.26	0.900
480.47	0.915
480.69	0.916
480.90	0.886
481.11	0.882
481.32	0.936
481.53	0.882
481.74	0.926
481.95	0.897
482.16	0.910
482.37	0.923
482.58	0.891
482.79	0.909
483.00	0.938
483.21	0.888
483.42	0.865
483.63	0.932
483.84	0.956
484.05	0.944
484.26	0.916
484.47	0.917
484.68	0.884
484.89	0.893
485.10	0.936
485.31	0.914
485.52	0.920
485.73	0.916
485.94	0.951
486.15	0.904
486.37	0.924
486.58	0.893
486.79	0.904
487.00	0.949
487.21	0.939
487.42	0.934
487.63	0.936
487.84	0.955
488.05	0.955
488.26	0.920
488.47	0.930
488.68	0.954
488.89	0.934
489.10	0.929
489.31	0.938
489.52	0.968
489.73	0.940
489.94	0.977
490.15	0.939
490.36	0.974
490.57	0.932
490.78	0.918
490.99	0.951
491.20	1.021
491.41	0.983
491.62	0.931
491.83	0.958
492.04	0.956
492.25	0.963
492.45	0.960
492.66	0.982
492.87	0.971
493.08	0.959
493.29	0.944
493.50	0.934
493.71	0.940
493.92	0.936
494.13	0.949
494.34	0.965
494.55	0.970
494.76	0.997
494.97	0.989
495.18	0.958
495.39	0.972
495.60	0.929
495.81	0.932
496.02	0.950
496.23	0.945
496.44	0.977
496.65	0.969
496.86	0.973
497.07	0.999
497.28	0.996
497.49	0.951
497.70	0.953
497.91	0.972
498.12	0.956
498.32	0.991
498.53	0.976
498.74	0.965
498.95	0.987
499.16	0.947
499.37	0.949
499.58	0.955
499.79	0.981
500.00	0.975
500.21	1.001
500.42	0.952
500.63	0.956
500.84	0.974
501.05	0.955
501.26	0.978
501.46	1.014
501.67	0.981
501.88	0.985
502.09	0.962
502.30	0.972
502.51	1.015
502.72	0.973
502.93	0.986
503.14	1.005
503.35	0.979
503.56	0.977
503.77	1.004
503.97	0.983
504.18	0.982
504.39	1.014
504.60	0.985
504.81	1.010
505.02	1.002
505.23	1.004
505.44	0.985
505.65	0.994
505.86	0.976
506.07	1.033
506.27	0.995
506.48	0.998
506.69	0.982
506.90	1.002
507.11	0.998
507.32	0.975
507.53	0.980
507.74	0.975
507.95	0.987
508.15	0.992
508.36	0.998
508.57	1.008
508.78	0.996
508.99	0.997
509.20	0.976
509.41	0.999
509.62	0.990
509.82	0.989
510.03	0.998
510.24	1.000
510.45	1.020
510.66	1.012
510.87	1.008
511.08	0.969
511.29	1.006
511.49	0.982
511.70	1.023
511.91	0.963
512.12	0.961
512.33	0.989
512.54	0.998
512.75	0.984
512.95	1.007
513.16	1.002
513.37	0.981
513.58	1.015
513.79	0.984
514.00	0.991
514.20	1.006
514.41	0.996
514.62	0.968
514.83	1.007
515.04	0.997
515.25	0.979
515.46	0.987
515.66	0.993
515.87	1.004
516.08	0.976
516.29	0.998
516.50	0.981
516.71	0.975
516.91	0.982
517.12	0.995
517.33	0.984
517.54	0.972
517.75	0.976
517.95	0.987
518.16	0.997
518.37	0.968
518.58	0.972
518.79	0.949
519.00	0.978
519.20	0.987
519.41	0.964
519.62	0.980
519.83	0.986
520.04	0.953
520.24	0.950
520.45	0.957
520.66	0.978
520.87	0.944
521.08	0.943
521.28	0.945
521.49	0.960
521.70	0.932
521.91	0.947
522.12	0.932
522.32	0.954
522.53	0.937
522.74	0.929
522.95	0.936
523.16	0.937
523.36	0.946
523.57	0.930
523.78	0.924
523.99	0.930
524.20	0.924
524.40	0.934
524.61	0.939
524.82	0.916
525.03	0.920
525.23	0.922
525.44	0.910
525.65	0.909
525.86	0.930
526.06	0.904
526.27	0.905
526.48	0.914
526.69	0.898
526.90	0.901
527.10	0.934
527.31	0.891
527.52	0.885
527.73	0.876
527.93	0.885
528.14	0.889
528.35	0.881
528.56	0.882
528.76	0.874
528.97	0.866
529.18	0.857
529.39	0.856
529.59	0.859
529.80	0.887
530.01	0.864
530.22	0.862
530.42	0.834
530.63	0.850
530.84	0.829
531.05	0.841
531.25	0.843
531.46	0.837
531.67	0.818
531.88	0.835
532.08	0.828
532.29	0.824
532.50	0.817
532.70	0.811
532.91	0.802
533.12	0.804
533.33	0.828
533.53	0.801
533.74	0.801
533.95	0.806
534.15	0.795
534.36	0.796
534.57	0.780
534.78	0.781
534.98	0.790
535.19	0.763
535.40	0.765
535.60	0.781
535.81	0.761
536.02	0.763
536.23	0.755
536.43	0.757
536.64	0.745
536.85	0.751
537.05	0.759
537.26	0.739
537.47	0.741
537.67	0.731
537.88	0.727
538.09	0.734
538.30	0.725
538.50	0.717
538.71	0.726
538.92	0.714
539.12	0.712
539.33	0.707
539.54	0.707
539.74	0.711
539.95	0.702
540.16	0.700
540.36	0.692
540.57	0.691
540.78	0.685
540.98	0.684
541.19	0.683
541.40	0.671
541.60	0.681
541.81	0.674
542.02	0.674
542.22	0.665
542.43	0.660
542.64	0.656
542.84	0.656
543.05	0.647
543.26	0.648
543.46	0.649
543.67	0.648
543.88	0.644
544.08	0.636
544.29	0.631
544.50	0.631
544.70	0.632
544.91	0.624
545.12	0.626
545.32	0.622
545.53	0.627
545.74	0.616
545.94	0.613
546.15	0.611
546.35	0.608
546.56	0.605
546.77	0.603
546.97	0.600
547.18	0.593
547.39	0.593
547.59	0.592
547.80	0.587
548.01	0.592
548.21	0.587
548.42	0.580
548.62	0.580
548.83	0.577
549.04	0.573
549.24	0.567
549.45	0.565
549.65	0.562
549.86	0.557
550.07	0.557
550.27	0.555
550.48	0.563
550.69	0.550
550.89	0.550
551.10	0.547
551.30	0.546
551.51	0.545
551.72	0.535
551.92	0.537
552.13	0.536
552.33	0.536
552.54	0.531
552.75	0.523
552.95	0.525
553.16	0.519
553.36	0.517
553.57	0.515
553.78	0.514
553.98	0.515
554.19	0.506
554.39	0.504
554.60	0.506
554.80	0.507
555.01	0.500
555.22	0.501
555.42	0.499
555.63	0.492
555.83	0.496
556.04	0.490
556.25	0.491
556.45	0.482
556.66	0.481
556.86	0.484
557.07	0.481
557.27	0.480
557.48	0.474
557.68	0.472
557.89	0.473
558.10	0.469
558.30	0.466
558.51	0.465
558.71	0.463
558.92	0.458
559.12	0.460
559.33	0.463
559.54	0.458
559.74	0.454
559.95	0.452
560.15	0.452
560.36	0.450
560.56	0.445
560.77	0.446
560.97	0.446
561.18	0.441
561.38	0.440
561.59	0.442
561.79	0.438
562.00	0.437
562.21	0.434
562.41	0.432
562.62	0.432
562.82	0.430
563.03	0.426
563.23	0.426
563.44	0.426
563.64	0.423
563.85	0.425
564.05	0.418
564.26	0.418
564.46	0.418
564.67	0.418
564.87	0.413
565.08	0.410
565.28	0.410
565.49	0.410
565.69	0.407
565.90	0.404
566.10	0.407
566.31	0.400
566.51	0.402
566.72	0.402
566.92	0.397
567.13	0.396
567.33	0.396
567.54	0.394
567.74	0.393
567.95	0.389
568.15	0.390
568.36	0.390
568.56	0.389
568.77	0.383
568.97	0.382
569.18	0.382
569.38	0.380
569.59	0.380
569.79	0.378
570.00	0.376
570.20	0.374
570.41	0.372
570.61	0.371
570.82	0.372
571.02	0.368
571.23	0.370
571.43	0.366
571.64	0.365
571.84	0.364
572.05	0.362
572.25	0.362
572.45	0.360
572.66	0.358
572.86	0.357
573.07	0.355
573.27	0.355
573.48	0.354
573.68	0.351
573.89	0.350
574.09	0.350
574.30	0.348
574.50	0.347
574.70	0.347
574.91	0.344
575.11	0.344
575.32	0.344
575.52	0.341
575.73	0.341
575.93	0.340
576.14	0.339
576.34	0.337
576.54	0.337
576.75	0.335
576.95	0.334
577.16	0.332
577.36	0.331
577.57	0.330
577.77	0.328
577.97	0.325
578.18	0.327
578.38	0.324
578.59	0.323
578.79	0.322
579.00	0.323
579.20	0.321
579.40	0.321
579.61	0.320
579.81	0.319
580.02	0.316
580.22	0.315
580.42	0.314
580.63	0.314
580.83	0.313
581.04	0.310
581.24	0.309
581.45	0.308
581.65	0.308
581.85	0.307
582.06	0.305
582.26	0.305
582.47	0.304
582.67	0.303
582.87	0.303
583.08	0.300
583.28	0.301
583.48	0.299
583.69	0.296
583.89	0.296
584.10	0.298
584.30	0.295
584.50	0.294
584.71	0.293
584.91	0.293
585.12	0.291
585.32	0.292
585.52	0.290
585.73	0.288
585.93	0.288
586.13	0.287
586.34	0.286
586.54	0.285
586.75	0.284
586.95	0.283
587.15	0.283
587.36	0.281
587.56	0.280
587.76	0.279
587.97	0.279
588.17	0.278
588.37	0.278
588.58	0.278
588.78	0.275
588.98	0.276
589.19	0.274
589.39	0.272
589.60	0.274
589.80	0.272
590.00	0.272
590.21	0.272
590.41	0.270
590.61	0.269
590.82	0.269
591.02	0.269
591.22	0.267
591.43	0.268
591.63	0.265
591.83	0.265
592.04	0.264
592.24	0.264
592.44	0.261
592.65	0.260
592.85	0.261
593.05	0.261
593.26	0.260
593.46	0.259
593.66	0.259
593.86	0.258
594.07	0.256
594.27	0.257
594.47	0.256
594.68	0.255
594.88	0.256
595.08	0.254
595.29	0.255
595.49	0.253
595.69	0.252
595.90	0.251
596.10	0.252
596.30	0.251
596.50	0.249
596.71	0.248
596.91	0.247
597.11	0.247
597.32	0.246
597.52	0.245
597.72	0.244
597.93	0.244
598.13	0.242
598.33	0.242
598.53	0.242
598.74	0.242
598.94	0.241
599.14	0.241
599.35	0.241
599.55	0.241
599.75	0.240
599.95	0.239
600.16	0.239
600.36	0.237
600.56	0.238
600.76	0.237
600.97	0.235
601.17	0.234
601.37	0.234
601.58	0.233
601.78	0.233
601.98	0.232
602.18	0.231
602.39	0.231
602.59	0.231
602.79	0.230
602.99	0.230
603.20	0.229
603.40	0.229
603.60	0.229
603.80	0.229
604.01	0.228
604.21	0.228
604.41	0.227
604.61	0.226
604.82	0.226
605.02	0.226
605.22	0.225
605.42	0.224
605.62	0.224
605.83	0.223
606.03	0.222
606.23	0.222
606.43	0.222
606.64	0.222
606.84	0.221
607.04	0.221
607.24	0.221
607.45	0.221
607.65	0.219
607.85	0.220
608.05	0.219
608.25	0.218
608.46	0.218
608.66	0.218
608.86	0.217
609.06	0.216
609.26	0.215
609.47	0.216
609.67	0.215
609.87	0.216
610.07	0.216
610.28	0.214
610.48	0.214
610.68	0.214
610.88	0.212
611.08	0.213
611.29	0.211
611.49	0.211
611.69	0.211
611.89	0.209
612.09	0.209
612.29	0.208
612.50	0.208
612.70	0.208
612.90	0.207
613.10	0.207
613.30	0.206
613.51	0.206
613.71	0.206
613.91	0.210
614.11	0.205
614.31	0.205
614.51	0.204
614.72	0.203
614.92	0.203
615.12	0.202
615.32	0.203
615.52	0.202
615.72	0.203
615.93	0.202
616.13	0.201
616.33	0.201
616.53	0.201
616.73	0.201
616.93	0.200
617.14	0.201
617.34	0.200
617.54	0.200
617.74	0.201
617.94	0.199
618.14	0.199
618.34	0.198
618.55	0.198
618.75	0.199
618.95	0.198
619.15	0.198
619.35	0.197
619.55	0.197
619.75	0.197
619.96	0.196
620.16	0.197
620.36	0.196
620.56	0.196
620.76	0.196
620.96	0.195
621.16	0.195
621.36	0.195
621.57	0.195
621.77	0.195
621.97	0.194
622.17	0.193
622.37	0.193
622.57	0.194
622.77	0.192
622.97	0.191
623.18	0.192
623.38	0.192
623.58	0.191
623.78	0.191
623.98	0.191
624.18	0.190
624.38	0.190
624.58	0.190
624.78	0.190
624.98	0.190
625.19	0.190
625.39	0.190
625.59	0.189
625.79	0.189
625.99	0.189
626.19	0.190
626.39	0.189
626.59	0.189
626.79	0.189
626.99	0.189
627.19	0.188
627.40	0.188
627.60	0.188
627.80	0.188
628.00	0.187
628.20	0.186
628.40	0.185
628.60	0.185
628.80	0.184
629.00	0.184
629.20	0.184
629.40	0.185
629.60	0.183
629.80	0.183
630.00	0.183
630.20	0.183
630.41	0.182
630.61	0.182
630.81	0.182
631.01	0.183
631.21	0.182
631.41	0.182
631.61	0.182
631.81	0.181
632.01	0.181
632.21	0.181
632.41	0.180
632.61	0.180
632.81	0.180
633.01	0.180
633.21	0.180
633.41	0.180
633.61	0.179
633.81	0.178
634.01	0.178
634.21	0.178
634.41	0.178
634.61	0.178
634.81	0.177
635.01	0.177
635.22	0.178
635.42	0.177
635.62	0.177
635.82	0.178
636.02	0.177
636.22	0.176
636.42	0.175
636.62	0.176
636.82	0.175
637.02	0.175
637.22	0.175
637.42	0.175
637.62	0.174
637.82	0.174
638.02	0.173
638.22	0.173
638.42	0.173
638.62	0.172
638.82	0.173
639.02	0.172
639.22	0.172
639.42	0.171
639.62	0.171
639.82	0.171
640.02	0.171
640.22	0.171
640.42	0.171
640.62	0.171
640.82	0.171
641.02	0.170
641.22	0.170
641.42	0.170
641.61	0.170
641.81	0.170
642.01	0.170
642.21	0.170
642.41	0.170
642.61	0.170
642.81	0.169
643.01	0.169
643.21	0.169
643.41	0.169
643.61	0.169
643.81	0.169
644.01	0.167
644.21	0.167
644.41	0.167
644.61	0.167
644.81	0.167
645.01	0.167
645.21	0.167
645.41	0.166
645.61	0.166
645.81	0.165
646.01	0.165
646.21	0.166
646.40	0.165
646.60	0.165
646.80	0.165
647.00	0.164
647.20	0.163
647.40	0.163
647.60	0.163
647.80	0.163
648.00	0.163
648.20	0.163
648.40	0.162
648.60	0.162
648.80	0.162
649.00	0.162
649.20	0.162
649.39	0.162
649.59	0.161
649.79	0.161
649.99	0.161
650.19	0.160
650.39	0.160
650.59	0.160
650.79	0.159
650.99	0.159
651.19	0.158
651.39	0.158
651.58	0.158
651.78	0.158
651.98	0.158
652.18	0.158
652.38	0.158
652.58	0.158
652.78	0.157
652.98	0.157
653.18	0.158
653.38	0.158
653.57	0.157
653.77	0.158
653.97	0.157
654.17	0.157
654.37	0.156
654.57	0.156
654.77	0.155
654.97	0.155
655.16	0.155
655.36	0.155
655.56	0.154
655.76	0.153
655.96	0.154
656.16	0.153
656.36	0.153
656.56	0.153
656.75	0.153
656.95	0.153
657.15	0.152
657.35	0.152
657.55	0.152
657.75	0.153
657.95	0.152
658.14	0.152
658.34	0.152
658.54	0.152
658.74	0.151
658.94	0.151
659.14	0.151
659.34	0.151
659.53	0.150
659.73	0.150
659.93	0.149
660.13	0.149
660.33	0.149
660.53	0.148
660.72	0.149
660.92	0.148
661.12	0.148
661.32	0.148
661.52	0.147
661.72	0.147
661.91	0.147
662.11	0.147
662.31	0.146
662.51	0.146
662.71	0.146
662.90	0.145
663.10	0.144
663.30	0.144
663.50	0.144
663.70	0.144
663.90	0.144
664.09	0.144
664.29	0.143
664.49	0.143
664.69	0.143
664.89	0.143
665.08	0.143
665.28	0.142
665.48	0.142
665.68	0.142
665.88	0.142
666.07	0.141
666.27	0.141
666.47	0.141
666.67	0.141
666.87	0.141
667.06	0.141
667.26	0.141
667.46	0.141
667.66	0.141
667.85	0.141
668.05	0.141
668.25	0.141
668.45	0.141
668.65	0.141
668.84	0.141
669.04	0.140
669.24	0.140
669.44	0.139
669.63	0.139
669.83	0.139
670.03	0.138
670.23	0.137
670.42	0.137
670.62	0.137
670.82	0.136
671.02	0.136
671.22	0.136
671.41	0.135
671.61	0.136
671.81	0.136
672.01	0.136
672.20	0.136
672.40	0.135
672.60	0.135
672.80	0.135
672.99	0.135
673.19	0.134
673.39	0.134
673.58	0.133
673.78	0.133
673.98	0.133
674.18	0.132
674.37	0.132
674.57	0.131
674.77	0.132
674.97	0.131
675.16	0.132
675.36	0.131
675.56	0.131
675.75	0.131
675.95	0.131
676.15	0.131
676.35	0.131
676.54	0.131
676.74	0.131
676.94	0.131
677.13	0.130
677.33	0.130
677.53	0.130
677.73	0.130
677.92	0.129
678.12	0.129
678.32	0.129
678.51	0.129
678.71	0.129
678.91	0.128
679.11	0.128
679.30	0.128
679.50	0.128
679.70	0.127
679.89	0.127
680.09	0.128
680.29	0.127
680.48	0.127
680.68	0.127
680.88	0.127
681.07	0.127
681.27	0.126
681.47	0.126
681.66	0.125
681.86	0.125
682.06	0.125
682.25	0.125
682.45	0.125
682.65	0.125
682.84	0.124
683.04	0.124
683.24	0.123
683.43	0.124
683.63	0.123
683.83	0.123
684.02	0.123
684.22	0.123
684.42	0.122
684.61	0.123
684.81	0.122
685.01	0.122
685.20	0.121
685.40	0.122
685.60	0.122
685.79	0.122
685.99	0.122
686.19	0.122
686.38	0.122
686.58	0.122
686.77	0.122
686.97	0.122
687.17	0.122
687.36	0.122
687.56	0.121
687.76	0.121
687.95	0.120
688.15	0.121
688.34	0.120
688.54	0.120
688.74	0.119
688.93	0.119
689.13	0.118
689.33	0.118
689.52	0.118
689.72	0.118
689.91	0.117
690.11	0.117
690.31	0.117
690.50	0.117
690.70	0.117
690.89	0.117
691.09	0.117
691.29	0.117
691.48	0.117
691.68	0.117
691.87	0.117
692.07	0.117
692.27	0.117
692.46	0.117
692.66	0.116
692.85	0.115
693.05	0.115
693.25	0.115
693.44	0.114
693.64	0.114
693.83	0.115
694.03	0.114
694.22	0.114
694.42	0.114
694.62	0.114
694.81	0.115
695.01	0.115
695.20	0.115
695.40	0.114
695.59	0.114
695.79	0.114
695.99	0.114
696.18	0.114
696.38	0.114
696.57	0.114
696.77	0.113
696.96	0.114
697.16	0.113
697.36	0.113
697.55	0.113
697.75	0.113
697.94	0.113
698.14	0.113
698.33	0.112
698.53	0.112
698.72	0.112
698.92	0.112
699.11	0.112
699.31	0.111
699.51	0.111
699.70	0.111
699.90	0.110
700.09	0.111
700.29	0.110
700.48	0.111
700.68	0.110
700.87	0.111
701.07	0.110
701.26	0.110
701.46	0.109
701.65	0.109
701.85	0.109
702.04	0.109
702.24	0.108
702.43	0.109
702.63	0.108
702.82	0.108
703.02	0.108
703.21	0.108
703.41	0.108
703.60	0.108
703.80	0.108
703.99	0.108
704.19	0.108
704.38	0.108
704.58	0.107
704.77	0.107
704.97	0.107
705.16	0.108
705.36	0.108
705.55	0.107
705.75	0.107
705.94	0.107
706.14	0.107
706.33	0.107
706.53	0.107
706.72	0.107
706.92	0.106
707.11	0.106
707.31	0.106
707.50	0.106
707.70	0.106
707.89	0.106
708.09	0.106
708.28	0.105
708.48	0.105
708.67	0.105
708.86	0.105
709.06	0.105
709.25	0.105
709.45	0.105
709.64	0.104
709.84	0.104
710.03	0.104
710.23	0.104
710.42	0.104
710.62	0.104
710.81	0.104
711.00	0.104
711.20	0.103
711.39	0.103
711.59	0.103
711.78	0.103
711.98	0.103
712.17	0.103
712.37	0.103
712.56	0.103
712.75	0.103
712.95	0.104
713.14	0.103
713.34	0.104
713.53	0.104
713.73	0.104
713.92	0.104
714.11	0.104
714.31	0.104
714.50	0.104
714.70	0.104
714.89	0.103
715.08	0.104
715.28	0.104
715.47	0.103
715.67	0.103
715.86	0.103
716.06	0.103
716.25	0.103
716.44	0.103
716.64	0.102
716.83	0.102
717.03	0.102
717.22	0.102
717.41	0.102
717.61	0.102
717.80	0.102
717.99	0.102
718.19	0.102
718.38	0.102
718.58	0.102
718.77	0.102
718.96	0.102
719.16	0.102
719.35	0.101
719.55	0.101
719.74	0.101
719.93	0.100
720.13	0.100
720.32	0.100
720.51	0.101
720.71	0.101
720.90	0.101
721.10	0.101
721.29	0.101
721.48	0.100
721.68	0.100
721.87	0.100
722.06	0.100
722.26	0.101
722.45	0.100
722.64	0.100
722.84	0.100
723.03	0.100
723.22	0.101
723.42	0.100
723.61	0.100
723.80	0.100
724.00	0.100
724.19	0.100
724.38	0.100
724.58	0.100
724.77	0.100
724.96	0.100
725.16	0.100
725.35	0.100
725.54	0.100
725.74	0.100
725.93	0.100
726.12	0.100
726.32	0.100
726.51	0.100
726.70	0.100
726.90	0.100
727.09	0.099
727.28	0.099
727.48	0.100
727.67	0.099
727.86	0.099
728.06	0.099
728.25	0.099
728.44	0.099
728.64	0.099
728.83	0.099
729.02	0.099
729.21	0.099
729.41	0.099
729.60	0.098
729.79	0.099
729.99	0.098
730.18	0.099
730.37	0.098
730.56	0.098
730.76	0.098
730.95	0.099
731.14	0.099
731.34	0.098
731.53	0.099
731.72	0.099
731.91	0.099
732.11	0.099
732.30	0.099
732.49	0.099
732.69	0.099
732.88	0.099
733.07	0.099
733.26	0.100
733.46	0.099
733.65	0.099
733.84	0.099
734.03	0.099
734.23	0.099
734.42	0.099
734.61	0.099
734.80	0.099
735.00	0.099
735.19	0.099
735.38	0.099
735.57	0.099
735.77	0.099
735.96	0.099
736.15	0.099
736.34	0.099
736.54	0.099
736.73	0.099
736.92	0.099
737.11	0.099
737.31	0.099
737.50	0.099
737.69	0.099
737.88	0.099
738.07	0.099
738.27	0.099
738.46	0.099
738.65	0.099
738.84	0.099
739.04	0.099
739.23	0.100
739.42	0.100
739.61	0.100
739.80	0.099
740.00	0.099
740.19	0.099
740.38	0.099
740.57	0.099
740.76	0.099
740.96	0.099
741.15	0.099
741.34	0.099
741.53	0.099
741.72	0.099
741.92	0.099
742.11	0.099
742.30	0.099
742.49	0.099
742.68	0.099
742.88	0.099
743.07	0.098
743.26	0.099
743.45	0.099
743.64	0.098
743.84	0.097
744.03	0.098
744.22	0.098
744.41	0.097
744.60	0.097
744.79	0.097
744.99	0.097
745.18	0.097
745.37	0.097
745.56	0.097
745.75	0.097
745.94	0.097
746.14	0.097
746.33	0.097
746.52	0.097
746.71	0.097
746.90	0.096
747.09	0.096
747.28	0.096
747.48	0.097
747.67	0.096
747.86	0.096
748.05	0.096
748.24	0.096
748.43	0.096
748.62	0.096
748.82	0.096
749.01	0.096
749.20	0.096
749.39	0.096
749.58	0.096
749.77	0.096
749.96	0.096
750.16	0.097
750.35	0.097
750.54	0.096
750.73	0.096
750.92	0.096
751.11	0.096
751.30	0.096
751.49	0.096
751.68	0.096
751.88	0.095
752.07	0.095
752.26	0.095
752.45	0.094
752.64	0.094
752.83	0.094
753.02	0.094
753.21	0.094
753.40	0.094
753.60	0.095
753.79	0.094
753.98	0.094
754.17	0.094
754.36	0.094
754.55	0.094
754.74	0.094
754.93	0.094
755.12	0.094
755.31	0.094
755.50	0.094
755.70	0.094
755.89	0.093
756.08	0.094
756.27	0.093
756.46	0.094
756.65	0.094
756.84	0.094
757.03	0.094
757.22	0.093
757.41	0.094
757.60	0.093
757.79	0.094
757.98	0.094
758.17	0.094
758.36	0.094
758.56	0.093
758.75	0.093
758.94	0.093
759.13	0.093
759.32	0.093
759.51	0.093
759.70	0.093
759.89	0.093
760.08	0.093
760.27	0.092
760.46	0.093
760.65	0.093
760.84	0.093
761.03	0.093
761.22	0.093
761.41	0.093
761.60	0.093
761.79	0.093
761.98	0.093
762.17	0.093
762.36	0.092
762.55	0.092
762.74	0.092
762.93	0.091
763.12	0.091
763.31	0.091
763.50	0.091
763.69	0.091
763.88	0.091
764.07	0.090
764.26	0.091
764.45	0.091
764.64	0.091
764.83	0.091
765.02	0.091
765.21	0.091
765.40	0.091
765.59	0.091
765.78	0.091
765.97	0.091
766.16	0.091
766.35	0.091
766.54	0.091
766.73	0.091
766.92	0.091
767.11	0.091
767.30	0.091
767.49	0.091
767.68	0.091
767.87	0.090
768.06	0.090
768.25	0.090
768.44	0.090
768.63	0.090
768.82	0.090
769.01	0.090
769.20	0.090
769.39	0.090
769.58	0.090
769.77	0.090
769.96	0.090
770.15	0.090
770.34	0.090
770.53	0.090
770.72	0.089
770.91	0.089
771.10	0.089
771.29	0.089
771.47	0.089
771.66	0.089
771.85	0.090
772.04	0.090
772.23	0.090
772.42	0.089
772.61	0.090
772.80	0.090
772.99	0.090
773.18	0.089
773.37	0.089
773.56	0.089
773.75	0.089
773.94	0.089
774.13	0.089
774.31	0.089
774.50	0.089
774.69	0.089
774.88	0.089
775.07	0.089
775.26	0.089
775.45	0.089
775.64	0.089
775.83	0.088
776.02	0.088
776.21	0.088
776.40	0.088
776.58	0.088
776.77	0.088
776.96	0.088
777.15	0.088
777.34	0.088
777.53	0.088
777.72	0.088
777.91	0.088
778.10	0.088
778.28	0.087
778.47	0.088
778.66	0.087
778.85	0.087
779.04	0.087
779.23	0.087
779.42	0.086
779.61	0.086
779.79	0.086
779.98	0.086
780.17	0.086
780.36	0.086
780.55	0.086
780.74	0.086
780.93	0.086
781.12	0.086
781.30	0.086
781.49	0.086
781.68	0.086
781.87	0.087
782.06	0.087
782.25	0.086
782.44	0.087
782.62	0.087
782.81	0.087
783.00	0.087
783.19	0.087
783.38	0.087
783.57	0.087
783.75	0.087
783.94	0.087
784.13	0.087
784.32	0.086
784.51	0.086
784.70	0.086
784.88	0.086
785.07	0.086
785.26	0.086
785.45	0.086
785.64	0.085
785.83	0.086
786.01	0.085
786.20	0.085
786.39	0.086
786.58	0.085
786.77	0.085
786.95	0.085
787.14	0.086
787.33	0.086
787.52	0.086
787.71	0.086
787.90	0.085
788.08	0.085
788.27	0.085
788.46	0.085
788.65	0.085
788.84	0.085
789.02	0.085
789.21	0.084
789.40	0.085
789.59	0.084
789.77	0.085
789.96	0.084
790.15	0.085
790.34	0.085
790.53	0.085
790.71	0.085
790.90	0.085
791.09	0.085
791.28	0.085
791.46	0.085
791.65	0.085
791.84	0.085
792.03	0.085
792.22	0.085
792.40	0.084
792.59	0.084
792.78	0.084
792.97	0.084
793.15	0.084
793.34	0.084
793.53	0.084
793.72	0.084
793.90	0.084
794.09	0.084
794.28	0.084
794.47	0.085
794.65	0.084
794.84	0.084
795.03	0.084
795.22	0.084
795.40	0.084
795.59	0.083
795.78	0.084
795.97	0.084
796.15	0.084
796.34	0.084
796.53	0.084
796.71	0.084
796.90	0.084
797.09	0.085
797.28	0.085
797.46	0.085
797.65	0.085
797.84	0.085
798.02	0.084
798.21	0.084
798.40	0.084
798.59	0.083
798.77	0.083
798.96	0.083
799.15	0.083
799.33	0.083
799.52	0.082
799.71	0.083
799.90	0.083
800.08	0.083
800.27	0.083
800.46	0.083
800.64	0.083
800.83	0.083
801.02	0.083
801.20	0.083
801.39	0.082
801.58	0.082
801.76	0.082
801.95	0.082
802.14	0.082
802.32	0.082
802.51	0.082
802.70	0.082
802.88	0.082
803.07	0.082
803.26	0.082
803.44	0.082
803.63	0.082
803.82	0.082
804.00	0.082
804.19	0.082
804.38	0.082
804.56	0.082
804.75	0.082
804.94	0.082
805.12	0.082
805.31	0.082
805.50	0.082
805.68	0.082
805.87	0.082
806.06	0.082
806.24	0.082
806.43	0.082
806.62	0.082
806.80	0.082
806.99	0.082
807.17	0.082
807.36	0.083
807.55	0.082
807.73	0.082
807.92	0.082
808.11	0.083
808.29	0.082
808.48	0.082
808.66	0.082
808.85	0.082
809.04	0.082
809.22	0.082
809.41	0.082
809.59	0.082
809.78	0.082
809.97	0.082
810.15	0.082
810.34	0.082
810.53	0.082
810.71	0.081
810.90	0.082
811.08	0.082
811.27	0.081
811.45	0.082
811.64	0.081
811.83	0.081
812.01	0.082
812.20	0.081
812.38	0.082
812.57	0.082
812.76	0.082
812.94	0.082
813.13	0.082
813.31	0.082
813.50	0.082
813.68	0.082
813.87	0.081
814.06	0.082
814.24	0.081
814.43	0.081
814.61	0.081
814.80	0.081
814.98	0.082
815.17	0.081
815.36	0.081
815.54	0.081
815.73	0.081
815.91	0.081
816.10	0.081
816.28	0.081
816.47	0.081
816.65	0.082
816.84	0.082
817.03	0.082
817.21	0.082
817.40	0.082
817.58	0.082
817.77	0.082
817.95	0.082
818.14	0.082
818.32	0.081
818.51	0.082
818.69	0.082
818.88	0.082
819.06	0.082
819.25	0.082
819.43	0.082
819.62	0.082
819.80	0.082
819.99	0.083
820.18	0.083
820.36	0.082
820.55	0.083
820.73	0.082
820.92	0.082
821.10	0.082
821.29	0.082
821.47	0.082
821.66	0.082
821.84	0.082
822.03	0.082
822.21	0.081
822.40	0.081
822.58	0.082
822.77	0.081
822.95	0.082
823.14	0.082
823.32	0.082
823.50	0.082
823.69	0.082
823.87	0.082
824.06	0.083
824.24	0.083
824.43	0.083
824.61	0.082
824.80	0.082
824.98	0.083
825.17	0.083
825.35	0.083
825.54	0.083
825.72	0.083
825.91	0.083
826.09	0.083
826.28	0.083
826.46	0.084
826.64	0.084
826.83	0.084
827.01	0.084
827.20	0.084
827.38	0.084
827.57	0.084
827.75	0.084
827.94	0.084
828.12	0.084
828.31	0.084
828.49	0.084
828.67	0.085
828.86	0.085
829.04	0.084
829.23	0.084
829.41	0.084
829.60	0.085
829.78	0.085
829.96	0.085
830.15	0.086
830.33	0.086
830.52	0.086
830.70	0.086
830.88	0.086
831.07	0.086
831.25	0.086
831.44	0.086
831.62	0.086
831.81	0.086
831.99	0.086
832.17	0.086
832.36	0.086
832.54	0.086
832.73	0.087
832.91	0.087
833.09	0.086
833.28	0.086
833.46	0.087
833.65	0.087
833.83	0.087
834.01	0.087
834.20	0.087
834.38	0.087
834.56	0.087
834.75	0.087
834.93	0.087
835.12	0.088
835.30	0.088
835.48	0.088
835.67	0.088
835.85	0.088
836.03	0.088
836.22	0.087
836.40	0.088
836.59	0.088
836.77	0.087
836.95	0.088
837.14	0.087
837.32	0.087
837.50	0.087
837.69	0.087
837.87	0.087
838.05	0.087
838.24	0.087
838.42	0.087
838.60	0.087
838.79	0.088
838.97	0.088
839.15	0.088
839.34	0.088
839.52	0.088
839.70	0.088
839.89	0.088
840.07	0.088
840.25	0.089
840.44	0.088
840.62	0.088
840.80	0.088
840.99	0.088
841.17	0.088
841.35	0.088
841.54	0.088
841.72	0.088
841.90	0.088
842.09	0.088
842.27	0.088
842.45	0.088
842.64	0.088
842.82	0.089
843.00	0.089
843.19	0.089
843.37	0.088
843.55	0.089
843.73	0.089
843.92	0.089
844.10	0.089
844.28	0.089
844.47	0.089
844.65	0.089
844.83	0.089
845.01	0.089
845.20	0.089
845.38	0.089
845.56	0.089
845.75	0.089
845.93	0.089
846.11	0.089
846.29	0.089
846.48	0.089
846.66	0.089
846.84	0.089
847.02	0.089
847.21	0.089
847.39	0.089
847.57	0.089
847.76	0.089
847.94	0.089
848.12	0.089
848.30	0.089
848.49	0.089
848.67	0.090
848.85	0.090
849.03	0.090
849.22	0.090
849.40	0.090
849.58	0.090
849.76	0.090
849.95	0.090
850.13	0.091
850.31	0.090
850.49	0.091
850.67	0.091
850.86	0.091
851.04	0.090
851.22	0.090
851.40	0.090
851.59	0.090
851.77	0.090
851.95	0.090
852.13	0.090
852.31	0.090
852.50	0.090
852.68	0.090
852.86	0.090
853.04	0.090
853.23	0.090
853.41	0.090
853.59	0.090
853.77	0.090
853.95	0.090
854.14	0.090
854.32	0.090
854.50	0.090
854.68	0.090
854.86	0.090
855.04	0.090
855.23	0.090
855.41	0.090
855.59	0.090
855.77	0.090
855.95	0.090
856.14	0.090
856.32	0.090
856.50	0.090
856.68	0.090
856.86	0.091
857.04	0.090
857.23	0.090
857.41	0.090
857.59	0.090
857.77	0.090
857.95	0.090
858.13	0.090
858.32	0.090
858.50	0.091
858.68	0.090
858.86	0.090
859.04	0.090
859.22	0.090
859.41	0.090
859.59	0.090
859.77	0.090
859.95	0.090
860.13	0.091
860.31	0.091
860.49	0.090
860.68	0.090
860.86	0.090
861.04	0.090
861.22	0.090
861.40	0.091
861.58	0.090
861.76	0.090
861.94	0.090
862.13	0.091
862.31	0.091
862.49	0.091
862.67	0.091
862.85	0.091
863.03	0.091
863.21	0.092
863.39	0.091
863.57	0.092
863.76	0.092
863.94	0.092
864.12	0.092
864.30	0.091
864.48	0.091
864.66	0.092
864.84	0.092
865.02	0.092
865.20	0.091
865.38	0.091
865.57	0.091
865.75	0.091
865.93	0.092
866.11	0.092
866.29	0.092
866.47	0.092
866.65	0.092
866.83	0.092
867.01	0.092
867.19	0.092
867.37	0.092
867.55	0.092
867.73	0.092
867.92	0.092
868.10	0.092
868.28	0.092
868.46	0.092
868.64	0.092
868.82	0.092
869.00	0.093
869.18	0.093
869.36	0.093
869.54	0.093
869.72	0.093
869.90	0.093
870.08	0.093
870.26	0.093
870.44	0.093
870.62	0.093
870.80	0.093
870.98	0.093
871.16	0.092
871.34	0.092
871.53	0.092
871.71	0.092
871.89	0.092
872.07	0.092
872.25	0.091
872.43	0.091
872.61	0.092
872.79	0.092
872.97	0.092
873.15	0.093
873.33	0.093
873.51	0.094
873.69	0.094
873.87	0.094
874.05	0.094
874.23	0.094
874.41	0.094
874.59	0.095
874.77	0.094
874.95	0.094
875.13	0.093
875.31	0.093
875.49	0.093
875.67	0.093
875.85	0.093
876.03	0.094
876.21	0.094
876.39	0.094
876.57	0.094
876.75	0.094
876.93	0.094
877.11	0.094
877.29	0.094
877.47	0.094
877.65	0.094
877.82	0.095
878.00	0.094
878.18	0.095
878.36	0.094
878.54	0.094
878.72	0.095
878.90	0.095
879.08	0.095
879.26	0.095
879.44	0.095
879.62	0.095
879.80	0.095
879.98	0.095
880.16	0.094
880.34	0.094
880.52	0.095
880.70	0.094
880.88	0.094
881.06	0.095
881.24	0.094
881.42	0.094
881.59	0.094
881.77	0.094
881.95	0.094
882.13	0.094
882.31	0.095
882.49	0.094
882.67	0.095
882.85	0.094
883.03	0.095
883.21	0.095
883.39	0.095
883.57	0.095
883.75	0.095
883.92	0.095
884.10	0.095
884.28	0.095
884.46	0.095
884.64	0.095
884.82	0.095
885.00	0.095
885.18	0.095
885.36	0.095
885.54	0.095
885.71	0.095
885.89	0.096
886.07	0.096
886.25	0.096
886.43	0.096
886.61	0.096
886.79	0.096
886.97	0.096
887.15	0.096
887.32	0.096
887.50	0.097
887.68	0.096
887.86	0.096
888.04	0.096
888.22	0.096
888.40	0.096
888.57	0.096
888.75	0.096
888.93	0.097
889.11	0.096
889.29	0.096
889.47	0.097
889.65	0.097
889.82	0.097
890.00	0.097
890.18	0.097
890.36	0.097
890.54	0.097
890.72	0.097
890.90	0.097
891.07	0.098
891.25	0.097
891.43	0.097
891.61	0.098
891.79	0.098
891.97	0.098
892.14	0.097
892.32	0.097
892.50	0.097
892.68	0.098
892.86	0.097
893.03	0.097
893.21	0.098
893.39	0.098
893.57	0.098
893.75	0.098
893.93	0.098
894.10	0.098
894.28	0.098
894.46	0.098
894.64	0.098
894.82	0.098
894.99	0.098
895.17	0.098
895.35	0.098
895.53	0.098
895.71	0.098
895.88	0.098
896.06	0.098
896.24	0.098
896.42	0.098
896.59	0.098
896.77	0.098
896.95	0.098
897.13	0.098
897.31	0.098
897.48	0.098
897.66	0.099
897.84	0.098
898.02	0.098
898.19	0.098
898.37	0.098
898.55	0.098
898.73	0.099
898.91	0.099
899.08	0.099
899.26	0.099
899.44	0.099
899.62	0.099
899.79	0.099
899.97	0.100
900.15	0.099
900.33	0.099
900.50	0.099
900.68	0.099
900.86	0.099
901.04	0.099
901.21	0.099
901.39	0.099
901.57	0.099
901.74	0.099
901.92	0.100
902.10	0.100
902.28	0.100
902.45	0.100
902.63	0.100
902.81	0.100
902.99	0.101
903.16	0.101
903.34	0.101
903.52	0.101
903.69	0.100
903.87	0.100
904.05	0.100
904.22	0.100
904.40	0.101
904.58	0.101
904.76	0.101
904.93	0.101
905.11	0.101
905.29	0.101
905.46	0.101
905.64	0.101
905.82	0.102
905.99	0.101
906.17	0.101
906.35	0.102
906.53	0.102
906.70	0.102
906.88	0.102
907.06	0.102
907.23	0.102
907.41	0.102
907.59	0.102
907.76	0.102
907.94	0.102
908.12	0.102
908.29	0.102
908.47	0.103
908.65	0.103
908.82	0.102
909.00	0.102
909.18	0.103
909.35	0.102
909.53	0.102
909.71	0.102
909.88	0.103
910.06	0.102
910.23	0.102
910.41	0.103
910.59	0.102
910.76	0.102
910.94	0.102
911.12	0.103
911.29	0.103
911.47	0.103
911.65	0.103
911.82	0.103
912.00	0.104
912.17	0.104
912.35	0.104
912.53	0.104
912.70	0.104
912.88	0.104
913.06	0.105
913.23	0.105
913.41	0.105
913.58	0.106
913.76	0.105
913.94	0.106
914.11	0.106
914.29	0.105
914.46	0.105
914.64	0.106
914.82	0.106
914.99	0.106
915.17	0.105
915.34	0.105
915.52	0.105
915.70	0.105
915.87	0.105
916.05	0.106
916.22	0.106
916.40	0.106
916.57	0.106
916.75	0.106
916.93	0.106
917.10	0.106
917.28	0.107
917.45	0.107
917.63	0.107
917.80	0.107
917.98	0.107
918.16	0.107
918.33	0.108
918.51	0.108
918.68	0.107
918.86	0.108
919.03	0.108
919.21	0.108
919.39	0.108
919.56	0.109
919.74	0.109
919.91	0.109
920.09	0.109
920.26	0.109
920.44	0.109
920.61	0.110
920.79	0.110
920.96	0.110
921.14	0.110
921.31	0.111
921.49	0.111
921.67	0.111
921.84	0.111
922.02	0.111
922.19	0.112
922.37	0.112
922.54	0.112
922.72	0.113
922.89	0.113
923.07	0.113
923.24	0.113
923.42	0.113
923.59	0.113
923.77	0.114
923.94	0.114
924.12	0.114
924.29	0.114
924.47	0.115
924.64	0.115
924.82	0.115
924.99	0.116
925.17	0.116
925.34	0.117
925.52	0.117
925.69	0.117
925.87	0.118
926.04	0.118
926.22	0.118
926.39	0.119
926.57	0.119
926.74	0.119
926.91	0.119
927.09	0.120
927.26	0.119
927.44	0.120
927.61	0.120
927.79	0.120
927.96	0.121
928.14	0.121
928.31	0.122
928.49	0.122
928.66	0.122
928.84	0.123
929.01	0.124
929.18	0.125
929.36	0.125
929.53	0.125
929.71	0.125
929.88	0.126
930.06	0.126
930.23	0.127
930.41	0.127
930.58	0.127
930.75	0.127
930.93	0.128
931.10	0.128
931.28	0.128
931.45	0.129
931.63	0.129
931.80	0.130
931.97	0.130
932.15	0.131
932.32	0.131
932.50	0.131
932.67	0.132
932.84	0.133
933.02	0.134
933.19	0.134
933.37	0.134
933.54	0.135
933.71	0.135
933.89	0.136
934.06	0.136
934.24	0.137
934.41	0.137
934.58	0.137
934.76	0.137
934.93	0.138
935.11	0.138
935.28	0.138
935.45	0.139
935.63	0.140
935.80	0.140
935.98	0.141
936.15	0.140
936.32	0.141
936.50	0.142
936.67	0.142
936.84	0.142
937.02	0.144
937.19	0.145
937.36	0.145
937.54	0.145
937.71	0.147
937.89	0.147
938.06	0.148
938.23	0.148
938.41	0.149
938.58	0.149
938.75	0.149
938.93	0.150
939.10	0.150
939.27	0.151
939.45	0.152
939.62	0.152
939.79	0.153
939.97	0.153
940.14	0.154
940.31	0.154
940.49	0.155
940.66	0.155
940.83	0.156
941.01	0.156
941.18	0.157
941.35	0.158
941.53	0.158
941.70	0.159
941.87	0.159
942.05	0.160
942.22	0.161
942.39	0.162
942.57	0.162
942.74	0.163
942.91	0.163
943.08	0.163
943.26	0.164
943.43	0.165
943.60	0.165
943.78	0.165
943.95	0.166
944.12	0.167
944.29	0.168
944.47	0.168
944.64	0.169
944.81	0.170
944.99	0.171
945.16	0.171
945.33	0.171
945.50	0.173
945.68	0.174
945.85	0.174
946.02	0.176
946.20	0.176
946.37	0.178
946.54	0.178
946.71	0.179
946.89	0.180
947.06	0.181
947.23	0.181
947.40	0.183
947.58	0.183
947.75	0.184
947.92	0.185
948.09	0.185
948.27	0.187
948.44	0.188
948.61	0.189
948.78	0.190
948.96	0.192
949.13	0.192
949.30	0.193
949.47	0.194
949.65	0.195
949.82	0.197
949.99	0.197
950.16	0.199
950.33	0.200
950.51	0.201
950.68	0.203
950.85	0.204
951.02	0.205
951.20	0.206
951.37	0.208
951.54	0.208
951.71	0.209
951.88	0.211
952.06	0.212
952.23	0.212
952.40	0.214
952.57	0.216
952.74	0.217
952.92	0.218
953.09	0.219
953.26	0.221
953.43	0.221
953.60	0.223
953.77	0.223
953.95	0.224
954.12	0.226
954.29	0.227
954.46	0.229
954.63	0.230
954.81	0.231
954.98	0.232
955.15	0.234
955.32	0.236
955.49	0.235
955.66	0.237
955.84	0.238
956.01	0.238
956.18	0.241
956.35	0.242
956.52	0.242
956.69	0.245
956.87	0.245
957.04	0.246
957.21	0.248
957.38	0.248
957.55	0.249
957.72	0.251
957.89	0.252
958.07	0.252
958.24	0.254
958.41	0.255
958.58	0.255
958.75	0.256
958.92	0.257
959.09	0.257
959.26	0.258
959.44	0.259
959.61	0.260
959.78	0.261
959.95	0.262
960.12	0.262
960.29	0.264
960.46	0.263
960.63	0.264
960.81	0.264
960.98	0.265
961.15	0.265
961.32	0.266
961.49	0.265
961.66	0.267
961.83	0.267
962.00	0.267
962.17	0.268
962.34	0.268
962.52	0.269
962.69	0.270
962.86	0.269
963.03	0.269
963.20	0.270
963.37	0.269
963.54	0.270
963.71	0.270
963.88	0.269
964.05	0.270
964.22	0.272
964.39	0.271
964.56	0.270
964.74	0.272
964.91	0.271
965.08	0.271
965.25	0.272
965.42	0.272
965.59	0.273
965.76	0.273
965.93	0.274
966.10	0.272
966.27	0.273
966.44	0.273
966.61	0.274
966.78	0.273
966.95	0.273
967.12	0.274
967.29	0.276
967.46	0.275
967.63	0.274
967.80	0.275
967.97	0.275
968.14	0.275
968.32	0.276
968.49	0.276
968.66	0.276
968.83	0.276
969.00	0.277
969.17	0.277
969.34	0.278
969.51	0.279
969.68	0.277
969.85	0.278
970.02	0.278
970.19	0.278
970.36	0.279
970.53	0.279
970.70	0.277
970.87	0.277
971.04	0.276
971.21	0.277
971.38	0.277
971.55	0.277
971.72	0.277
971.89	0.278
972.06	0.278
972.23	0.277
972.40	0.277
972.57	0.276
972.74	0.276
972.91	0.278
973.07	0.278
973.24	0.277
973.41	0.278
973.58	0.276
973.75	0.290
973.92	0.277
974.09	0.276
974.26	0.276
974.43	0.276
974.60	0.277
974.77	0.277
974.94	0.276
975.11	0.277
975.28	0.278
975.45	0.276
975.62	0.277
975.79	0.278
975.96	0.276
976.13	0.275
976.30	0.277
976.47	0.275
976.64	0.276
976.80	0.276
976.97	0.276
977.14	0.276
977.31	0.276
977.48	0.276
977.65	0.276
977.82	0.275
977.99	0.277
978.16	0.277
978.33	0.276
978.50	0.275
978.67	0.275
978.83	0.275
979.00	0.275
979.17	0.275
979.34	0.274
979.51	0.274
979.68	0.274
979.85	0.272
980.02	0.273
980.19	0.271
980.36	0.273
980.52	0.274
980.69	0.272
980.86	0.273
981.03	0.272
981.20	0.271
981.37	0.272
981.54	0.273
981.71	0.272
981.88	0.272
982.04	0.272
982.21	0.271
982.38	0.273
982.55	0.271
982.72	0.270
982.89	0.272
983.06	0.271
983.22	0.270
983.39	0.271
983.56	0.270
983.73	0.269
983.90	0.268
984.07	0.270
984.24	0.269
984.40	0.268
984.57	0.267
984.74	0.269
984.91	0.269
985.08	0.267
985.25	0.265
985.41	0.266
985.58	0.266
985.75	0.267
985.92	0.266
986.09	0.265
986.26	0.265
986.42	0.264
986.59	0.263
986.76	0.265
986.93	0.265
987.10	0.265
987.27	0.262
987.43	0.261
987.60	0.263
987.77	0.262
987.94	0.260
988.11	0.261
988.27	0.262
988.44	0.261
988.61	0.260
988.78	0.258
988.95	0.259
989.11	0.261
989.28	0.258
989.45	0.257
989.62	0.257
989.79	0.258
989.95	0.257
990.12	0.258
990.29	0.259
990.46	0.256
990.62	0.255
990.79	0.256
990.96	0.256
991.13	0.257
991.30	0.255
991.46	0.254
991.63	0.252
991.80	0.252
991.97	0.252
992.13	0.252
992.30	0.253
992.47	0.251
992.64	0.251
992.80	0.251
992.97	0.251
993.14	0.248
993.31	0.246
993.47	0.249
993.64	0.247
993.81	0.247
993.98	0.247
994.14	0.245
994.31	0.245
994.48	0.246
994.64	0.246
994.81	0.245
994.98	0.245
995.15	0.243
995.31	0.244
995.48	0.244
995.65	0.246
995.82	0.243
995.98	0.243
996.15	0.243
996.32	0.245
996.48	0.244
996.65	0.243
996.82	0.240
996.99	0.241
997.15	0.240
997.32	0.241
997.49	0.239
997.65	0.240
997.82	0.240
997.99	0.238
998.15	0.238
998.32	0.239
998.49	0.238
998.65	0.238
998.82	0.237
998.99	0.235
999.15	0.236
999.32	0.235
999.49	0.234
999.65	0.234
999.82	0.232
999.99	0.232
1000.15	0.233
1000.32	0.233
1000.49	0.234
1000.65	0.232
1000.82	0.232
1000.99	0.232
1001.15	0.232
1001.32	0.231
1001.49	0.233
1001.65	0.232
1001.82	0.234
1001.99	0.231
1002.15	0.229
1002.32	0.229
1002.49	0.230
1002.65	0.228
1002.82	0.226
1002.99	0.226
1003.15	0.229
1003.32	0.227
1003.48	0.227
1003.65	0.227
1003.82	0.225
1003.98	0.222
1004.15	0.222
1004.32	0.223
1004.48	0.223
1004.65	0.224
1004.81	0.221
1004.98	0.219
1005.15	0.220
1005.31	0.220
1005.48	0.218
1005.64	0.218
1005.81	0.222
1005.98	0.219
1006.14	0.218
1006.31	0.218
1006.47	0.217
1006.64	0.216
1006.81	0.216
1006.97	0.216
1007.14	0.215
1007.30	0.216
1007.47	0.217
1007.63	0.213
1007.80	0.211
1007.97	0.211
1008.13	0.211
1008.30	0.211
1008.46	0.211
1008.63	0.209
1008.79	0.210
1008.96	0.210
1009.13	0.211
1009.29	0.208
1009.46	0.209
1009.62	0.209
1009.79	0.207
1009.95	0.208
1010.12	0.209
1010.28	0.209
1010.45	0.208
1010.62	0.208
1010.78	0.207
1010.95	0.206
1011.11	0.206
1011.28	0.205
1011.44	0.207
1011.61	0.204
1011.77	0.203
1011.94	0.202
1012.10	0.202
1012.27	0.202
1012.43	0.202
1012.60	0.200
1012.76	0.200
1012.93	0.200
1013.10	0.199
1013.26	0.196
1013.43	0.198
1013.59	0.207
1013.76	0.198
1013.92	0.197
1014.09	0.196
1014.25	0.197
1014.42	0.197
1014.58	0.197
1014.75	0.199
1014.91	0.197
1015.08	0.199
1015.24	0.195
1015.41	0.196
1015.57	0.196
1015.73	0.194
1015.90	0.192
1016.06	0.195
1016.23	0.192
1016.39	0.194
1016.56	0.194
1016.72	0.193
1016.89	0.194
1017.05	0.197
1017.22	0.194
1017.38	0.194
1017.55	0.192
1017.71	0.194
1017.88	0.193
1018.04	0.193
1018.21	0.190
1018.37	0.190
1018.53	0.189
1018.70	0.187
1018.86	0.186
1019.03	0.187
1019.19	0.185
1019.36	0.185
1019.52	0.187
1019.69	0.187
1019.85	0.185
1020.01	0.185
1020.18	0.183
1020.34	0.185
1020.51	0.184
1020.67	0.185
1020.84	0.183
1021.00	0.184
1021.16	0.182
1021.33	0.182
1021.49	0.181
1021.66	0.182
1021.82	0.179
1021.98	0.180
1022.15	0.179
1022.31	0.178
1022.48	0.177
1022.64	0.180
1022.80	0.178
1022.97	0.176
1023.13	0.177
1023.30	0.177
1023.46	0.178
1023.62	0.176
1023.79	0.177
1023.95	0.178
1024.12	0.177
1024.28	0.175
1024.44	0.175
1024.61	0.174
1024.77	0.174
1024.93	0.173
1025.10	0.175
1025.26	0.173
1025.43	0.174
1025.59	0.170
1025.75	0.174
1025.92	0.173
1026.08	0.171
1026.24	0.172
1026.41	0.173
1026.57	0.172
1026.73	0.170
1026.90	0.172
1027.06	0.171
1027.23	0.172
1027.39	0.172
1027.55	0.172
1027.72	0.170
1027.88	0.171
1028.04	0.171
1028.21	0.170
1028.37	0.163
1028.53	0.168
1028.70	0.167
1028.86	0.165
1029.02	0.166
1029.19	0.166
1029.35	0.164
1029.51	0.165
1029.67	0.163
1029.84	0.165
1030.00	0.161
1030.16	0.162
1030.33	0.165
1030.49	0.162
1030.65	0.159
1030.82	0.176
1030.98	0.161
1031.14	0.161
1031.31	0.161
1031.47	0.159
1031.63	0.162
1031.79	0.160
1031.96	0.160
1032.12	0.162
1032.28	0.158
1032.45	0.163
1032.61	0.161
1032.77	0.160
1032.93	0.158
1033.10	0.158
1033.26	0.161
1033.42	0.159
1033.58	0.160
1033.75	0.161
1033.91	0.159
1034.07	0.162
1034.24	0.159
1034.40	0.158
1034.56	0.157
1034.72	0.157
1034.89	0.157
1035.05	0.154
1035.21	0.154
1035.37	0.153
1035.54	0.155
1035.70	0.152
1035.86	0.152
1036.02	0.154
1036.19	0.151
1036.35	0.150
1036.51	0.156
1036.67	0.154
1036.83	0.154
1037.00	0.153
1037.16	0.153
1037.32	0.155
1037.48	0.155
1037.65	0.160
1037.81	0.155
1037.97	0.155
1038.13	0.154
1038.29	0.151
1038.46	0.147
1038.62	0.151
1038.78	0.150
1038.94	0.146
1039.10	0.150
1039.27	0.146
1039.43	0.148
1039.59	0.148
1039.75	0.148
1039.91	0.147
1040.08	0.147
1040.24	0.150
1040.40	0.152
1040.56	0.150
1040.72	0.144
1040.89	0.147
1041.05	0.149
1041.21	0.147
1041.37	0.144
1041.53	0.150
1041.69	0.147
1041.86	0.146
1042.02	0.142
1042.18	0.142
1042.34	0.143
1042.50	0.147
1042.66	0.143
1042.83	0.142
1042.99	0.145
1043.15	0.140
1043.31	0.140
1043.47	0.145
1043.63	0.141
1043.79	0.142
1043.96	0.143
1044.12	0.148
1044.28	0.144
1044.44	0.146
1044.60	0.142
1044.76	0.140
1044.92	0.144
1045.09	0.147
1045.25	0.145
1045.41	0.146
1045.57	0.141
1045.73	0.140
1045.89	0.141
1046.05	0.142
1046.21	0.140
1046.38	0.144
1046.54	0.139
1046.70	0.141
1046.86	0.131
>>>>>End Processed Spectral Data<<<<<
