SpectraSuite Data File
++++++++++++++++++++++++++++++++++++
Date: Mon May 20 12:13:27 CDT 2013
User: Students
Dark Spectrum Present: Yes
Reference Spectrum Present: Yes
Number of Sampled Component Spectra: 1
Spectrometers: USB4H00887
Integration Time (usec): 60000 (USB4H00887)
Spectra Averaged: 5 (USB4H00887)
Boxcar Smoothing: 5 (USB4H00887)
Correct for Electrical Dark: No (USB4H00887)
Strobe/Lamp Enabled: No (USB4H00887)
Correct for Detector Non-linearity: No (USB4H00887)
Correct for Stray Light: No (USB4H00887)
Number of Pixels in Processed Spectrum: 3648
>>>>>Begin Processed Spectral Data<<<<<
345.83	0.062
346.05	0.062
346.26	0.062
346.48	-0.000
346.70	0.342
346.92	-0.003
347.14	0.005
347.35	0.023
347.57	0.191
347.79	-0.217
348.01	-0.177
348.23	-0.328
348.44	-0.000
348.66	0.389
348.88	-0.455
349.10	-0.285
349.32	0.129
349.53	-0.058
349.75	-0.049
349.97	-0.017
350.19	-0.000
350.41	0.017
350.62	-0.113
350.84	0.019
351.06	0.030
351.28	0.016
351.50	0.024
351.71	0.087
351.93	0.038
352.15	0.010
352.37	0.111
352.58	0.053
352.80	0.053
353.02	0.076
353.24	0.076
353.46	0.260
353.67	-0.155
353.89	0.051
354.11	0.046
354.33	0.071
354.54	0.126
354.76	0.178
354.98	0.215
355.20	0.219
355.41	0.090
355.63	0.224
355.85	0.121
356.07	-0.000
356.28	0.105
356.50	0.171
356.72	0.059
356.94	0.113
357.15	0.193
357.37	-0.000
357.59	0.100
357.81	0.070
358.02	0.117
358.24	0.081
358.46	0.201
358.68	0.180
358.89	0.128
359.11	-0.000
359.33	0.128
359.55	-0.644
359.76	0.161
359.98	0.178
360.20	0.188
360.42	0.161
360.63	0.169
360.85	0.115
361.07	0.962
361.29	0.096
361.50	0.251
361.72	0.119
361.94	0.548
362.15	0.205
362.37	0.123
362.59	0.119
362.81	0.175
363.02	0.287
363.24	0.554
363.46	0.246
363.68	0.321
363.89	0.190
364.11	0.245
364.33	0.303
364.54	0.202
364.76	0.260
364.98	0.274
365.20	0.314
365.41	0.187
365.63	0.191
365.85	0.144
366.06	0.447
366.28	0.516
366.50	0.251
366.71	0.100
366.93	0.086
367.15	0.070
367.37	0.083
367.58	0.104
367.80	0.147
368.02	0.437
368.23	0.139
368.45	0.153
368.67	0.117
368.88	0.132
369.10	-0.000
369.32	0.168
369.53	0.096
369.75	0.137
369.97	0.426
370.19	0.218
370.40	0.095
370.62	0.292
370.84	0.094
371.05	0.457
371.27	0.139
371.49	0.147
371.70	0.218
371.92	0.355
372.14	0.128
372.35	0.124
372.57	0.154
372.79	0.388
373.00	0.098
373.22	0.169
373.44	0.166
373.65	0.112
373.87	0.153
374.09	0.495
374.30	0.131
374.52	0.150
374.74	0.109
374.95	0.450
375.17	0.118
375.39	-0.000
375.60	0.129
375.82	0.261
376.04	0.129
376.25	0.149
376.47	0.099
376.68	0.255
376.90	0.155
377.12	0.371
377.33	0.183
377.55	0.461
377.77	0.209
377.98	0.284
378.20	0.157
378.42	0.180
378.63	0.214
378.85	-0.000
379.07	0.112
379.28	0.338
379.50	0.217
379.71	0.112
379.93	0.078
380.15	0.104
380.36	0.156
380.58	0.098
380.80	0.247
381.01	0.091
381.23	0.082
381.44	0.093
381.66	0.129
381.88	0.151
382.09	-0.072
382.31	0.112
382.53	0.126
382.74	0.750
382.96	0.187
383.17	0.152
383.39	0.223
383.61	0.284
383.82	0.206
384.04	0.222
384.25	0.284
384.47	0.273
384.69	0.265
384.90	0.250
385.12	0.484
385.33	0.318
385.55	0.247
385.77	0.356
385.98	0.191
386.20	0.262
386.41	0.222
386.63	0.234
386.85	0.204
387.06	0.262
387.28	0.403
387.49	0.257
387.71	0.183
387.93	0.164
388.14	0.542
388.36	0.210
388.57	0.204
388.79	0.232
389.01	-0.000
389.22	0.331
389.44	0.267
389.65	0.226
389.87	0.228
390.08	0.273
390.30	0.202
390.52	0.404
390.73	0.419
390.95	0.256
391.16	0.252
391.38	-0.000
391.59	0.271
391.81	0.231
392.03	0.216
392.24	0.243
392.46	0.214
392.67	0.206
392.89	0.274
393.10	0.413
393.32	0.275
393.53	0.318
393.75	0.200
393.97	0.228
394.18	0.312
394.40	0.274
394.61	0.306
394.83	0.257
395.04	0.297
395.26	0.195
395.47	0.289
395.69	0.260
395.91	0.284
396.12	0.359
396.34	0.344
396.55	0.217
396.77	0.325
396.98	2.083
397.20	0.400
397.41	0.441
397.63	0.309
397.84	0.291
398.06	0.261
398.27	0.263
398.49	0.283
398.71	0.218
398.92	0.266
399.14	0.324
399.35	0.390
399.57	0.365
399.78	0.249
400.00	0.251
400.21	0.311
400.43	0.255
400.64	0.263
400.86	0.583
401.07	0.331
401.29	0.294
401.50	0.329
401.72	0.491
401.93	0.317
402.15	0.394
402.36	0.349
402.58	0.276
402.79	0.317
403.01	0.544
403.22	0.429
403.44	0.282
403.65	0.448
403.87	0.484
404.08	0.364
404.30	0.602
404.51	0.332
404.73	0.402
404.94	0.350
405.16	0.369
405.37	0.292
405.59	0.532
405.80	0.326
406.02	0.410
406.23	0.409
406.45	0.462
406.66	0.489
406.88	0.316
407.09	0.499
407.31	0.404
407.52	0.483
407.74	0.388
407.95	0.464
408.17	0.441
408.38	0.458
408.60	0.301
408.81	0.514
409.03	0.376
409.24	0.374
409.45	0.443
409.67	0.416
409.88	0.377
410.10	0.477
410.31	0.390
410.53	0.372
410.74	0.537
410.96	0.515
411.17	0.564
411.39	0.432
411.60	0.400
411.82	0.459
412.03	0.446
412.24	0.420
412.46	0.611
412.67	0.494
412.89	0.490
413.10	0.486
413.32	0.442
413.53	0.510
413.75	0.510
413.96	0.384
414.17	0.508
414.39	0.521
414.60	0.432
414.82	0.588
415.03	0.453
415.25	0.490
415.46	0.332
415.68	0.467
415.89	0.831
416.10	0.698
416.32	0.371
416.53	0.440
416.75	0.412
416.96	0.493
417.18	0.417
417.39	0.398
417.60	0.406
417.82	0.602
418.03	0.532
418.25	0.450
418.46	0.459
418.67	0.434
418.89	0.471
419.10	0.494
419.32	0.676
419.53	0.623
419.75	0.519
419.96	0.456
420.17	0.558
420.39	0.530
420.60	0.542
420.82	0.679
421.03	0.536
421.24	0.439
421.46	0.477
421.67	0.515
421.89	0.449
422.10	0.489
422.31	0.488
422.53	0.695
422.74	0.494
422.96	0.397
423.17	0.444
423.38	0.528
423.60	0.453
423.81	0.564
424.03	0.491
424.24	0.544
424.45	0.538
424.67	0.529
424.88	0.467
425.09	0.510
425.31	0.473
425.52	0.498
425.74	0.569
425.95	0.629
426.16	0.488
426.38	0.559
426.59	0.506
426.80	0.581
427.02	0.616
427.23	0.489
427.45	0.645
427.66	0.628
427.87	0.484
428.09	0.516
428.30	0.566
428.51	0.554
428.73	0.613
428.94	0.547
429.15	0.532
429.37	0.509
429.58	0.531
429.79	0.492
430.01	0.593
430.22	0.592
430.44	0.608
430.65	0.539
430.86	0.588
431.08	0.570
431.29	0.522
431.50	0.622
431.72	0.825
431.93	0.670
432.14	0.501
432.36	0.547
432.57	0.562
432.78	0.577
433.00	0.536
433.21	0.528
433.42	0.661
433.64	0.575
433.85	0.645
434.06	0.529
434.28	0.559
434.49	0.577
434.70	0.594
434.92	0.602
435.13	0.640
435.34	0.644
435.56	0.608
435.77	0.599
435.98	0.772
436.20	0.646
436.41	0.559
436.62	0.553
436.83	0.626
437.05	0.705
437.26	0.625
437.47	0.567
437.69	0.624
437.90	0.571
438.11	0.564
438.33	0.616
438.54	0.637
438.75	0.815
438.97	0.791
439.18	0.586
439.39	0.615
439.60	0.669
439.82	0.620
440.03	0.580
440.24	0.856
440.46	0.642
440.67	0.619
440.88	0.674
441.10	0.626
441.31	0.624
441.52	0.690
441.73	0.782
441.95	0.672
442.16	0.626
442.37	0.991
442.58	0.606
442.80	0.585
443.01	0.764
443.22	0.693
443.44	0.592
443.65	0.701
443.86	0.696
444.07	0.741
444.29	0.653
444.50	0.824
444.71	0.622
444.92	0.582
445.14	0.745
445.35	0.795
445.56	0.619
445.78	0.725
445.99	0.726
446.20	0.624
446.41	0.699
446.63	0.700
446.84	0.663
447.05	0.672
447.26	0.807
447.48	0.689
447.69	0.646
447.90	0.741
448.11	0.656
448.33	0.683
448.54	0.701
448.75	0.740
448.96	0.741
449.18	0.782
449.39	0.692
449.60	0.672
449.81	0.798
450.03	0.697
450.24	0.754
450.45	0.715
450.66	0.697
450.87	0.734
451.09	0.685
451.30	0.669
451.51	0.744
451.72	0.753
451.94	0.780
452.15	0.860
452.36	0.706
452.57	0.725
452.78	0.721
453.00	0.758
453.21	0.708
453.42	0.682
453.63	0.782
453.85	0.749
454.06	0.747
454.27	0.873
454.48	0.774
454.69	0.703
454.91	0.768
455.12	0.665
455.33	0.746
455.54	0.763
455.75	0.731
455.97	0.751
456.18	0.741
456.39	0.740
456.60	0.764
456.81	0.704
457.03	0.716
457.24	0.722
457.45	0.813
457.66	0.761
457.87	0.724
458.09	0.751
458.30	0.665
458.51	0.789
458.72	0.813
458.93	0.827
459.15	0.726
459.36	0.791
459.57	0.810
459.78	0.859
459.99	0.757
460.20	0.716
460.42	0.791
460.63	0.751
460.84	0.733
461.05	0.758
461.26	0.819
461.47	0.737
461.69	0.785
461.90	0.821
462.11	0.786
462.32	0.852
462.53	0.787
462.74	0.884
462.96	0.764
463.17	0.753
463.38	0.794
463.59	0.907
463.80	0.755
464.01	0.783
464.23	0.874
464.44	0.830
464.65	0.837
464.86	0.868
465.07	0.877
465.28	0.839
465.49	0.867
465.71	0.815
465.92	0.852
466.13	0.900
466.34	0.824
466.55	0.876
466.76	0.831
466.97	0.851
467.19	0.835
467.40	0.867
467.61	0.868
467.82	0.785
468.03	0.767
468.24	0.831
468.45	0.866
468.66	0.855
468.88	0.865
469.09	0.867
469.30	0.915
469.51	0.841
469.72	0.884
469.93	0.852
470.14	0.831
470.35	0.926
470.57	0.883
470.78	0.823
470.99	0.946
471.20	0.883
471.41	0.844
471.62	0.893
471.83	0.865
472.04	0.895
472.25	0.936
472.47	0.860
472.68	0.862
472.89	0.865
473.10	0.903
473.31	0.857
473.52	0.920
473.73	0.937
473.94	0.862
474.15	0.888
474.36	0.887
474.57	0.918
474.79	0.886
475.00	0.886
475.21	0.869
475.42	0.961
475.63	0.866
475.84	0.895
476.05	0.905
476.26	0.875
476.47	0.907
476.68	0.953
476.89	0.882
477.10	0.936
477.32	0.925
477.53	0.987
477.74	0.904
477.95	0.946
478.16	0.895
478.37	0.936
478.58	0.942
478.79	0.958
479.00	0.961
479.21	0.918
479.42	0.958
479.63	0.959
479.84	0.918
480.05	0.919
480.26	0.950
480.47	0.970
480.69	0.974
480.90	0.937
481.11	0.932
481.32	0.990
481.53	0.929
481.74	0.982
481.95	0.948
482.16	0.967
482.37	0.973
482.58	0.938
482.79	0.954
483.00	0.985
483.21	0.931
483.42	0.904
483.63	0.984
483.84	1.009
484.05	0.999
484.26	0.968
484.47	0.968
484.68	0.929
484.89	0.936
485.10	0.986
485.31	0.963
485.52	0.969
485.73	0.970
485.94	1.008
486.15	0.958
486.37	0.972
486.58	0.939
486.79	0.950
487.00	1.000
487.21	0.987
487.42	0.981
487.63	0.984
487.84	1.002
488.05	0.998
488.26	0.960
488.47	0.965
488.68	0.997
488.89	0.973
489.10	0.968
489.31	0.976
489.52	1.009
489.73	0.975
489.94	1.014
490.15	0.969
490.36	1.009
490.57	0.957
490.78	0.941
490.99	0.979
491.20	1.053
491.41	1.008
491.62	0.954
491.83	0.984
492.04	0.981
492.25	0.985
492.45	0.988
492.66	1.011
492.87	1.002
493.08	0.990
493.29	0.972
493.50	0.963
493.71	0.972
493.92	0.970
494.13	0.987
494.34	1.008
494.55	1.016
494.76	1.046
494.97	1.039
495.18	1.005
495.39	1.023
495.60	0.975
495.81	0.975
496.02	0.998
496.23	0.993
496.44	1.026
496.65	1.015
496.86	1.019
497.07	1.042
497.28	1.038
497.49	0.985
497.70	0.984
497.91	1.004
498.12	0.987
498.32	1.026
498.53	1.008
498.74	0.998
498.95	1.022
499.16	0.977
499.37	0.982
499.58	0.992
499.79	1.024
500.00	1.021
500.21	1.047
500.42	0.991
500.63	0.993
500.84	1.012
501.05	0.990
501.26	1.017
501.46	1.058
501.67	1.021
501.88	1.022
502.09	0.996
502.30	1.006
502.51	1.059
502.72	1.016
502.93	1.032
503.14	1.054
503.35	1.025
503.56	1.021
503.77	1.051
503.97	1.024
504.18	1.024
504.39	1.060
504.60	1.027
504.81	1.051
505.02	1.040
505.23	1.040
505.44	1.023
505.65	1.030
505.86	1.010
506.07	1.076
506.27	1.036
506.48	1.043
506.69	1.028
506.90	1.049
507.11	1.047
507.32	1.022
507.53	1.031
507.74	1.023
507.95	1.034
508.15	1.040
508.36	1.044
508.57	1.054
508.78	1.032
508.99	1.032
509.20	1.006
509.41	1.032
509.62	1.021
509.82	1.019
510.03	1.029
510.24	1.033
510.45	1.055
510.66	1.046
510.87	1.044
511.08	1.004
511.29	1.042
511.49	1.019
511.70	1.062
511.91	0.997
512.12	0.994
512.33	1.025
512.54	1.037
512.75	1.020
512.95	1.047
513.16	1.039
513.37	1.019
513.58	1.055
513.79	1.021
514.00	1.029
514.20	1.045
514.41	1.033
514.62	1.003
514.83	1.044
515.04	1.037
515.25	1.016
515.46	1.027
515.66	1.031
515.87	1.044
516.08	1.011
516.29	1.033
516.50	1.015
516.71	1.011
516.91	1.022
517.12	1.039
517.33	1.023
517.54	1.010
517.75	1.014
517.95	1.026
518.16	1.038
518.37	1.005
518.58	1.011
518.79	0.987
519.00	1.016
519.20	1.025
519.41	0.997
519.62	1.017
519.83	1.027
520.04	0.990
520.24	0.987
520.45	0.996
520.66	1.021
520.87	0.983
521.08	0.979
521.28	0.984
521.49	1.000
521.70	0.972
521.91	0.985
522.12	0.965
522.32	0.987
522.53	0.969
522.74	0.958
522.95	0.968
523.16	0.969
523.36	0.980
523.57	0.959
523.78	0.953
523.99	0.957
524.20	0.952
524.40	0.965
524.61	0.973
524.82	0.947
525.03	0.953
525.23	0.953
525.44	0.939
525.65	0.937
525.86	0.961
526.06	0.932
526.27	0.934
526.48	0.942
526.69	0.923
526.90	0.926
527.10	0.961
527.31	0.916
527.52	0.909
527.73	0.901
527.93	0.910
528.14	0.917
528.35	0.909
528.56	0.910
528.76	0.903
528.97	0.893
529.18	0.885
529.39	0.885
529.59	0.888
529.80	0.918
530.01	0.893
530.22	0.893
530.42	0.862
530.63	0.879
530.84	0.856
531.05	0.870
531.25	0.873
531.46	0.866
531.67	0.846
531.88	0.865
532.08	0.858
532.29	0.852
532.50	0.843
532.70	0.836
532.91	0.827
533.12	0.830
533.33	0.854
533.53	0.824
533.74	0.823
533.95	0.828
534.15	0.818
534.36	0.818
534.57	0.800
534.78	0.803
534.98	0.814
535.19	0.784
535.40	0.784
535.60	0.803
535.81	0.783
536.02	0.786
536.23	0.776
536.43	0.778
536.64	0.767
536.85	0.775
537.05	0.783
537.26	0.760
537.47	0.764
537.67	0.754
537.88	0.748
538.09	0.755
538.30	0.745
538.50	0.736
538.71	0.746
538.92	0.733
539.12	0.729
539.33	0.724
539.54	0.724
539.74	0.728
539.95	0.718
540.16	0.716
540.36	0.707
540.57	0.707
540.78	0.701
540.98	0.700
541.19	0.698
541.40	0.686
541.60	0.697
541.81	0.693
542.02	0.692
542.22	0.683
542.43	0.678
542.64	0.673
542.84	0.673
543.05	0.663
543.26	0.664
543.46	0.667
543.67	0.664
543.88	0.660
544.08	0.648
544.29	0.643
544.50	0.644
544.70	0.644
544.91	0.636
545.12	0.637
545.32	0.633
545.53	0.635
545.74	0.624
545.94	0.621
546.15	0.619
546.35	0.616
546.56	0.613
546.77	0.610
546.97	0.609
547.18	0.601
547.39	0.602
547.59	0.600
547.80	0.596
548.01	0.600
548.21	0.596
548.42	0.588
548.62	0.588
548.83	0.584
549.04	0.580
549.24	0.572
549.45	0.570
549.65	0.567
549.86	0.563
550.07	0.562
550.27	0.560
550.48	0.568
550.69	0.554
550.89	0.554
551.10	0.551
551.30	0.549
551.51	0.549
551.72	0.539
551.92	0.541
552.13	0.540
552.33	0.541
552.54	0.535
552.75	0.527
552.95	0.529
553.16	0.523
553.36	0.521
553.57	0.520
553.78	0.518
553.98	0.518
554.19	0.509
554.39	0.506
554.60	0.510
554.80	0.509
555.01	0.502
555.22	0.503
555.42	0.500
555.63	0.494
555.83	0.497
556.04	0.490
556.25	0.492
556.45	0.484
556.66	0.482
556.86	0.485
557.07	0.483
557.27	0.482
557.48	0.477
557.68	0.475
557.89	0.476
558.10	0.473
558.30	0.469
558.51	0.467
558.71	0.464
558.92	0.459
559.12	0.460
559.33	0.463
559.54	0.458
559.74	0.454
559.95	0.452
560.15	0.451
560.36	0.449
560.56	0.444
560.77	0.445
560.97	0.444
561.18	0.439
561.38	0.439
561.59	0.441
561.79	0.437
562.00	0.435
562.21	0.431
562.41	0.430
562.62	0.429
562.82	0.427
563.03	0.423
563.23	0.423
563.44	0.423
563.64	0.420
563.85	0.421
564.05	0.414
564.26	0.414
564.46	0.413
564.67	0.414
564.87	0.410
565.08	0.407
565.28	0.407
565.49	0.407
565.69	0.404
565.90	0.401
566.10	0.403
566.31	0.396
566.51	0.398
566.72	0.399
566.92	0.392
567.13	0.392
567.33	0.391
567.54	0.390
567.74	0.389
567.95	0.385
568.15	0.386
568.36	0.386
568.56	0.384
568.77	0.379
568.97	0.377
569.18	0.377
569.38	0.375
569.59	0.375
569.79	0.372
570.00	0.370
570.20	0.369
570.41	0.367
570.61	0.365
570.82	0.367
571.02	0.363
571.23	0.365
571.43	0.360
571.64	0.359
571.84	0.358
572.05	0.356
572.25	0.355
572.45	0.352
572.66	0.349
572.86	0.348
573.07	0.346
573.27	0.347
573.48	0.346
573.68	0.342
573.89	0.342
574.09	0.343
574.30	0.341
574.50	0.340
574.70	0.340
574.91	0.338
575.11	0.338
575.32	0.337
575.52	0.333
575.73	0.333
575.93	0.333
576.14	0.332
576.34	0.330
576.54	0.329
576.75	0.327
576.95	0.327
577.16	0.325
577.36	0.324
577.57	0.323
577.77	0.321
577.97	0.318
578.18	0.319
578.38	0.316
578.59	0.314
578.79	0.313
579.00	0.313
579.20	0.312
579.40	0.311
579.61	0.310
579.81	0.309
580.02	0.307
580.22	0.307
580.42	0.306
580.63	0.306
580.83	0.305
581.04	0.303
581.24	0.302
581.45	0.300
581.65	0.300
581.85	0.299
582.06	0.296
582.26	0.296
582.47	0.294
582.67	0.294
582.87	0.293
583.08	0.291
583.28	0.291
583.48	0.289
583.69	0.286
583.89	0.287
584.10	0.288
584.30	0.285
584.50	0.284
584.71	0.283
584.91	0.283
585.12	0.281
585.32	0.282
585.52	0.279
585.73	0.278
585.93	0.277
586.13	0.277
586.34	0.275
586.54	0.275
586.75	0.273
586.95	0.272
587.15	0.271
587.36	0.270
587.56	0.269
587.76	0.268
587.97	0.267
588.17	0.266
588.37	0.265
588.58	0.265
588.78	0.263
588.98	0.263
589.19	0.262
589.39	0.260
589.60	0.261
589.80	0.258
590.00	0.258
590.21	0.257
590.41	0.256
590.61	0.255
590.82	0.255
591.02	0.254
591.22	0.253
591.43	0.253
591.63	0.251
591.83	0.251
592.04	0.250
592.24	0.251
592.44	0.249
592.65	0.248
592.85	0.247
593.05	0.247
593.26	0.246
593.46	0.245
593.66	0.245
593.86	0.244
594.07	0.243
594.27	0.242
594.47	0.242
594.68	0.240
594.88	0.241
595.08	0.240
595.29	0.240
595.49	0.238
595.69	0.237
595.90	0.236
596.10	0.236
596.30	0.236
596.50	0.234
596.71	0.234
596.91	0.233
597.11	0.232
597.32	0.232
597.52	0.232
597.72	0.232
597.93	0.231
598.13	0.229
598.33	0.230
598.53	0.228
598.74	0.228
598.94	0.227
599.14	0.226
599.35	0.227
599.55	0.226
599.75	0.225
599.95	0.224
600.16	0.224
600.36	0.223
600.56	0.223
600.76	0.222
600.97	0.221
601.17	0.220
601.37	0.220
601.58	0.219
601.78	0.219
601.98	0.218
602.18	0.216
602.39	0.217
602.59	0.217
602.79	0.215
602.99	0.215
603.20	0.214
603.40	0.214
603.60	0.214
603.80	0.213
604.01	0.213
604.21	0.212
604.41	0.212
604.61	0.211
604.82	0.211
605.02	0.211
605.22	0.210
605.42	0.209
605.62	0.209
605.83	0.208
606.03	0.207
606.23	0.207
606.43	0.207
606.64	0.207
606.84	0.206
607.04	0.205
607.24	0.205
607.45	0.206
607.65	0.204
607.85	0.205
608.05	0.203
608.25	0.203
608.46	0.203
608.66	0.203
608.86	0.202
609.06	0.201
609.26	0.199
609.47	0.200
609.67	0.198
609.87	0.199
610.07	0.198
610.28	0.197
610.48	0.197
610.68	0.197
610.88	0.195
611.08	0.196
611.29	0.195
611.49	0.195
611.69	0.195
611.89	0.194
612.09	0.194
612.29	0.194
612.50	0.193
612.70	0.193
612.90	0.192
613.10	0.192
613.30	0.191
613.51	0.191
613.71	0.190
613.91	0.195
614.11	0.190
614.31	0.189
614.51	0.189
614.72	0.188
614.92	0.187
615.12	0.187
615.32	0.187
615.52	0.187
615.72	0.187
615.93	0.187
616.13	0.186
616.33	0.186
616.53	0.185
616.73	0.186
616.93	0.185
617.14	0.186
617.34	0.185
617.54	0.186
617.74	0.186
617.94	0.184
618.14	0.184
618.34	0.183
618.55	0.183
618.75	0.183
618.95	0.183
619.15	0.183
619.35	0.181
619.55	0.180
619.75	0.181
619.96	0.180
620.16	0.181
620.36	0.180
620.56	0.180
620.76	0.180
620.96	0.179
621.16	0.179
621.36	0.179
621.57	0.179
621.77	0.179
621.97	0.177
622.17	0.177
622.37	0.177
622.57	0.177
622.77	0.176
622.97	0.175
623.18	0.175
623.38	0.175
623.58	0.175
623.78	0.174
623.98	0.174
624.18	0.174
624.38	0.173
624.58	0.173
624.78	0.174
624.98	0.174
625.19	0.174
625.39	0.174
625.59	0.173
625.79	0.173
625.99	0.173
626.19	0.172
626.39	0.172
626.59	0.172
626.79	0.172
626.99	0.172
627.19	0.172
627.40	0.172
627.60	0.171
627.80	0.171
628.00	0.171
628.20	0.170
628.40	0.170
628.60	0.170
628.80	0.169
629.00	0.169
629.20	0.168
629.40	0.168
629.60	0.167
629.80	0.167
630.00	0.167
630.20	0.167
630.41	0.166
630.61	0.166
630.81	0.166
631.01	0.166
631.21	0.166
631.41	0.166
631.61	0.166
631.81	0.166
632.01	0.165
632.21	0.165
632.41	0.163
632.61	0.163
632.81	0.163
633.01	0.164
633.21	0.163
633.41	0.163
633.61	0.162
633.81	0.162
634.01	0.161
634.21	0.162
634.41	0.161
634.61	0.161
634.81	0.161
635.01	0.161
635.22	0.161
635.42	0.160
635.62	0.161
635.82	0.161
636.02	0.160
636.22	0.160
636.42	0.159
636.62	0.160
636.82	0.160
637.02	0.159
637.22	0.159
637.42	0.159
637.62	0.158
637.82	0.158
638.02	0.157
638.22	0.157
638.42	0.157
638.62	0.156
638.82	0.156
639.02	0.156
639.22	0.156
639.42	0.155
639.62	0.155
639.82	0.155
640.02	0.155
640.22	0.155
640.42	0.155
640.62	0.154
640.82	0.154
641.02	0.154
641.22	0.154
641.42	0.153
641.61	0.153
641.81	0.154
642.01	0.154
642.21	0.153
642.41	0.153
642.61	0.153
642.81	0.152
643.01	0.152
643.21	0.152
643.41	0.152
643.61	0.152
643.81	0.151
644.01	0.150
644.21	0.149
644.41	0.150
644.61	0.150
644.81	0.150
645.01	0.150
645.21	0.149
645.41	0.150
645.61	0.150
645.81	0.149
646.01	0.149
646.21	0.150
646.40	0.149
646.60	0.149
646.80	0.149
647.00	0.148
647.20	0.148
647.40	0.148
647.60	0.147
647.80	0.147
648.00	0.147
648.20	0.146
648.40	0.146
648.60	0.146
648.80	0.145
649.00	0.145
649.20	0.145
649.39	0.145
649.59	0.145
649.79	0.145
649.99	0.144
650.19	0.144
650.39	0.144
650.59	0.144
650.79	0.144
650.99	0.144
651.19	0.143
651.39	0.143
651.58	0.142
651.78	0.142
651.98	0.141
652.18	0.142
652.38	0.141
652.58	0.141
652.78	0.141
652.98	0.140
653.18	0.141
653.38	0.141
653.57	0.141
653.77	0.141
653.97	0.141
654.17	0.141
654.37	0.140
654.57	0.140
654.77	0.140
654.97	0.140
655.16	0.140
655.36	0.139
655.56	0.139
655.76	0.138
655.96	0.139
656.16	0.138
656.36	0.138
656.56	0.137
656.75	0.137
656.95	0.137
657.15	0.137
657.35	0.137
657.55	0.136
657.75	0.136
657.95	0.136
658.14	0.136
658.34	0.136
658.54	0.136
658.74	0.135
658.94	0.135
659.14	0.135
659.34	0.134
659.53	0.134
659.73	0.134
659.93	0.133
660.13	0.133
660.33	0.133
660.53	0.133
660.72	0.133
660.92	0.133
661.12	0.132
661.32	0.132
661.52	0.132
661.72	0.131
661.91	0.131
662.11	0.131
662.31	0.130
662.51	0.130
662.71	0.130
662.90	0.129
663.10	0.129
663.30	0.129
663.50	0.129
663.70	0.128
663.90	0.128
664.09	0.128
664.29	0.128
664.49	0.128
664.69	0.128
664.89	0.128
665.08	0.128
665.28	0.127
665.48	0.128
665.68	0.127
665.88	0.127
666.07	0.127
666.27	0.127
666.47	0.127
666.67	0.127
666.87	0.127
667.06	0.126
667.26	0.126
667.46	0.125
667.66	0.126
667.85	0.125
668.05	0.125
668.25	0.125
668.45	0.125
668.65	0.124
668.84	0.124
669.04	0.124
669.24	0.124
669.44	0.123
669.63	0.123
669.83	0.123
670.03	0.122
670.23	0.122
670.42	0.122
670.62	0.121
670.82	0.121
671.02	0.121
671.22	0.120
671.41	0.120
671.61	0.121
671.81	0.121
672.01	0.121
672.20	0.120
672.40	0.120
672.60	0.120
672.80	0.120
672.99	0.120
673.19	0.120
673.39	0.120
673.58	0.120
673.78	0.119
673.98	0.119
674.18	0.119
674.37	0.118
674.57	0.118
674.77	0.118
674.97	0.118
675.16	0.117
675.36	0.116
675.56	0.116
675.75	0.116
675.95	0.115
676.15	0.115
676.35	0.115
676.54	0.115
676.74	0.115
676.94	0.115
677.13	0.114
677.33	0.114
677.53	0.115
677.73	0.115
677.92	0.114
678.12	0.114
678.32	0.114
678.51	0.113
678.71	0.113
678.91	0.113
679.11	0.112
679.30	0.113
679.50	0.112
679.70	0.112
679.89	0.112
680.09	0.112
680.29	0.112
680.48	0.112
680.68	0.111
680.88	0.111
681.07	0.112
681.27	0.111
681.47	0.111
681.66	0.111
681.86	0.111
682.06	0.111
682.25	0.111
682.45	0.111
682.65	0.111
682.84	0.110
683.04	0.110
683.24	0.109
683.43	0.110
683.63	0.109
683.83	0.109
684.02	0.109
684.22	0.109
684.42	0.109
684.61	0.108
684.81	0.108
685.01	0.108
685.20	0.107
685.40	0.108
685.60	0.108
685.79	0.107
685.99	0.107
686.19	0.107
686.38	0.107
686.58	0.107
686.77	0.107
686.97	0.107
687.17	0.107
687.36	0.107
687.56	0.106
687.76	0.106
687.95	0.106
688.15	0.106
688.34	0.106
688.54	0.105
688.74	0.104
688.93	0.104
689.13	0.104
689.33	0.104
689.52	0.104
689.72	0.104
689.91	0.104
690.11	0.103
690.31	0.103
690.50	0.103
690.70	0.104
690.89	0.103
691.09	0.103
691.29	0.103
691.48	0.102
691.68	0.102
691.87	0.102
692.07	0.102
692.27	0.101
692.46	0.102
692.66	0.101
692.85	0.101
693.05	0.101
693.25	0.101
693.44	0.100
693.64	0.100
693.83	0.100
694.03	0.100
694.22	0.100
694.42	0.100
694.62	0.100
694.81	0.100
695.01	0.100
695.20	0.100
695.40	0.099
695.59	0.099
695.79	0.099
695.99	0.099
696.18	0.099
696.38	0.099
696.57	0.099
696.77	0.098
696.96	0.099
697.16	0.098
697.36	0.098
697.55	0.098
697.75	0.098
697.94	0.098
698.14	0.098
698.33	0.098
698.53	0.097
698.72	0.097
698.92	0.097
699.11	0.097
699.31	0.097
699.51	0.097
699.70	0.097
699.90	0.097
700.09	0.097
700.29	0.096
700.48	0.096
700.68	0.096
700.87	0.096
701.07	0.096
701.26	0.096
701.46	0.095
701.65	0.095
701.85	0.095
702.04	0.095
702.24	0.095
702.43	0.095
702.63	0.094
702.82	0.094
703.02	0.094
703.21	0.094
703.41	0.093
703.60	0.093
703.80	0.093
703.99	0.093
704.19	0.093
704.38	0.092
704.58	0.092
704.77	0.092
704.97	0.092
705.16	0.092
705.36	0.092
705.55	0.092
705.75	0.092
705.94	0.092
706.14	0.092
706.33	0.092
706.53	0.093
706.72	0.093
706.92	0.092
707.11	0.092
707.31	0.092
707.50	0.092
707.70	0.092
707.89	0.092
708.09	0.092
708.28	0.091
708.48	0.092
708.67	0.091
708.86	0.091
709.06	0.091
709.25	0.091
709.45	0.091
709.64	0.091
709.84	0.091
710.03	0.091
710.23	0.091
710.42	0.090
710.62	0.090
710.81	0.090
711.00	0.090
711.20	0.090
711.39	0.090
711.59	0.090
711.78	0.090
711.98	0.090
712.17	0.090
712.37	0.089
712.56	0.089
712.75	0.090
712.95	0.090
713.14	0.090
713.34	0.090
713.53	0.090
713.73	0.090
713.92	0.090
714.11	0.090
714.31	0.090
714.50	0.090
714.70	0.090
714.89	0.090
715.08	0.090
715.28	0.090
715.47	0.090
715.67	0.090
715.86	0.089
716.06	0.089
716.25	0.089
716.44	0.089
716.64	0.089
716.83	0.089
717.03	0.088
717.22	0.088
717.41	0.088
717.61	0.087
717.80	0.088
717.99	0.088
718.19	0.088
718.38	0.088
718.58	0.088
718.77	0.087
718.96	0.087
719.16	0.087
719.35	0.087
719.55	0.087
719.74	0.087
719.93	0.087
720.13	0.086
720.32	0.086
720.51	0.086
720.71	0.086
720.90	0.087
721.10	0.087
721.29	0.086
721.48	0.086
721.68	0.086
721.87	0.086
722.06	0.086
722.26	0.087
722.45	0.087
722.64	0.087
722.84	0.087
723.03	0.087
723.22	0.087
723.42	0.087
723.61	0.087
723.80	0.087
724.00	0.088
724.19	0.087
724.38	0.087
724.58	0.087
724.77	0.087
724.96	0.087
725.16	0.087
725.35	0.087
725.54	0.087
725.74	0.086
725.93	0.086
726.12	0.086
726.32	0.086
726.51	0.086
726.70	0.086
726.90	0.086
727.09	0.086
727.28	0.086
727.48	0.086
727.67	0.086
727.86	0.086
728.06	0.086
728.25	0.086
728.44	0.086
728.64	0.086
728.83	0.086
729.02	0.086
729.21	0.086
729.41	0.086
729.60	0.086
729.79	0.086
729.99	0.086
730.18	0.086
730.37	0.086
730.56	0.086
730.76	0.086
730.95	0.086
731.14	0.086
731.34	0.086
731.53	0.086
731.72	0.086
731.91	0.086
732.11	0.086
732.30	0.086
732.49	0.086
732.69	0.087
732.88	0.087
733.07	0.087
733.26	0.087
733.46	0.087
733.65	0.087
733.84	0.087
734.03	0.087
734.23	0.087
734.42	0.087
734.61	0.087
734.80	0.087
735.00	0.087
735.19	0.086
735.38	0.087
735.57	0.087
735.77	0.087
735.96	0.087
736.15	0.087
736.34	0.087
736.54	0.088
736.73	0.087
736.92	0.087
737.11	0.087
737.31	0.087
737.50	0.087
737.69	0.087
737.88	0.087
738.07	0.087
738.27	0.086
738.46	0.087
738.65	0.086
738.84	0.087
739.04	0.087
739.23	0.087
739.42	0.087
739.61	0.087
739.80	0.087
740.00	0.087
740.19	0.087
740.38	0.087
740.57	0.087
740.76	0.086
740.96	0.086
741.15	0.086
741.34	0.086
741.53	0.086
741.72	0.086
741.92	0.086
742.11	0.086
742.30	0.086
742.49	0.086
742.68	0.086
742.88	0.086
743.07	0.085
743.26	0.085
743.45	0.085
743.64	0.084
743.84	0.084
744.03	0.084
744.22	0.085
744.41	0.085
744.60	0.084
744.79	0.084
744.99	0.084
745.18	0.084
745.37	0.084
745.56	0.084
745.75	0.084
745.94	0.084
746.14	0.084
746.33	0.084
746.52	0.084
746.71	0.084
746.90	0.084
747.09	0.084
747.28	0.084
747.48	0.084
747.67	0.084
747.86	0.084
748.05	0.084
748.24	0.084
748.43	0.084
748.62	0.084
748.82	0.083
749.01	0.084
749.20	0.084
749.39	0.083
749.58	0.083
749.77	0.083
749.96	0.083
750.16	0.083
750.35	0.083
750.54	0.082
750.73	0.082
750.92	0.082
751.11	0.082
751.30	0.082
751.49	0.082
751.68	0.082
751.88	0.083
752.07	0.082
752.26	0.083
752.45	0.083
752.64	0.082
752.83	0.083
753.02	0.082
753.21	0.082
753.40	0.082
753.60	0.082
753.79	0.082
753.98	0.082
754.17	0.082
754.36	0.081
754.55	0.082
754.74	0.082
754.93	0.081
755.12	0.082
755.31	0.082
755.50	0.082
755.70	0.082
755.89	0.081
756.08	0.081
756.27	0.081
756.46	0.081
756.65	0.081
756.84	0.081
757.03	0.081
757.22	0.080
757.41	0.080
757.60	0.080
757.79	0.080
757.98	0.080
758.17	0.081
758.36	0.081
758.56	0.080
758.75	0.080
758.94	0.080
759.13	0.080
759.32	0.080
759.51	0.080
759.70	0.080
759.89	0.080
760.08	0.080
760.27	0.080
760.46	0.080
760.65	0.080
760.84	0.080
761.03	0.080
761.22	0.080
761.41	0.080
761.60	0.080
761.79	0.080
761.98	0.080
762.17	0.080
762.36	0.079
762.55	0.079
762.74	0.079
762.93	0.079
763.12	0.079
763.31	0.078
763.50	0.078
763.69	0.078
763.88	0.078
764.07	0.078
764.26	0.078
764.45	0.078
764.64	0.078
764.83	0.078
765.02	0.078
765.21	0.078
765.40	0.078
765.59	0.078
765.78	0.078
765.97	0.078
766.16	0.078
766.35	0.078
766.54	0.078
766.73	0.079
766.92	0.078
767.11	0.078
767.30	0.079
767.49	0.078
767.68	0.078
767.87	0.078
768.06	0.078
768.25	0.078
768.44	0.078
768.63	0.078
768.82	0.078
769.01	0.078
769.20	0.078
769.39	0.078
769.58	0.078
769.77	0.078
769.96	0.078
770.15	0.078
770.34	0.078
770.53	0.078
770.72	0.078
770.91	0.078
771.10	0.078
771.29	0.078
771.47	0.077
771.66	0.077
771.85	0.077
772.04	0.077
772.23	0.078
772.42	0.077
772.61	0.077
772.80	0.077
772.99	0.077
773.18	0.077
773.37	0.078
773.56	0.078
773.75	0.078
773.94	0.077
774.13	0.077
774.31	0.077
774.50	0.076
774.69	0.077
774.88	0.077
775.07	0.077
775.26	0.077
775.45	0.076
775.64	0.076
775.83	0.076
776.02	0.076
776.21	0.076
776.40	0.076
776.58	0.076
776.77	0.076
776.96	0.076
777.15	0.076
777.34	0.076
777.53	0.076
777.72	0.076
777.91	0.076
778.10	0.076
778.28	0.076
778.47	0.076
778.66	0.076
778.85	0.076
779.04	0.076
779.23	0.075
779.42	0.076
779.61	0.075
779.79	0.075
779.98	0.075
780.17	0.075
780.36	0.075
780.55	0.074
780.74	0.074
780.93	0.074
781.12	0.074
781.30	0.075
781.49	0.075
781.68	0.075
781.87	0.075
782.06	0.075
782.25	0.075
782.44	0.075
782.62	0.075
782.81	0.076
783.00	0.075
783.19	0.075
783.38	0.075
783.57	0.075
783.75	0.075
783.94	0.075
784.13	0.074
784.32	0.074
784.51	0.074
784.70	0.074
784.88	0.074
785.07	0.074
785.26	0.074
785.45	0.073
785.64	0.073
785.83	0.074
786.01	0.073
786.20	0.073
786.39	0.074
786.58	0.073
786.77	0.073
786.95	0.073
787.14	0.073
787.33	0.073
787.52	0.073
787.71	0.073
787.90	0.073
788.08	0.073
788.27	0.073
788.46	0.073
788.65	0.073
788.84	0.073
789.02	0.073
789.21	0.074
789.40	0.073
789.59	0.074
789.77	0.074
789.96	0.073
790.15	0.074
790.34	0.074
790.53	0.074
790.71	0.073
790.90	0.073
791.09	0.073
791.28	0.073
791.46	0.073
791.65	0.073
791.84	0.073
792.03	0.073
792.22	0.073
792.40	0.072
792.59	0.072
792.78	0.072
792.97	0.072
793.15	0.072
793.34	0.072
793.53	0.072
793.72	0.072
793.90	0.072
794.09	0.072
794.28	0.072
794.47	0.072
794.65	0.072
794.84	0.072
795.03	0.072
795.22	0.072
795.40	0.072
795.59	0.072
795.78	0.072
795.97	0.073
796.15	0.073
796.34	0.072
796.53	0.072
796.71	0.073
796.90	0.073
797.09	0.073
797.28	0.073
797.46	0.073
797.65	0.072
797.84	0.072
798.02	0.072
798.21	0.071
798.40	0.072
798.59	0.071
798.77	0.071
798.96	0.071
799.15	0.071
799.33	0.071
799.52	0.071
799.71	0.071
799.90	0.071
800.08	0.071
800.27	0.071
800.46	0.071
800.64	0.071
800.83	0.071
801.02	0.070
801.20	0.070
801.39	0.070
801.58	0.070
801.76	0.070
801.95	0.070
802.14	0.071
802.32	0.071
802.51	0.071
802.70	0.071
802.88	0.071
803.07	0.071
803.26	0.071
803.44	0.071
803.63	0.071
803.82	0.070
804.00	0.070
804.19	0.071
804.38	0.071
804.56	0.070
804.75	0.070
804.94	0.071
805.12	0.070
805.31	0.071
805.50	0.071
805.68	0.071
805.87	0.071
806.06	0.070
806.24	0.070
806.43	0.070
806.62	0.070
806.80	0.070
806.99	0.070
807.17	0.070
807.36	0.071
807.55	0.071
807.73	0.071
807.92	0.071
808.11	0.071
808.29	0.071
808.48	0.070
808.66	0.071
808.85	0.070
809.04	0.070
809.22	0.070
809.41	0.070
809.59	0.070
809.78	0.070
809.97	0.069
810.15	0.069
810.34	0.069
810.53	0.069
810.71	0.069
810.90	0.069
811.08	0.069
811.27	0.069
811.45	0.069
811.64	0.069
811.83	0.069
812.01	0.069
812.20	0.069
812.38	0.069
812.57	0.069
812.76	0.070
812.94	0.070
813.13	0.070
813.31	0.070
813.50	0.070
813.68	0.070
813.87	0.070
814.06	0.070
814.24	0.070
814.43	0.070
814.61	0.070
814.80	0.069
814.98	0.070
815.17	0.069
815.36	0.069
815.54	0.070
815.73	0.069
815.91	0.070
816.10	0.070
816.28	0.069
816.47	0.069
816.65	0.069
816.84	0.070
817.03	0.070
817.21	0.070
817.40	0.070
817.58	0.070
817.77	0.070
817.95	0.069
818.14	0.069
818.32	0.069
818.51	0.070
818.69	0.070
818.88	0.070
819.06	0.070
819.25	0.069
819.43	0.069
819.62	0.070
819.80	0.070
819.99	0.070
820.18	0.070
820.36	0.070
820.55	0.070
820.73	0.070
820.92	0.070
821.10	0.070
821.29	0.070
821.47	0.070
821.66	0.070
821.84	0.070
822.03	0.070
822.21	0.069
822.40	0.070
822.58	0.070
822.77	0.070
822.95	0.070
823.14	0.070
823.32	0.070
823.50	0.071
823.69	0.070
823.87	0.071
824.06	0.071
824.24	0.071
824.43	0.071
824.61	0.071
824.80	0.071
824.98	0.071
825.17	0.072
825.35	0.072
825.54	0.072
825.72	0.072
825.91	0.072
826.09	0.072
826.28	0.072
826.46	0.073
826.64	0.073
826.83	0.073
827.01	0.073
827.20	0.072
827.38	0.072
827.57	0.073
827.75	0.072
827.94	0.073
828.12	0.073
828.31	0.073
828.49	0.073
828.67	0.073
828.86	0.073
829.04	0.073
829.23	0.073
829.41	0.073
829.60	0.073
829.78	0.074
829.96	0.074
830.15	0.074
830.33	0.074
830.52	0.075
830.70	0.074
830.88	0.074
831.07	0.075
831.25	0.075
831.44	0.075
831.62	0.075
831.81	0.074
831.99	0.074
832.17	0.074
832.36	0.074
832.54	0.075
832.73	0.075
832.91	0.075
833.09	0.075
833.28	0.075
833.46	0.075
833.65	0.075
833.83	0.075
834.01	0.076
834.20	0.076
834.38	0.076
834.56	0.076
834.75	0.076
834.93	0.076
835.12	0.076
835.30	0.076
835.48	0.076
835.67	0.076
835.85	0.076
836.03	0.076
836.22	0.076
836.40	0.076
836.59	0.076
836.77	0.076
836.95	0.077
837.14	0.077
837.32	0.076
837.50	0.076
837.69	0.076
837.87	0.077
838.05	0.077
838.24	0.076
838.42	0.076
838.60	0.076
838.79	0.077
838.97	0.076
839.15	0.076
839.34	0.077
839.52	0.077
839.70	0.077
839.89	0.077
840.07	0.077
840.25	0.077
840.44	0.077
840.62	0.077
840.80	0.077
840.99	0.077
841.17	0.077
841.35	0.077
841.54	0.077
841.72	0.077
841.90	0.077
842.09	0.077
842.27	0.077
842.45	0.078
842.64	0.077
842.82	0.077
843.00	0.077
843.19	0.077
843.37	0.077
843.55	0.077
843.73	0.077
843.92	0.077
844.10	0.077
844.28	0.077
844.47	0.077
844.65	0.076
844.83	0.077
845.01	0.077
845.20	0.077
845.38	0.077
845.56	0.077
845.75	0.077
845.93	0.077
846.11	0.077
846.29	0.077
846.48	0.077
846.66	0.078
846.84	0.077
847.02	0.077
847.21	0.077
847.39	0.077
847.57	0.077
847.76	0.078
847.94	0.078
848.12	0.078
848.30	0.078
848.49	0.078
848.67	0.079
848.85	0.078
849.03	0.079
849.22	0.079
849.40	0.079
849.58	0.079
849.76	0.079
849.95	0.079
850.13	0.079
850.31	0.079
850.49	0.079
850.67	0.079
850.86	0.079
851.04	0.079
851.22	0.078
851.40	0.079
851.59	0.078
851.77	0.078
851.95	0.078
852.13	0.078
852.31	0.078
852.50	0.079
852.68	0.079
852.86	0.078
853.04	0.078
853.23	0.078
853.41	0.078
853.59	0.078
853.77	0.078
853.95	0.078
854.14	0.078
854.32	0.078
854.50	0.078
854.68	0.078
854.86	0.078
855.04	0.078
855.23	0.078
855.41	0.078
855.59	0.078
855.77	0.079
855.95	0.079
856.14	0.079
856.32	0.079
856.50	0.079
856.68	0.079
856.86	0.079
857.04	0.079
857.23	0.079
857.41	0.078
857.59	0.079
857.77	0.079
857.95	0.078
858.13	0.078
858.32	0.078
858.50	0.079
858.68	0.079
858.86	0.079
859.04	0.079
859.22	0.079
859.41	0.079
859.59	0.079
859.77	0.079
859.95	0.079
860.13	0.079
860.31	0.079
860.49	0.079
860.68	0.079
860.86	0.078
861.04	0.079
861.22	0.079
861.40	0.079
861.58	0.078
861.76	0.078
861.94	0.078
862.13	0.078
862.31	0.079
862.49	0.079
862.67	0.079
862.85	0.079
863.03	0.080
863.21	0.080
863.39	0.080
863.57	0.080
863.76	0.080
863.94	0.080
864.12	0.080
864.30	0.080
864.48	0.080
864.66	0.080
864.84	0.080
865.02	0.080
865.20	0.080
865.38	0.080
865.57	0.080
865.75	0.080
865.93	0.081
866.11	0.080
866.29	0.081
866.47	0.081
866.65	0.081
866.83	0.081
867.01	0.081
867.19	0.080
867.37	0.080
867.55	0.081
867.73	0.081
867.92	0.080
868.10	0.080
868.28	0.081
868.46	0.080
868.64	0.080
868.82	0.080
869.00	0.081
869.18	0.081
869.36	0.080
869.54	0.081
869.72	0.081
869.90	0.080
870.08	0.080
870.26	0.080
870.44	0.080
870.62	0.080
870.80	0.080
870.98	0.080
871.16	0.080
871.34	0.080
871.53	0.080
871.71	0.080
871.89	0.080
872.07	0.080
872.25	0.080
872.43	0.081
872.61	0.081
872.79	0.081
872.97	0.081
873.15	0.081
873.33	0.081
873.51	0.082
873.69	0.082
873.87	0.082
874.05	0.082
874.23	0.082
874.41	0.082
874.59	0.083
874.77	0.082
874.95	0.082
875.13	0.082
875.31	0.082
875.49	0.082
875.67	0.082
875.85	0.082
876.03	0.082
876.21	0.082
876.39	0.082
876.57	0.082
876.75	0.083
876.93	0.082
877.11	0.082
877.29	0.082
877.47	0.082
877.65	0.083
877.82	0.083
878.00	0.083
878.18	0.083
878.36	0.082
878.54	0.082
878.72	0.082
878.90	0.082
879.08	0.083
879.26	0.083
879.44	0.083
879.62	0.083
879.80	0.083
879.98	0.083
880.16	0.083
880.34	0.083
880.52	0.083
880.70	0.083
880.88	0.083
881.06	0.083
881.24	0.083
881.42	0.083
881.59	0.082
881.77	0.082
881.95	0.083
882.13	0.083
882.31	0.083
882.49	0.083
882.67	0.084
882.85	0.083
883.03	0.083
883.21	0.084
883.39	0.083
883.57	0.084
883.75	0.084
883.92	0.084
884.10	0.084
884.28	0.084
884.46	0.084
884.64	0.084
884.82	0.084
885.00	0.084
885.18	0.084
885.36	0.084
885.54	0.084
885.71	0.085
885.89	0.085
886.07	0.085
886.25	0.085
886.43	0.085
886.61	0.085
886.79	0.085
886.97	0.085
887.15	0.085
887.32	0.085
887.50	0.085
887.68	0.085
887.86	0.085
888.04	0.085
888.22	0.085
888.40	0.085
888.57	0.085
888.75	0.085
888.93	0.085
889.11	0.085
889.29	0.085
889.47	0.085
889.65	0.085
889.82	0.085
890.00	0.085
890.18	0.085
890.36	0.085
890.54	0.085
890.72	0.085
890.90	0.085
891.07	0.085
891.25	0.085
891.43	0.085
891.61	0.085
891.79	0.085
891.97	0.085
892.14	0.085
892.32	0.085
892.50	0.085
892.68	0.085
892.86	0.085
893.03	0.085
893.21	0.085
893.39	0.086
893.57	0.086
893.75	0.086
893.93	0.086
894.10	0.086
894.28	0.086
894.46	0.086
894.64	0.086
894.82	0.086
894.99	0.086
895.17	0.087
895.35	0.086
895.53	0.086
895.71	0.086
895.88	0.086
896.06	0.086
896.24	0.086
896.42	0.086
896.59	0.086
896.77	0.086
896.95	0.086
897.13	0.087
897.31	0.087
897.48	0.087
897.66	0.087
897.84	0.087
898.02	0.088
898.19	0.088
898.37	0.088
898.55	0.088
898.73	0.088
898.91	0.088
899.08	0.088
899.26	0.088
899.44	0.088
899.62	0.089
899.79	0.089
899.97	0.089
900.15	0.088
900.33	0.088
900.50	0.088
900.68	0.088
900.86	0.088
901.04	0.089
901.21	0.088
901.39	0.088
901.57	0.088
901.74	0.088
901.92	0.088
902.10	0.088
902.28	0.088
902.45	0.088
902.63	0.088
902.81	0.088
902.99	0.088
903.16	0.088
903.34	0.088
903.52	0.088
903.69	0.089
903.87	0.089
904.05	0.089
904.22	0.090
904.40	0.090
904.58	0.090
904.76	0.090
904.93	0.090
905.11	0.090
905.29	0.090
905.46	0.090
905.64	0.089
905.82	0.090
905.99	0.089
906.17	0.089
906.35	0.090
906.53	0.089
906.70	0.089
906.88	0.089
907.06	0.090
907.23	0.090
907.41	0.090
907.59	0.090
907.76	0.090
907.94	0.090
908.12	0.090
908.29	0.091
908.47	0.091
908.65	0.091
908.82	0.091
909.00	0.091
909.18	0.092
909.35	0.092
909.53	0.092
909.71	0.092
909.88	0.092
910.06	0.092
910.23	0.092
910.41	0.092
910.59	0.092
910.76	0.091
910.94	0.091
911.12	0.091
911.29	0.091
911.47	0.091
911.65	0.092
911.82	0.092
912.00	0.092
912.17	0.092
912.35	0.093
912.53	0.093
912.70	0.093
912.88	0.093
913.06	0.094
913.23	0.093
913.41	0.093
913.58	0.093
913.76	0.093
913.94	0.093
914.11	0.094
914.29	0.094
914.46	0.094
914.64	0.094
914.82	0.094
914.99	0.094
915.17	0.094
915.34	0.094
915.52	0.094
915.70	0.094
915.87	0.094
916.05	0.094
916.22	0.094
916.40	0.094
916.57	0.095
916.75	0.095
916.93	0.095
917.10	0.095
917.28	0.095
917.45	0.095
917.63	0.095
917.80	0.095
917.98	0.095
918.16	0.096
918.33	0.096
918.51	0.096
918.68	0.096
918.86	0.097
919.03	0.096
919.21	0.097
919.39	0.097
919.56	0.097
919.74	0.098
919.91	0.098
920.09	0.098
920.26	0.098
920.44	0.098
920.61	0.098
920.79	0.098
920.96	0.098
921.14	0.099
921.31	0.099
921.49	0.099
921.67	0.100
921.84	0.100
922.02	0.100
922.19	0.100
922.37	0.101
922.54	0.101
922.72	0.101
922.89	0.102
923.07	0.102
923.24	0.102
923.42	0.102
923.59	0.102
923.77	0.103
923.94	0.103
924.12	0.103
924.29	0.104
924.47	0.104
924.64	0.104
924.82	0.104
924.99	0.105
925.17	0.105
925.34	0.105
925.52	0.105
925.69	0.105
925.87	0.106
926.04	0.106
926.22	0.106
926.39	0.107
926.57	0.107
926.74	0.107
926.91	0.107
927.09	0.107
927.26	0.107
927.44	0.108
927.61	0.109
927.79	0.109
927.96	0.109
928.14	0.110
928.31	0.110
928.49	0.110
928.66	0.111
928.84	0.112
929.01	0.112
929.18	0.113
929.36	0.113
929.53	0.114
929.71	0.114
929.88	0.114
930.06	0.114
930.23	0.115
930.41	0.115
930.58	0.116
930.75	0.116
930.93	0.117
931.10	0.117
931.28	0.117
931.45	0.118
931.63	0.118
931.80	0.118
931.97	0.119
932.15	0.120
932.32	0.120
932.50	0.120
932.67	0.121
932.84	0.121
933.02	0.122
933.19	0.122
933.37	0.123
933.54	0.123
933.71	0.123
933.89	0.124
934.06	0.124
934.24	0.125
934.41	0.125
934.58	0.126
934.76	0.126
934.93	0.127
935.11	0.127
935.28	0.127
935.45	0.127
935.63	0.128
935.80	0.128
935.98	0.129
936.15	0.129
936.32	0.129
936.50	0.130
936.67	0.130
936.84	0.130
937.02	0.131
937.19	0.132
937.36	0.133
937.54	0.133
937.71	0.134
937.89	0.134
938.06	0.135
938.23	0.136
938.41	0.137
938.58	0.138
938.75	0.138
938.93	0.139
939.10	0.139
939.27	0.139
939.45	0.140
939.62	0.140
939.79	0.141
939.97	0.141
940.14	0.141
940.31	0.142
940.49	0.143
940.66	0.143
940.83	0.144
941.01	0.144
941.18	0.145
941.35	0.146
941.53	0.146
941.70	0.147
941.87	0.147
942.05	0.148
942.22	0.149
942.39	0.150
942.57	0.150
942.74	0.151
942.91	0.151
943.08	0.152
943.26	0.152
943.43	0.153
943.60	0.154
943.78	0.155
943.95	0.156
944.12	0.156
944.29	0.157
944.47	0.157
944.64	0.158
944.81	0.159
944.99	0.160
945.16	0.160
945.33	0.160
945.50	0.161
945.68	0.162
945.85	0.162
946.02	0.164
946.20	0.165
946.37	0.166
946.54	0.166
946.71	0.167
946.89	0.168
947.06	0.169
947.23	0.170
947.40	0.172
947.58	0.172
947.75	0.173
947.92	0.173
948.09	0.174
948.27	0.175
948.44	0.176
948.61	0.177
948.78	0.178
948.96	0.180
949.13	0.180
949.30	0.181
949.47	0.182
949.65	0.183
949.82	0.185
949.99	0.186
950.16	0.187
950.33	0.188
950.51	0.190
950.68	0.191
950.85	0.192
951.02	0.193
951.20	0.194
951.37	0.196
951.54	0.197
951.71	0.197
951.88	0.198
952.06	0.200
952.23	0.201
952.40	0.202
952.57	0.203
952.74	0.205
952.92	0.206
953.09	0.207
953.26	0.208
953.43	0.209
953.60	0.211
953.77	0.212
953.95	0.212
954.12	0.214
954.29	0.215
954.46	0.217
954.63	0.218
954.81	0.219
954.98	0.219
955.15	0.221
955.32	0.222
955.49	0.222
955.66	0.224
955.84	0.226
956.01	0.226
956.18	0.228
956.35	0.229
956.52	0.230
956.69	0.232
956.87	0.232
957.04	0.233
957.21	0.235
957.38	0.235
957.55	0.237
957.72	0.238
957.89	0.239
958.07	0.239
958.24	0.241
958.41	0.243
958.58	0.243
958.75	0.244
958.92	0.245
959.09	0.245
959.26	0.246
959.44	0.246
959.61	0.247
959.78	0.248
959.95	0.249
960.12	0.249
960.29	0.252
960.46	0.251
960.63	0.251
960.81	0.251
960.98	0.253
961.15	0.253
961.32	0.254
961.49	0.254
961.66	0.255
961.83	0.256
962.00	0.256
962.17	0.256
962.34	0.256
962.52	0.257
962.69	0.258
962.86	0.257
963.03	0.258
963.20	0.258
963.37	0.257
963.54	0.258
963.71	0.258
963.88	0.258
964.05	0.259
964.22	0.260
964.39	0.258
964.56	0.258
964.74	0.260
964.91	0.260
965.08	0.260
965.25	0.261
965.42	0.262
965.59	0.263
965.76	0.262
965.93	0.264
966.10	0.262
966.27	0.263
966.44	0.262
966.61	0.263
966.78	0.263
966.95	0.262
967.12	0.262
967.29	0.264
967.46	0.263
967.63	0.263
967.80	0.264
967.97	0.264
968.14	0.264
968.32	0.264
968.49	0.265
968.66	0.263
968.83	0.265
969.00	0.265
969.17	0.265
969.34	0.266
969.51	0.267
969.68	0.266
969.85	0.266
970.02	0.266
970.19	0.266
970.36	0.266
970.53	0.267
970.70	0.265
970.87	0.266
971.04	0.264
971.21	0.265
971.38	0.265
971.55	0.266
971.72	0.265
971.89	0.267
972.06	0.266
972.23	0.266
972.40	0.266
972.57	0.265
972.74	0.265
972.91	0.267
973.07	0.266
973.24	0.266
973.41	0.266
973.58	0.265
973.75	0.277
973.92	0.266
974.09	0.265
974.26	0.266
974.43	0.265
974.60	0.266
974.77	0.265
974.94	0.265
975.11	0.266
975.28	0.267
975.45	0.264
975.62	0.266
975.79	0.267
975.96	0.265
976.13	0.263
976.30	0.265
976.47	0.264
976.64	0.264
976.80	0.265
976.97	0.264
977.14	0.263
977.31	0.263
977.48	0.264
977.65	0.264
977.82	0.263
977.99	0.265
978.16	0.264
978.33	0.264
978.50	0.264
978.67	0.264
978.83	0.263
979.00	0.263
979.17	0.263
979.34	0.262
979.51	0.262
979.68	0.263
979.85	0.262
980.02	0.263
980.19	0.261
980.36	0.262
980.52	0.264
980.69	0.262
980.86	0.263
981.03	0.262
981.20	0.261
981.37	0.262
981.54	0.262
981.71	0.260
981.88	0.261
982.04	0.260
982.21	0.259
982.38	0.260
982.55	0.260
982.72	0.259
982.89	0.260
983.06	0.259
983.22	0.259
983.39	0.259
983.56	0.259
983.73	0.258
983.90	0.257
984.07	0.259
984.24	0.257
984.40	0.256
984.57	0.254
984.74	0.256
984.91	0.257
985.08	0.255
985.25	0.253
985.41	0.254
985.58	0.254
985.75	0.255
985.92	0.255
986.09	0.254
986.26	0.254
986.42	0.253
986.59	0.252
986.76	0.253
986.93	0.253
987.10	0.253
987.27	0.251
987.43	0.249
987.60	0.251
987.77	0.251
987.94	0.249
988.11	0.250
988.27	0.250
988.44	0.250
988.61	0.248
988.78	0.247
988.95	0.248
989.11	0.249
989.28	0.247
989.45	0.246
989.62	0.246
989.79	0.246
989.95	0.245
990.12	0.246
990.29	0.246
990.46	0.244
990.62	0.243
990.79	0.242
990.96	0.243
991.13	0.244
991.30	0.243
991.46	0.242
991.63	0.240
991.80	0.240
991.97	0.240
992.13	0.240
992.30	0.241
992.47	0.240
992.64	0.240
992.80	0.241
992.97	0.241
993.14	0.238
993.31	0.236
993.47	0.240
993.64	0.238
993.81	0.237
993.98	0.237
994.14	0.236
994.31	0.234
994.48	0.235
994.64	0.235
994.81	0.234
994.98	0.234
995.15	0.232
995.31	0.232
995.48	0.231
995.65	0.234
995.82	0.231
995.98	0.231
996.15	0.232
996.32	0.233
996.48	0.232
996.65	0.232
996.82	0.230
996.99	0.230
997.15	0.230
997.32	0.231
997.49	0.229
997.65	0.230
997.82	0.229
997.99	0.227
998.15	0.228
998.32	0.229
998.49	0.228
998.65	0.228
998.82	0.227
998.99	0.225
999.15	0.225
999.32	0.224
999.49	0.223
999.65	0.224
999.82	0.222
999.99	0.222
1000.15	0.222
1000.32	0.222
1000.49	0.222
1000.65	0.220
1000.82	0.219
1000.99	0.220
1001.15	0.220
1001.32	0.219
1001.49	0.219
1001.65	0.219
1001.82	0.221
1001.99	0.217
1002.15	0.216
1002.32	0.216
1002.49	0.216
1002.65	0.215
1002.82	0.213
1002.99	0.213
1003.15	0.215
1003.32	0.214
1003.48	0.214
1003.65	0.213
1003.82	0.212
1003.98	0.209
1004.15	0.209
1004.32	0.210
1004.48	0.210
1004.65	0.212
1004.81	0.209
1004.98	0.208
1005.15	0.209
1005.31	0.209
1005.48	0.208
1005.64	0.208
1005.81	0.211
1005.98	0.208
1006.14	0.208
1006.31	0.208
1006.47	0.205
1006.64	0.204
1006.81	0.203
1006.97	0.204
1007.14	0.203
1007.30	0.204
1007.47	0.204
1007.63	0.201
1007.80	0.199
1007.97	0.198
1008.13	0.199
1008.30	0.200
1008.46	0.200
1008.63	0.199
1008.79	0.199
1008.96	0.200
1009.13	0.201
1009.29	0.198
1009.46	0.199
1009.62	0.199
1009.79	0.197
1009.95	0.197
1010.12	0.197
1010.28	0.198
1010.45	0.196
1010.62	0.195
1010.78	0.194
1010.95	0.192
1011.11	0.193
1011.28	0.192
1011.44	0.195
1011.61	0.193
1011.77	0.192
1011.94	0.192
1012.10	0.191
1012.27	0.192
1012.43	0.192
1012.60	0.191
1012.76	0.192
1012.93	0.190
1013.10	0.189
1013.26	0.186
1013.43	0.187
1013.59	0.195
1013.76	0.187
1013.92	0.187
1014.09	0.185
1014.25	0.186
1014.42	0.186
1014.58	0.185
1014.75	0.188
1014.91	0.186
1015.08	0.188
1015.24	0.184
1015.41	0.185
1015.57	0.185
1015.73	0.183
1015.90	0.181
1016.06	0.183
1016.23	0.181
1016.39	0.182
1016.56	0.182
1016.72	0.182
1016.89	0.181
1017.05	0.183
1017.22	0.180
1017.38	0.181
1017.55	0.179
1017.71	0.181
1017.88	0.180
1018.04	0.181
1018.21	0.178
1018.37	0.177
1018.53	0.178
1018.70	0.176
1018.86	0.176
1019.03	0.177
1019.19	0.175
1019.36	0.175
1019.52	0.176
1019.69	0.176
1019.85	0.175
1020.01	0.175
1020.18	0.173
1020.34	0.173
1020.51	0.173
1020.67	0.173
1020.84	0.172
1021.00	0.173
1021.16	0.171
1021.33	0.171
1021.49	0.170
1021.66	0.170
1021.82	0.168
1021.98	0.169
1022.15	0.169
1022.31	0.169
1022.48	0.168
1022.64	0.169
1022.80	0.167
1022.97	0.166
1023.13	0.165
1023.30	0.166
1023.46	0.167
1023.62	0.164
1023.79	0.166
1023.95	0.166
1024.12	0.164
1024.28	0.163
1024.44	0.164
1024.61	0.162
1024.77	0.163
1024.93	0.162
1025.10	0.163
1025.26	0.160
1025.43	0.161
1025.59	0.156
1025.75	0.161
1025.92	0.160
1026.08	0.158
1026.24	0.158
1026.41	0.160
1026.57	0.158
1026.73	0.156
1026.90	0.159
1027.06	0.157
1027.23	0.158
1027.39	0.158
1027.55	0.158
1027.72	0.156
1027.88	0.156
1028.04	0.157
1028.21	0.156
1028.37	0.150
1028.53	0.155
1028.70	0.153
1028.86	0.151
1029.02	0.151
1029.19	0.153
1029.35	0.151
1029.51	0.151
1029.67	0.150
1029.84	0.151
1030.00	0.147
1030.16	0.147
1030.33	0.150
1030.49	0.147
1030.65	0.145
1030.82	0.160
1030.98	0.148
1031.14	0.147
1031.31	0.148
1031.47	0.146
1031.63	0.149
1031.79	0.148
1031.96	0.149
1032.12	0.151
1032.28	0.148
1032.45	0.151
1032.61	0.149
1032.77	0.148
1032.93	0.145
1033.10	0.145
1033.26	0.147
1033.42	0.145
1033.58	0.145
1033.75	0.147
1033.91	0.144
1034.07	0.147
1034.24	0.146
1034.40	0.144
1034.56	0.144
1034.72	0.146
1034.89	0.145
1035.05	0.143
1035.21	0.143
1035.37	0.142
1035.54	0.145
1035.70	0.143
1035.86	0.142
1036.02	0.143
1036.19	0.142
1036.35	0.140
1036.51	0.142
1036.67	0.140
1036.83	0.138
1037.00	0.138
1037.16	0.137
1037.32	0.138
1037.48	0.137
1037.65	0.140
1037.81	0.137
1037.97	0.136
1038.13	0.136
1038.29	0.134
1038.46	0.132
1038.62	0.136
1038.78	0.134
1038.94	0.131
1039.10	0.135
1039.27	0.132
1039.43	0.134
1039.59	0.133
1039.75	0.133
1039.91	0.132
1040.08	0.133
1040.24	0.136
1040.40	0.138
1040.56	0.137
1040.72	0.132
1040.89	0.134
1041.05	0.136
1041.21	0.135
1041.37	0.132
1041.53	0.138
1041.69	0.136
1041.86	0.134
1042.02	0.131
1042.18	0.131
1042.34	0.132
1042.50	0.135
1042.66	0.131
1042.83	0.130
1042.99	0.133
1043.15	0.130
1043.31	0.129
1043.47	0.133
1043.63	0.132
1043.79	0.132
1043.96	0.133
1044.12	0.137
1044.28	0.134
1044.44	0.135
1044.60	0.129
1044.76	0.128
1044.92	0.129
1045.09	0.131
1045.25	0.127
1045.41	0.127
1045.57	0.122
1045.73	0.122
1045.89	0.123
1046.05	0.125
1046.21	0.129
1046.38	0.130
1046.54	0.130
1046.70	0.128
1046.86	0.126
>>>>>End Processed Spectral Data<<<<<
