SpectraSuite Data File
++++++++++++++++++++++++++++++++++++
Date: Mon May 20 12:11:27 CDT 2013
User: Students
Dark Spectrum Present: Yes
Reference Spectrum Present: Yes
Number of Sampled Component Spectra: 1
Spectrometers: USB4H00887
Integration Time (usec): 60000 (USB4H00887)
Spectra Averaged: 5 (USB4H00887)
Boxcar Smoothing: 5 (USB4H00887)
Correct for Electrical Dark: No (USB4H00887)
Strobe/Lamp Enabled: No (USB4H00887)
Correct for Detector Non-linearity: No (USB4H00887)
Correct for Stray Light: No (USB4H00887)
Number of Pixels in Processed Spectrum: 3648
>>>>>Begin Processed Spectral Data<<<<<
345.83	0.036
346.05	0.036
346.26	0.036
346.48	-0.000
346.70	-0.000
346.92	-0.006
347.14	0.020
347.35	0.033
347.57	0.108
347.79	-0.080
348.01	-0.120
348.23	-0.225
348.44	-0.000
348.66	0.166
348.88	-0.250
349.10	-0.074
349.32	0.027
349.53	0.022
349.75	0.073
349.97	0.031
350.19	0.045
350.41	0.051
350.62	-0.222
350.84	0.023
351.06	0.003
351.28	-0.002
351.50	-0.097
351.71	0.055
351.93	0.064
352.15	0.017
352.37	0.055
352.58	0.008
352.80	0.017
353.02	0.038
353.24	0.065
353.46	0.445
353.67	-0.127
353.89	0.055
354.11	0.058
354.33	0.063
354.54	0.098
354.76	0.156
354.98	0.325
355.20	0.293
355.41	0.124
355.63	0.281
355.85	0.107
356.07	-0.000
356.28	0.105
356.50	0.171
356.72	0.060
356.94	0.170
357.15	0.327
357.37	-0.000
357.59	0.161
357.81	0.079
358.02	0.148
358.24	0.121
358.46	0.243
358.68	0.234
358.89	0.117
359.11	-0.000
359.33	0.103
359.55	-0.561
359.76	0.118
359.98	0.132
360.20	0.135
360.42	0.097
360.63	0.084
360.85	0.021
361.07	0.082
361.29	0.014
361.50	0.079
361.72	0.060
361.94	0.259
362.15	0.104
362.37	0.056
362.59	0.068
362.81	0.122
363.02	0.240
363.24	0.474
363.46	0.262
363.68	0.335
363.89	0.201
364.11	0.244
364.33	0.286
364.54	0.165
364.76	0.210
364.98	0.218
365.20	0.239
365.41	0.148
365.63	0.172
365.85	0.124
366.06	0.404
366.28	0.391
366.50	0.246
366.71	0.118
366.93	0.176
367.15	0.173
367.37	0.154
367.58	0.196
367.80	0.191
368.02	0.572
368.23	0.181
368.45	0.188
368.67	0.163
368.88	0.156
369.10	-0.000
369.32	0.144
369.53	0.082
369.75	0.134
369.97	0.335
370.19	0.219
370.40	0.082
370.62	0.172
370.84	0.076
371.05	0.476
371.27	0.129
371.49	0.162
371.70	0.177
371.92	0.300
372.14	0.111
372.35	0.122
372.57	0.133
372.79	0.418
373.00	0.101
373.22	0.174
373.44	0.151
373.65	0.130
373.87	0.170
374.09	0.791
374.30	0.136
374.52	0.164
374.74	0.112
374.95	0.546
375.17	0.132
375.39	-0.000
375.60	0.120
375.82	0.178
376.04	0.072
376.25	0.078
376.47	0.041
376.68	0.085
376.90	0.066
377.12	0.127
377.33	0.079
377.55	0.183
377.77	0.123
377.98	0.200
378.20	0.128
378.42	0.156
378.63	0.205
378.85	-0.000
379.07	0.137
379.28	0.414
379.50	0.261
379.71	0.140
379.93	0.099
380.15	0.130
380.36	0.196
380.58	0.150
380.80	0.411
381.01	0.123
381.23	0.106
381.44	0.119
381.66	0.156
381.88	0.212
382.09	-0.091
382.31	0.147
382.53	0.156
382.74	0.939
382.96	0.218
383.17	0.169
383.39	0.244
383.61	0.310
383.82	0.212
384.04	0.254
384.25	0.293
384.47	0.268
384.69	0.256
384.90	0.228
385.12	0.446
385.33	0.282
385.55	0.209
385.77	0.302
385.98	0.159
386.20	0.215
386.41	0.174
386.63	0.190
386.85	0.165
387.06	0.212
387.28	0.320
387.49	0.231
387.71	0.160
387.93	0.151
388.14	0.466
388.36	0.212
388.57	0.203
388.79	0.237
389.01	-0.000
389.22	0.296
389.44	0.246
389.65	0.215
389.87	0.213
390.08	0.257
390.30	0.188
390.52	0.361
390.73	0.356
390.95	0.251
391.16	0.229
391.38	-0.000
391.59	0.261
391.81	0.233
392.03	0.213
392.24	0.237
392.46	0.186
392.67	0.184
392.89	0.254
393.10	0.390
393.32	0.254
393.53	0.298
393.75	0.192
393.97	0.225
394.18	0.291
394.40	0.252
394.61	0.270
394.83	0.250
395.04	0.278
395.26	0.186
395.47	0.274
395.69	0.226
395.91	0.247
396.12	0.294
396.34	0.279
396.55	0.184
396.77	0.261
396.98	0.820
397.20	0.310
397.41	0.350
397.63	0.254
397.84	0.232
398.06	0.219
398.27	0.216
398.49	0.263
398.71	0.205
398.92	0.258
399.14	0.350
399.35	0.437
399.57	0.407
399.78	0.275
400.00	0.277
400.21	0.345
400.43	0.289
400.64	0.307
400.86	0.717
401.07	0.371
401.29	0.312
401.50	0.328
401.72	0.475
401.93	0.313
402.15	0.386
402.36	0.346
402.58	0.280
402.79	0.304
403.01	0.510
403.22	0.389
403.44	0.269
403.65	0.438
403.87	0.478
404.08	0.363
404.30	0.585
404.51	0.320
404.73	0.383
404.94	0.340
405.16	0.350
405.37	0.274
405.59	0.508
405.80	0.314
406.02	0.370
406.23	0.367
406.45	0.423
406.66	0.443
406.88	0.285
407.09	0.458
407.31	0.365
407.52	0.459
407.74	0.381
407.95	0.447
408.17	0.407
408.38	0.425
408.60	0.285
408.81	0.487
409.03	0.366
409.24	0.382
409.45	0.432
409.67	0.404
409.88	0.356
410.10	0.449
410.31	0.376
410.53	0.359
410.74	0.517
410.96	0.521
411.17	0.543
411.39	0.418
411.60	0.377
411.82	0.435
412.03	0.423
412.24	0.406
412.46	0.586
412.67	0.488
412.89	0.481
413.10	0.479
413.32	0.424
413.53	0.483
413.75	0.493
413.96	0.376
414.17	0.515
414.39	0.519
414.60	0.418
414.82	0.545
415.03	0.410
415.25	0.456
415.46	0.319
415.68	0.437
415.89	0.810
416.10	0.649
416.32	0.362
416.53	0.419
416.75	0.398
416.96	0.486
417.18	0.427
417.39	0.407
417.60	0.413
417.82	0.608
418.03	0.547
418.25	0.455
418.46	0.478
418.67	0.438
418.89	0.479
419.10	0.510
419.32	0.710
419.53	0.641
419.75	0.542
419.96	0.476
420.17	0.595
420.39	0.552
420.60	0.568
420.82	0.695
421.03	0.534
421.24	0.439
421.46	0.477
421.67	0.512
421.89	0.448
422.10	0.480
422.31	0.473
422.53	0.644
422.74	0.479
422.96	0.391
423.17	0.440
423.38	0.560
423.60	0.473
423.81	0.600
424.03	0.528
424.24	0.591
424.45	0.592
424.67	0.578
424.88	0.519
425.09	0.565
425.31	0.513
425.52	0.547
425.74	0.605
425.95	0.649
426.16	0.504
426.38	0.581
426.59	0.533
426.80	0.607
427.02	0.642
427.23	0.503
427.45	0.660
427.66	0.642
427.87	0.495
428.09	0.530
428.30	0.584
428.51	0.564
428.73	0.616
428.94	0.547
429.15	0.537
429.37	0.512
429.58	0.539
429.79	0.498
430.01	0.601
430.22	0.595
430.44	0.606
430.65	0.552
430.86	0.605
431.08	0.592
431.29	0.529
431.50	0.629
431.72	0.844
431.93	0.675
432.14	0.509
432.36	0.555
432.57	0.570
432.78	0.600
433.00	0.550
433.21	0.535
433.42	0.662
433.64	0.587
433.85	0.657
434.06	0.535
434.28	0.571
434.49	0.588
434.70	0.597
434.92	0.608
435.13	0.651
435.34	0.659
435.56	0.628
435.77	0.624
435.98	0.810
436.20	0.674
436.41	0.584
436.62	0.570
436.83	0.648
437.05	0.742
437.26	0.653
437.47	0.575
437.69	0.631
437.90	0.573
438.11	0.561
438.33	0.607
438.54	0.633
438.75	0.808
438.97	0.794
439.18	0.597
439.39	0.625
439.60	0.666
439.82	0.632
440.03	0.584
440.24	0.870
440.46	0.646
440.67	0.629
440.88	0.670
441.10	0.627
441.31	0.619
441.52	0.672
441.73	0.753
441.95	0.672
442.16	0.614
442.37	0.979
442.58	0.597
442.80	0.585
443.01	0.770
443.22	0.711
443.44	0.599
443.65	0.719
443.86	0.718
444.07	0.771
444.29	0.666
444.50	0.855
444.71	0.641
444.92	0.601
445.14	0.760
445.35	0.798
445.56	0.618
445.78	0.726
445.99	0.721
446.20	0.619
446.41	0.705
446.63	0.697
446.84	0.660
447.05	0.663
447.26	0.797
447.48	0.684
447.69	0.650
447.90	0.750
448.11	0.669
448.33	0.694
448.54	0.715
448.75	0.735
448.96	0.752
449.18	0.798
449.39	0.706
449.60	0.690
449.81	0.836
450.03	0.716
450.24	0.777
450.45	0.731
450.66	0.712
450.87	0.747
451.09	0.702
451.30	0.674
451.51	0.747
451.72	0.763
451.94	0.784
452.15	0.861
452.36	0.707
452.57	0.731
452.78	0.727
453.00	0.768
453.21	0.720
453.42	0.694
453.63	0.805
453.85	0.768
454.06	0.759
454.27	0.900
454.48	0.799
454.69	0.724
454.91	0.794
455.12	0.691
455.33	0.779
455.54	0.796
455.75	0.759
455.97	0.783
456.18	0.771
456.39	0.782
456.60	0.805
456.81	0.739
457.03	0.746
457.24	0.746
457.45	0.841
457.66	0.780
457.87	0.734
458.09	0.761
458.30	0.673
458.51	0.805
458.72	0.828
458.93	0.844
459.15	0.737
459.36	0.810
459.57	0.836
459.78	0.883
459.99	0.782
460.20	0.750
460.42	0.834
460.63	0.785
460.84	0.760
461.05	0.780
461.26	0.842
461.47	0.754
461.69	0.803
461.90	0.841
462.11	0.796
462.32	0.862
462.53	0.795
462.74	0.896
462.96	0.778
463.17	0.772
463.38	0.823
463.59	0.935
463.80	0.773
464.01	0.802
464.23	0.892
464.44	0.851
464.65	0.858
464.86	0.878
465.07	0.881
465.28	0.833
465.49	0.856
465.71	0.801
465.92	0.844
466.13	0.892
466.34	0.819
466.55	0.878
466.76	0.836
466.97	0.859
467.19	0.846
467.40	0.893
467.61	0.903
467.82	0.817
468.03	0.798
468.24	0.875
468.45	0.917
468.66	0.899
468.88	0.909
469.09	0.907
469.30	0.964
469.51	0.885
469.72	0.926
469.93	0.890
470.14	0.866
470.35	0.968
470.57	0.912
470.78	0.840
470.99	0.981
471.20	0.907
471.41	0.868
471.62	0.917
471.83	0.886
472.04	0.917
472.25	0.964
472.47	0.878
472.68	0.882
472.89	0.881
473.10	0.925
473.31	0.866
473.52	0.933
473.73	0.956
473.94	0.876
474.15	0.899
474.36	0.896
474.57	0.923
474.79	0.891
475.00	0.890
475.21	0.879
475.42	0.975
475.63	0.881
475.84	0.912
476.05	0.916
476.26	0.886
476.47	0.921
476.68	0.973
476.89	0.903
477.10	0.960
477.32	0.946
477.53	1.003
477.74	0.918
477.95	0.964
478.16	0.906
478.37	0.948
478.58	0.955
478.79	0.971
479.00	0.969
479.21	0.925
479.42	0.965
479.63	0.968
479.84	0.930
480.05	0.926
480.26	0.955
480.47	0.977
480.69	0.981
480.90	0.943
481.11	0.942
481.32	1.007
481.53	0.942
481.74	0.998
481.95	0.963
482.16	0.983
482.37	0.993
482.58	0.956
482.79	0.976
483.00	1.006
483.21	0.948
483.42	0.918
483.63	0.996
483.84	1.025
484.05	1.014
484.26	0.984
484.47	0.983
484.68	0.945
484.89	0.949
485.10	0.997
485.31	0.973
485.52	0.979
485.73	0.978
485.94	1.020
486.15	0.964
486.37	0.982
486.58	0.946
486.79	0.954
487.00	1.002
487.21	0.995
487.42	0.990
487.63	0.995
487.84	1.017
488.05	1.013
488.26	0.971
488.47	0.975
488.68	1.004
488.89	0.981
489.10	0.978
489.31	0.993
489.52	1.028
489.73	0.994
489.94	1.035
490.15	0.988
490.36	1.033
490.57	0.983
490.78	0.967
490.99	1.008
491.20	1.088
491.41	1.041
491.62	0.979
491.83	1.012
492.04	1.011
492.25	1.018
492.45	1.017
492.66	1.041
492.87	1.029
493.08	1.018
493.29	0.998
493.50	0.989
493.71	0.996
493.92	0.992
494.13	1.006
494.34	1.024
494.55	1.030
494.76	1.064
494.97	1.052
495.18	1.017
495.39	1.032
495.60	0.980
495.81	0.983
496.02	1.006
496.23	1.000
496.44	1.034
496.65	1.023
496.86	1.030
497.07	1.058
497.28	1.055
497.49	1.005
497.70	1.006
497.91	1.028
498.12	1.009
498.32	1.053
498.53	1.035
498.74	1.024
498.95	1.052
499.16	1.005
499.37	1.008
499.58	1.019
499.79	1.049
500.00	1.048
500.21	1.081
500.42	1.025
500.63	1.024
500.84	1.044
501.05	1.023
501.26	1.051
501.46	1.091
501.67	1.051
501.88	1.054
502.09	1.025
502.30	1.028
502.51	1.078
502.72	1.026
502.93	1.042
503.14	1.067
503.35	1.034
503.56	1.029
503.77	1.063
503.97	1.037
504.18	1.036
504.39	1.075
504.60	1.046
504.81	1.075
505.02	1.061
505.23	1.064
505.44	1.043
505.65	1.053
505.86	1.033
506.07	1.102
506.27	1.061
506.48	1.065
506.69	1.046
506.90	1.066
507.11	1.066
507.32	1.042
507.53	1.051
507.74	1.044
507.95	1.056
508.15	1.062
508.36	1.068
508.57	1.075
508.78	1.057
508.99	1.057
509.20	1.035
509.41	1.060
509.62	1.047
509.82	1.043
510.03	1.054
510.24	1.055
510.45	1.077
510.66	1.068
510.87	1.063
511.08	1.021
511.29	1.063
511.49	1.037
511.70	1.082
511.91	1.014
512.12	1.013
512.33	1.049
512.54	1.063
512.75	1.045
512.95	1.072
513.16	1.063
513.37	1.041
513.58	1.083
513.79	1.045
514.00	1.053
514.20	1.072
514.41	1.059
514.62	1.024
514.83	1.069
515.04	1.061
515.25	1.039
515.46	1.051
515.66	1.051
515.87	1.062
516.08	1.031
516.29	1.055
516.50	1.034
516.71	1.029
516.91	1.039
517.12	1.053
517.33	1.035
517.54	1.021
517.75	1.027
517.95	1.042
518.16	1.055
518.37	1.019
518.58	1.027
518.79	1.001
519.00	1.033
519.20	1.043
519.41	1.017
519.62	1.040
519.83	1.049
520.04	1.009
520.24	1.007
520.45	1.016
520.66	1.042
520.87	1.002
521.08	1.001
521.28	1.004
521.49	1.020
521.70	0.990
521.91	1.006
522.12	0.987
522.32	1.011
522.53	0.991
522.74	0.977
522.95	0.987
523.16	0.988
523.36	0.998
523.57	0.978
523.78	0.972
523.99	0.977
524.20	0.969
524.40	0.985
524.61	0.994
524.82	0.967
525.03	0.975
525.23	0.977
525.44	0.960
525.65	0.956
525.86	0.980
526.06	0.951
526.27	0.952
526.48	0.962
526.69	0.941
526.90	0.941
527.10	0.978
527.31	0.933
527.52	0.925
527.73	0.918
527.93	0.930
528.14	0.936
528.35	0.927
528.56	0.927
528.76	0.919
528.97	0.909
529.18	0.900
529.39	0.901
529.59	0.902
529.80	0.934
530.01	0.907
530.22	0.905
530.42	0.872
530.63	0.889
530.84	0.869
531.05	0.882
531.25	0.886
531.46	0.878
531.67	0.856
531.88	0.874
532.08	0.866
532.29	0.861
532.50	0.855
532.70	0.848
532.91	0.839
533.12	0.840
533.33	0.865
533.53	0.835
533.74	0.834
533.95	0.841
534.15	0.831
534.36	0.831
534.57	0.815
534.78	0.817
534.98	0.828
535.19	0.798
535.40	0.799
535.60	0.818
535.81	0.796
536.02	0.799
536.23	0.790
536.43	0.792
536.64	0.779
536.85	0.786
537.05	0.794
537.26	0.771
537.47	0.775
537.67	0.764
537.88	0.758
538.09	0.766
538.30	0.755
538.50	0.747
538.71	0.759
538.92	0.744
539.12	0.739
539.33	0.734
539.54	0.734
539.74	0.737
539.95	0.727
540.16	0.724
540.36	0.715
540.57	0.715
540.78	0.707
540.98	0.704
541.19	0.703
541.40	0.692
541.60	0.701
541.81	0.697
542.02	0.697
542.22	0.688
542.43	0.682
542.64	0.676
542.84	0.676
543.05	0.668
543.26	0.669
543.46	0.671
543.67	0.669
543.88	0.665
544.08	0.653
544.29	0.648
544.50	0.648
544.70	0.649
544.91	0.640
545.12	0.641
545.32	0.637
545.53	0.640
545.74	0.629
545.94	0.625
546.15	0.623
546.35	0.620
546.56	0.617
546.77	0.613
546.97	0.610
547.18	0.602
547.39	0.602
547.59	0.599
547.80	0.595
548.01	0.599
548.21	0.595
548.42	0.586
548.62	0.586
548.83	0.582
549.04	0.578
549.24	0.571
549.45	0.571
549.65	0.568
549.86	0.564
550.07	0.562
550.27	0.560
550.48	0.567
550.69	0.553
550.89	0.553
551.10	0.549
551.30	0.548
551.51	0.548
551.72	0.537
551.92	0.538
552.13	0.538
552.33	0.539
552.54	0.532
552.75	0.525
552.95	0.527
553.16	0.522
553.36	0.519
553.57	0.517
553.78	0.515
553.98	0.515
554.19	0.506
554.39	0.503
554.60	0.506
554.80	0.506
555.01	0.498
555.22	0.499
555.42	0.495
555.63	0.489
555.83	0.493
556.04	0.486
556.25	0.488
556.45	0.480
556.66	0.478
556.86	0.481
557.07	0.478
557.27	0.478
557.48	0.473
557.68	0.471
557.89	0.472
558.10	0.468
558.30	0.465
558.51	0.463
558.71	0.460
558.92	0.455
559.12	0.457
559.33	0.460
559.54	0.454
559.74	0.450
559.95	0.447
560.15	0.447
560.36	0.445
560.56	0.439
560.77	0.439
560.97	0.439
561.18	0.435
561.38	0.435
561.59	0.437
561.79	0.432
562.00	0.430
562.21	0.427
562.41	0.425
562.62	0.424
562.82	0.422
563.03	0.419
563.23	0.419
563.44	0.418
563.64	0.415
563.85	0.417
564.05	0.409
564.26	0.409
564.46	0.408
564.67	0.409
564.87	0.405
565.08	0.401
565.28	0.401
565.49	0.401
565.69	0.398
565.90	0.394
566.10	0.396
566.31	0.390
566.51	0.392
566.72	0.392
566.92	0.386
567.13	0.386
567.33	0.384
567.54	0.383
567.74	0.382
567.95	0.378
568.15	0.379
568.36	0.379
568.56	0.377
568.77	0.372
568.97	0.371
569.18	0.370
569.38	0.368
569.59	0.370
569.79	0.367
570.00	0.364
570.20	0.363
570.41	0.361
570.61	0.359
570.82	0.360
571.02	0.357
571.23	0.358
571.43	0.354
571.64	0.353
571.84	0.352
572.05	0.350
572.25	0.349
572.45	0.347
572.66	0.344
572.86	0.343
573.07	0.341
573.27	0.341
573.48	0.340
573.68	0.336
573.89	0.336
574.09	0.337
574.30	0.335
574.50	0.333
574.70	0.334
574.91	0.331
575.11	0.331
575.32	0.332
575.52	0.328
575.73	0.328
575.93	0.328
576.14	0.326
576.34	0.325
576.54	0.324
576.75	0.322
576.95	0.321
577.16	0.319
577.36	0.318
577.57	0.317
577.77	0.315
577.97	0.312
578.18	0.313
578.38	0.310
578.59	0.309
578.79	0.307
579.00	0.308
579.20	0.306
579.40	0.305
579.61	0.304
579.81	0.303
580.02	0.301
580.22	0.300
580.42	0.299
580.63	0.299
580.83	0.298
581.04	0.296
581.24	0.295
581.45	0.294
581.65	0.294
581.85	0.293
582.06	0.291
582.26	0.291
582.47	0.290
582.67	0.290
582.87	0.288
583.08	0.286
583.28	0.286
583.48	0.284
583.69	0.281
583.89	0.282
584.10	0.282
584.30	0.279
584.50	0.278
584.71	0.277
584.91	0.277
585.12	0.275
585.32	0.276
585.52	0.274
585.73	0.273
585.93	0.273
586.13	0.272
586.34	0.271
586.54	0.270
586.75	0.269
586.95	0.268
587.15	0.268
587.36	0.267
587.56	0.266
587.76	0.265
587.97	0.264
588.17	0.262
588.37	0.262
588.58	0.262
588.78	0.259
588.98	0.260
589.19	0.258
589.39	0.256
589.60	0.258
589.80	0.255
590.00	0.255
590.21	0.255
590.41	0.253
590.61	0.253
590.82	0.252
591.02	0.252
591.22	0.250
591.43	0.251
591.63	0.249
591.83	0.248
592.04	0.247
592.24	0.247
592.44	0.244
592.65	0.243
592.85	0.243
593.05	0.243
593.26	0.242
593.46	0.241
593.66	0.240
593.86	0.239
594.07	0.238
594.27	0.238
594.47	0.237
594.68	0.236
594.88	0.237
595.08	0.236
595.29	0.236
595.49	0.234
595.69	0.233
595.90	0.233
596.10	0.233
596.30	0.233
596.50	0.231
596.71	0.232
596.91	0.231
597.11	0.229
597.32	0.229
597.52	0.228
597.72	0.228
597.93	0.228
598.13	0.226
598.33	0.226
598.53	0.225
598.74	0.224
598.94	0.223
599.14	0.223
599.35	0.223
599.55	0.223
599.75	0.222
599.95	0.221
600.16	0.221
600.36	0.219
600.56	0.220
600.76	0.219
600.97	0.217
601.17	0.216
601.37	0.216
601.58	0.215
601.78	0.215
601.98	0.214
602.18	0.213
602.39	0.212
602.59	0.212
602.79	0.211
602.99	0.211
603.20	0.210
603.40	0.210
603.60	0.211
603.80	0.210
604.01	0.210
604.21	0.209
604.41	0.208
604.61	0.208
604.82	0.207
605.02	0.208
605.22	0.207
605.42	0.207
605.62	0.206
605.83	0.205
606.03	0.204
606.23	0.204
606.43	0.204
606.64	0.204
606.84	0.203
607.04	0.202
607.24	0.202
607.45	0.201
607.65	0.200
607.85	0.201
608.05	0.199
608.25	0.199
608.46	0.198
608.66	0.198
608.86	0.198
609.06	0.197
609.26	0.196
609.47	0.196
609.67	0.195
609.87	0.196
610.07	0.196
610.28	0.194
610.48	0.195
610.68	0.195
610.88	0.193
611.08	0.194
611.29	0.192
611.49	0.192
611.69	0.192
611.89	0.191
612.09	0.190
612.29	0.189
612.50	0.189
612.70	0.189
612.90	0.187
613.10	0.188
613.30	0.187
613.51	0.187
613.71	0.186
613.91	0.190
614.11	0.186
614.31	0.186
614.51	0.185
614.72	0.185
614.92	0.184
615.12	0.184
615.32	0.184
615.52	0.184
615.72	0.184
615.93	0.184
616.13	0.183
616.33	0.183
616.53	0.182
616.73	0.183
616.93	0.181
617.14	0.182
617.34	0.182
617.54	0.182
617.74	0.182
617.94	0.180
618.14	0.180
618.34	0.179
618.55	0.179
618.75	0.180
618.95	0.180
619.15	0.179
619.35	0.178
619.55	0.177
619.75	0.178
619.96	0.177
620.16	0.178
620.36	0.178
620.56	0.177
620.76	0.177
620.96	0.177
621.16	0.176
621.36	0.176
621.57	0.176
621.77	0.176
621.97	0.175
622.17	0.175
622.37	0.174
622.57	0.174
622.77	0.174
622.97	0.172
623.18	0.173
623.38	0.173
623.58	0.172
623.78	0.172
623.98	0.171
624.18	0.171
624.38	0.171
624.58	0.170
624.78	0.171
624.98	0.171
625.19	0.171
625.39	0.171
625.59	0.170
625.79	0.170
625.99	0.170
626.19	0.170
626.39	0.169
626.59	0.169
626.79	0.169
626.99	0.169
627.19	0.168
627.40	0.168
627.60	0.168
627.80	0.167
628.00	0.167
628.20	0.166
628.40	0.166
628.60	0.166
628.80	0.165
629.00	0.165
629.20	0.165
629.40	0.165
629.60	0.164
629.80	0.164
630.00	0.164
630.20	0.164
630.41	0.163
630.61	0.163
630.81	0.163
631.01	0.163
631.21	0.163
631.41	0.163
631.61	0.163
631.81	0.162
632.01	0.162
632.21	0.162
632.41	0.161
632.61	0.161
632.81	0.161
633.01	0.161
633.21	0.160
633.41	0.161
633.61	0.160
633.81	0.160
634.01	0.159
634.21	0.159
634.41	0.159
634.61	0.159
634.81	0.159
635.01	0.159
635.22	0.159
635.42	0.159
635.62	0.158
635.82	0.158
636.02	0.158
636.22	0.157
636.42	0.157
636.62	0.157
636.82	0.156
637.02	0.156
637.22	0.156
637.42	0.155
637.62	0.154
637.82	0.155
638.02	0.154
638.22	0.154
638.42	0.154
638.62	0.153
638.82	0.153
639.02	0.153
639.22	0.153
639.42	0.152
639.62	0.152
639.82	0.151
640.02	0.151
640.22	0.151
640.42	0.151
640.62	0.151
640.82	0.151
641.02	0.150
641.22	0.151
641.42	0.150
641.61	0.151
641.81	0.151
642.01	0.151
642.21	0.151
642.41	0.151
642.61	0.151
642.81	0.150
643.01	0.149
643.21	0.149
643.41	0.149
643.61	0.149
643.81	0.148
644.01	0.147
644.21	0.147
644.41	0.147
644.61	0.147
644.81	0.147
645.01	0.148
645.21	0.147
645.41	0.147
645.61	0.147
645.81	0.146
646.01	0.146
646.21	0.147
646.40	0.146
646.60	0.146
646.80	0.146
647.00	0.145
647.20	0.144
647.40	0.144
647.60	0.144
647.80	0.144
648.00	0.144
648.20	0.144
648.40	0.144
648.60	0.143
648.80	0.143
649.00	0.143
649.20	0.143
649.39	0.143
649.59	0.142
649.79	0.142
649.99	0.142
650.19	0.141
650.39	0.141
650.59	0.141
650.79	0.140
650.99	0.140
651.19	0.139
651.39	0.140
651.58	0.140
651.78	0.139
651.98	0.139
652.18	0.139
652.38	0.139
652.58	0.139
652.78	0.138
652.98	0.138
653.18	0.138
653.38	0.138
653.57	0.138
653.77	0.138
653.97	0.137
654.17	0.138
654.37	0.137
654.57	0.137
654.77	0.137
654.97	0.136
655.16	0.136
655.36	0.136
655.56	0.135
655.76	0.135
655.96	0.135
656.16	0.134
656.36	0.134
656.56	0.134
656.75	0.134
656.95	0.134
657.15	0.134
657.35	0.133
657.55	0.133
657.75	0.133
657.95	0.133
658.14	0.132
658.34	0.132
658.54	0.132
658.74	0.132
658.94	0.131
659.14	0.132
659.34	0.132
659.53	0.131
659.73	0.131
659.93	0.130
660.13	0.130
660.33	0.130
660.53	0.130
660.72	0.131
660.92	0.130
661.12	0.130
661.32	0.130
661.52	0.129
661.72	0.129
661.91	0.128
662.11	0.128
662.31	0.128
662.51	0.128
662.71	0.127
662.90	0.127
663.10	0.127
663.30	0.127
663.50	0.126
663.70	0.126
663.90	0.126
664.09	0.126
664.29	0.125
664.49	0.125
664.69	0.124
664.89	0.125
665.08	0.125
665.28	0.124
665.48	0.124
665.68	0.123
665.88	0.124
666.07	0.123
666.27	0.123
666.47	0.124
666.67	0.124
666.87	0.124
667.06	0.124
667.26	0.123
667.46	0.123
667.66	0.123
667.85	0.123
668.05	0.123
668.25	0.123
668.45	0.123
668.65	0.122
668.84	0.122
669.04	0.122
669.24	0.121
669.44	0.121
669.63	0.121
669.83	0.120
670.03	0.120
670.23	0.119
670.42	0.119
670.62	0.119
670.82	0.118
671.02	0.118
671.22	0.117
671.41	0.117
671.61	0.118
671.81	0.118
672.01	0.118
672.20	0.118
672.40	0.117
672.60	0.117
672.80	0.117
672.99	0.117
673.19	0.117
673.39	0.117
673.58	0.117
673.78	0.116
673.98	0.116
674.18	0.115
674.37	0.115
674.57	0.114
674.77	0.115
674.97	0.115
675.16	0.115
675.36	0.114
675.56	0.114
675.75	0.114
675.95	0.113
676.15	0.113
676.35	0.113
676.54	0.113
676.74	0.113
676.94	0.113
677.13	0.112
677.33	0.112
677.53	0.112
677.73	0.112
677.92	0.111
678.12	0.112
678.32	0.111
678.51	0.111
678.71	0.111
678.91	0.110
679.11	0.110
679.30	0.110
679.50	0.110
679.70	0.109
679.89	0.109
680.09	0.109
680.29	0.109
680.48	0.109
680.68	0.109
680.88	0.109
681.07	0.109
681.27	0.109
681.47	0.109
681.66	0.109
681.86	0.108
682.06	0.108
682.25	0.108
682.45	0.108
682.65	0.107
682.84	0.107
683.04	0.106
683.24	0.106
683.43	0.106
683.63	0.105
683.83	0.106
684.02	0.105
684.22	0.105
684.42	0.105
684.61	0.105
684.81	0.105
685.01	0.104
685.20	0.104
685.40	0.104
685.60	0.104
685.79	0.104
685.99	0.104
686.19	0.104
686.38	0.104
686.58	0.104
686.77	0.105
686.97	0.104
687.17	0.104
687.36	0.104
687.56	0.104
687.76	0.104
687.95	0.103
688.15	0.103
688.34	0.103
688.54	0.102
688.74	0.102
688.93	0.102
689.13	0.102
689.33	0.102
689.52	0.101
689.72	0.102
689.91	0.101
690.11	0.101
690.31	0.100
690.50	0.100
690.70	0.100
690.89	0.100
691.09	0.099
691.29	0.099
691.48	0.099
691.68	0.099
691.87	0.099
692.07	0.099
692.27	0.098
692.46	0.098
692.66	0.098
692.85	0.098
693.05	0.098
693.25	0.098
693.44	0.098
693.64	0.098
693.83	0.098
694.03	0.097
694.22	0.097
694.42	0.097
694.62	0.097
694.81	0.097
695.01	0.097
695.20	0.097
695.40	0.096
695.59	0.096
695.79	0.096
695.99	0.096
696.18	0.096
696.38	0.096
696.57	0.096
696.77	0.096
696.96	0.096
697.16	0.096
697.36	0.096
697.55	0.096
697.75	0.096
697.94	0.095
698.14	0.095
698.33	0.094
698.53	0.094
698.72	0.094
698.92	0.094
699.11	0.094
699.31	0.094
699.51	0.094
699.70	0.093
699.90	0.093
700.09	0.094
700.29	0.093
700.48	0.094
700.68	0.093
700.87	0.093
701.07	0.093
701.26	0.092
701.46	0.092
701.65	0.092
701.85	0.092
702.04	0.092
702.24	0.092
702.43	0.092
702.63	0.092
702.82	0.092
703.02	0.092
703.21	0.092
703.41	0.091
703.60	0.091
703.80	0.091
703.99	0.090
704.19	0.091
704.38	0.090
704.58	0.090
704.77	0.090
704.97	0.089
705.16	0.090
705.36	0.090
705.55	0.090
705.75	0.089
705.94	0.090
706.14	0.089
706.33	0.090
706.53	0.090
706.72	0.090
706.92	0.089
707.11	0.089
707.31	0.089
707.50	0.089
707.70	0.089
707.89	0.089
708.09	0.089
708.28	0.089
708.48	0.089
708.67	0.089
708.86	0.089
709.06	0.089
709.25	0.089
709.45	0.089
709.64	0.089
709.84	0.088
710.03	0.088
710.23	0.088
710.42	0.087
710.62	0.087
710.81	0.087
711.00	0.087
711.20	0.087
711.39	0.086
711.59	0.086
711.78	0.086
711.98	0.086
712.17	0.086
712.37	0.086
712.56	0.087
712.75	0.087
712.95	0.087
713.14	0.087
713.34	0.087
713.53	0.087
713.73	0.088
713.92	0.087
714.11	0.087
714.31	0.087
714.50	0.087
714.70	0.087
714.89	0.087
715.08	0.087
715.28	0.086
715.47	0.086
715.67	0.087
715.86	0.087
716.06	0.087
716.25	0.086
716.44	0.086
716.64	0.086
716.83	0.086
717.03	0.086
717.22	0.085
717.41	0.085
717.61	0.085
717.80	0.085
717.99	0.085
718.19	0.085
718.38	0.085
718.58	0.084
718.77	0.084
718.96	0.084
719.16	0.084
719.35	0.084
719.55	0.084
719.74	0.084
719.93	0.083
720.13	0.083
720.32	0.083
720.51	0.083
720.71	0.083
720.90	0.083
721.10	0.083
721.29	0.083
721.48	0.083
721.68	0.083
721.87	0.083
722.06	0.083
722.26	0.084
722.45	0.083
722.64	0.083
722.84	0.083
723.03	0.084
723.22	0.084
723.42	0.084
723.61	0.084
723.80	0.084
724.00	0.084
724.19	0.084
724.38	0.084
724.58	0.084
724.77	0.084
724.96	0.083
725.16	0.084
725.35	0.084
725.54	0.084
725.74	0.084
725.93	0.084
726.12	0.084
726.32	0.084
726.51	0.084
726.70	0.083
726.90	0.084
727.09	0.084
727.28	0.083
727.48	0.084
727.67	0.084
727.86	0.084
728.06	0.084
728.25	0.084
728.44	0.083
728.64	0.084
728.83	0.084
729.02	0.083
729.21	0.084
729.41	0.084
729.60	0.083
729.79	0.083
729.99	0.083
730.18	0.083
730.37	0.083
730.56	0.083
730.76	0.082
730.95	0.083
731.14	0.083
731.34	0.083
731.53	0.083
731.72	0.083
731.91	0.083
732.11	0.082
732.30	0.083
732.49	0.083
732.69	0.083
732.88	0.083
733.07	0.083
733.26	0.084
733.46	0.083
733.65	0.083
733.84	0.083
734.03	0.084
734.23	0.084
734.42	0.084
734.61	0.084
734.80	0.083
735.00	0.083
735.19	0.083
735.38	0.083
735.57	0.083
735.77	0.083
735.96	0.083
736.15	0.083
736.34	0.083
736.54	0.083
736.73	0.083
736.92	0.083
737.11	0.083
737.31	0.083
737.50	0.084
737.69	0.084
737.88	0.084
738.07	0.083
738.27	0.083
738.46	0.083
738.65	0.083
738.84	0.083
739.04	0.083
739.23	0.083
739.42	0.083
739.61	0.083
739.80	0.083
740.00	0.083
740.19	0.083
740.38	0.083
740.57	0.083
740.76	0.083
740.96	0.083
741.15	0.083
741.34	0.082
741.53	0.082
741.72	0.082
741.92	0.082
742.11	0.082
742.30	0.082
742.49	0.082
742.68	0.082
742.88	0.082
743.07	0.082
743.26	0.083
743.45	0.083
743.64	0.082
743.84	0.082
744.03	0.082
744.22	0.082
744.41	0.081
744.60	0.081
744.79	0.081
744.99	0.081
745.18	0.081
745.37	0.081
745.56	0.081
745.75	0.081
745.94	0.081
746.14	0.081
746.33	0.081
746.52	0.081
746.71	0.081
746.90	0.081
747.09	0.081
747.28	0.081
747.48	0.081
747.67	0.080
747.86	0.080
748.05	0.080
748.24	0.080
748.43	0.080
748.62	0.080
748.82	0.080
749.01	0.080
749.20	0.080
749.39	0.079
749.58	0.080
749.77	0.079
749.96	0.079
750.16	0.080
750.35	0.079
750.54	0.079
750.73	0.080
750.92	0.080
751.11	0.079
751.30	0.080
751.49	0.080
751.68	0.079
751.88	0.080
752.07	0.079
752.26	0.079
752.45	0.079
752.64	0.079
752.83	0.079
753.02	0.079
753.21	0.079
753.40	0.078
753.60	0.078
753.79	0.078
753.98	0.079
754.17	0.079
754.36	0.079
754.55	0.078
754.74	0.079
754.93	0.078
755.12	0.079
755.31	0.079
755.50	0.079
755.70	0.079
755.89	0.078
756.08	0.078
756.27	0.078
756.46	0.078
756.65	0.078
756.84	0.078
757.03	0.078
757.22	0.077
757.41	0.077
757.60	0.077
757.79	0.077
757.98	0.077
758.17	0.078
758.36	0.078
758.56	0.077
758.75	0.077
758.94	0.077
759.13	0.078
759.32	0.078
759.51	0.077
759.70	0.077
759.89	0.077
760.08	0.078
760.27	0.077
760.46	0.077
760.65	0.077
760.84	0.077
761.03	0.077
761.22	0.077
761.41	0.077
761.60	0.077
761.79	0.077
761.98	0.077
762.17	0.076
762.36	0.076
762.55	0.076
762.74	0.076
762.93	0.075
763.12	0.075
763.31	0.075
763.50	0.075
763.69	0.075
763.88	0.075
764.07	0.075
764.26	0.075
764.45	0.075
764.64	0.075
764.83	0.075
765.02	0.075
765.21	0.075
765.40	0.076
765.59	0.075
765.78	0.075
765.97	0.076
766.16	0.076
766.35	0.075
766.54	0.076
766.73	0.075
766.92	0.075
767.11	0.075
767.30	0.075
767.49	0.075
767.68	0.075
767.87	0.074
768.06	0.074
768.25	0.074
768.44	0.075
768.63	0.075
768.82	0.075
769.01	0.074
769.20	0.074
769.39	0.075
769.58	0.075
769.77	0.075
769.96	0.075
770.15	0.075
770.34	0.075
770.53	0.075
770.72	0.074
770.91	0.074
771.10	0.074
771.29	0.074
771.47	0.074
771.66	0.073
771.85	0.073
772.04	0.073
772.23	0.074
772.42	0.073
772.61	0.073
772.80	0.073
772.99	0.073
773.18	0.073
773.37	0.074
773.56	0.074
773.75	0.074
773.94	0.074
774.13	0.073
774.31	0.073
774.50	0.073
774.69	0.074
774.88	0.073
775.07	0.074
775.26	0.074
775.45	0.073
775.64	0.073
775.83	0.073
776.02	0.072
776.21	0.072
776.40	0.073
776.58	0.072
776.77	0.072
776.96	0.073
777.15	0.073
777.34	0.073
777.53	0.073
777.72	0.073
777.91	0.073
778.10	0.073
778.28	0.073
778.47	0.073
778.66	0.073
778.85	0.072
779.04	0.072
779.23	0.072
779.42	0.072
779.61	0.072
779.79	0.072
779.98	0.072
780.17	0.072
780.36	0.072
780.55	0.071
780.74	0.071
780.93	0.071
781.12	0.071
781.30	0.071
781.49	0.071
781.68	0.071
781.87	0.071
782.06	0.071
782.25	0.071
782.44	0.071
782.62	0.071
782.81	0.072
783.00	0.071
783.19	0.071
783.38	0.071
783.57	0.071
783.75	0.071
783.94	0.071
784.13	0.071
784.32	0.071
784.51	0.071
784.70	0.071
784.88	0.071
785.07	0.071
785.26	0.070
785.45	0.070
785.64	0.069
785.83	0.070
786.01	0.070
786.20	0.070
786.39	0.070
786.58	0.070
786.77	0.069
786.95	0.070
787.14	0.070
787.33	0.070
787.52	0.070
787.71	0.070
787.90	0.070
788.08	0.070
788.27	0.070
788.46	0.069
788.65	0.070
788.84	0.070
789.02	0.070
789.21	0.070
789.40	0.070
789.59	0.070
789.77	0.070
789.96	0.070
790.15	0.070
790.34	0.070
790.53	0.070
790.71	0.070
790.90	0.070
791.09	0.070
791.28	0.070
791.46	0.070
791.65	0.070
791.84	0.070
792.03	0.070
792.22	0.070
792.40	0.069
792.59	0.069
792.78	0.069
792.97	0.069
793.15	0.069
793.34	0.069
793.53	0.069
793.72	0.069
793.90	0.068
794.09	0.069
794.28	0.069
794.47	0.069
794.65	0.069
794.84	0.069
795.03	0.069
795.22	0.068
795.40	0.068
795.59	0.068
795.78	0.068
795.97	0.068
796.15	0.068
796.34	0.068
796.53	0.068
796.71	0.069
796.90	0.068
797.09	0.069
797.28	0.069
797.46	0.069
797.65	0.069
797.84	0.069
798.02	0.069
798.21	0.068
798.40	0.069
798.59	0.068
798.77	0.068
798.96	0.068
799.15	0.068
799.33	0.068
799.52	0.068
799.71	0.068
799.90	0.068
800.08	0.068
800.27	0.068
800.46	0.068
800.64	0.068
800.83	0.068
801.02	0.068
801.20	0.068
801.39	0.068
801.58	0.068
801.76	0.068
801.95	0.067
802.14	0.067
802.32	0.067
802.51	0.067
802.70	0.067
802.88	0.067
803.07	0.067
803.26	0.067
803.44	0.067
803.63	0.067
803.82	0.067
804.00	0.067
804.19	0.067
804.38	0.067
804.56	0.067
804.75	0.067
804.94	0.067
805.12	0.067
805.31	0.067
805.50	0.068
805.68	0.067
805.87	0.068
806.06	0.068
806.24	0.067
806.43	0.067
806.62	0.067
806.80	0.068
806.99	0.067
807.17	0.067
807.36	0.067
807.55	0.067
807.73	0.067
807.92	0.067
808.11	0.068
808.29	0.067
808.48	0.067
808.66	0.067
808.85	0.067
809.04	0.067
809.22	0.067
809.41	0.067
809.59	0.067
809.78	0.067
809.97	0.067
810.15	0.067
810.34	0.067
810.53	0.067
810.71	0.067
810.90	0.067
811.08	0.067
811.27	0.066
811.45	0.067
811.64	0.067
811.83	0.066
812.01	0.066
812.20	0.066
812.38	0.066
812.57	0.066
812.76	0.066
812.94	0.066
813.13	0.066
813.31	0.066
813.50	0.066
813.68	0.066
813.87	0.066
814.06	0.067
814.24	0.066
814.43	0.066
814.61	0.066
814.80	0.066
814.98	0.066
815.17	0.066
815.36	0.066
815.54	0.066
815.73	0.066
815.91	0.065
816.10	0.065
816.28	0.065
816.47	0.065
816.65	0.065
816.84	0.066
817.03	0.066
817.21	0.066
817.40	0.066
817.58	0.066
817.77	0.066
817.95	0.066
818.14	0.066
818.32	0.067
818.51	0.067
818.69	0.067
818.88	0.067
819.06	0.066
819.25	0.066
819.43	0.066
819.62	0.066
819.80	0.066
819.99	0.067
820.18	0.067
820.36	0.067
820.55	0.067
820.73	0.067
820.92	0.067
821.10	0.067
821.29	0.067
821.47	0.067
821.66	0.067
821.84	0.067
822.03	0.067
822.21	0.067
822.40	0.066
822.58	0.066
822.77	0.066
822.95	0.067
823.14	0.067
823.32	0.067
823.50	0.067
823.69	0.067
823.87	0.067
824.06	0.067
824.24	0.068
824.43	0.068
824.61	0.068
824.80	0.068
824.98	0.069
825.17	0.069
825.35	0.069
825.54	0.069
825.72	0.068
825.91	0.068
826.09	0.068
826.28	0.068
826.46	0.069
826.64	0.068
826.83	0.068
827.01	0.068
827.20	0.068
827.38	0.068
827.57	0.069
827.75	0.069
827.94	0.069
828.12	0.069
828.31	0.069
828.49	0.069
828.67	0.069
828.86	0.070
829.04	0.069
829.23	0.070
829.41	0.070
829.60	0.070
829.78	0.070
829.96	0.070
830.15	0.071
830.33	0.071
830.52	0.071
830.70	0.071
830.88	0.071
831.07	0.072
831.25	0.072
831.44	0.072
831.62	0.072
831.81	0.072
831.99	0.071
832.17	0.072
832.36	0.072
832.54	0.072
832.73	0.072
832.91	0.072
833.09	0.072
833.28	0.072
833.46	0.072
833.65	0.072
833.83	0.072
834.01	0.072
834.20	0.072
834.38	0.072
834.56	0.072
834.75	0.072
834.93	0.072
835.12	0.072
835.30	0.073
835.48	0.073
835.67	0.072
835.85	0.072
836.03	0.072
836.22	0.072
836.40	0.072
836.59	0.073
836.77	0.073
836.95	0.073
837.14	0.073
837.32	0.073
837.50	0.073
837.69	0.073
837.87	0.073
838.05	0.073
838.24	0.073
838.42	0.073
838.60	0.073
838.79	0.074
838.97	0.073
839.15	0.073
839.34	0.073
839.52	0.073
839.70	0.073
839.89	0.073
840.07	0.073
840.25	0.073
840.44	0.073
840.62	0.074
840.80	0.074
840.99	0.074
841.17	0.074
841.35	0.074
841.54	0.073
841.72	0.074
841.90	0.074
842.09	0.073
842.27	0.073
842.45	0.073
842.64	0.073
842.82	0.073
843.00	0.074
843.19	0.074
843.37	0.074
843.55	0.074
843.73	0.074
843.92	0.074
844.10	0.074
844.28	0.074
844.47	0.075
844.65	0.074
844.83	0.074
845.01	0.075
845.20	0.075
845.38	0.075
845.56	0.075
845.75	0.074
845.93	0.074
846.11	0.074
846.29	0.074
846.48	0.074
846.66	0.075
846.84	0.075
847.02	0.074
847.21	0.074
847.39	0.074
847.57	0.074
847.76	0.075
847.94	0.075
848.12	0.075
848.30	0.075
848.49	0.075
848.67	0.075
848.85	0.075
849.03	0.075
849.22	0.075
849.40	0.075
849.58	0.075
849.76	0.075
849.95	0.075
850.13	0.075
850.31	0.075
850.49	0.075
850.67	0.076
850.86	0.076
851.04	0.076
851.22	0.075
851.40	0.075
851.59	0.075
851.77	0.075
851.95	0.075
852.13	0.075
852.31	0.075
852.50	0.075
852.68	0.075
852.86	0.075
853.04	0.075
853.23	0.075
853.41	0.075
853.59	0.075
853.77	0.075
853.95	0.075
854.14	0.075
854.32	0.075
854.50	0.074
854.68	0.074
854.86	0.074
855.04	0.074
855.23	0.074
855.41	0.074
855.59	0.075
855.77	0.075
855.95	0.075
856.14	0.075
856.32	0.075
856.50	0.075
856.68	0.075
856.86	0.076
857.04	0.075
857.23	0.075
857.41	0.075
857.59	0.075
857.77	0.075
857.95	0.075
858.13	0.075
858.32	0.075
858.50	0.076
858.68	0.075
858.86	0.075
859.04	0.076
859.22	0.076
859.41	0.076
859.59	0.076
859.77	0.076
859.95	0.075
860.13	0.075
860.31	0.075
860.49	0.075
860.68	0.076
860.86	0.076
861.04	0.075
861.22	0.075
861.40	0.075
861.58	0.075
861.76	0.075
861.94	0.076
862.13	0.076
862.31	0.076
862.49	0.076
862.67	0.076
862.85	0.076
863.03	0.077
863.21	0.077
863.39	0.076
863.57	0.077
863.76	0.077
863.94	0.077
864.12	0.077
864.30	0.077
864.48	0.076
864.66	0.076
864.84	0.076
865.02	0.077
865.20	0.077
865.38	0.077
865.57	0.077
865.75	0.077
865.93	0.077
866.11	0.077
866.29	0.077
866.47	0.077
866.65	0.077
866.83	0.077
867.01	0.077
867.19	0.077
867.37	0.076
867.55	0.076
867.73	0.076
867.92	0.076
868.10	0.077
868.28	0.076
868.46	0.076
868.64	0.076
868.82	0.076
869.00	0.076
869.18	0.077
869.36	0.077
869.54	0.077
869.72	0.078
869.90	0.077
870.08	0.077
870.26	0.078
870.44	0.078
870.62	0.078
870.80	0.078
870.98	0.078
871.16	0.078
871.34	0.077
871.53	0.078
871.71	0.078
871.89	0.078
872.07	0.078
872.25	0.078
872.43	0.078
872.61	0.078
872.79	0.078
872.97	0.078
873.15	0.079
873.33	0.079
873.51	0.079
873.69	0.079
873.87	0.079
874.05	0.079
874.23	0.079
874.41	0.079
874.59	0.080
874.77	0.079
874.95	0.079
875.13	0.079
875.31	0.078
875.49	0.078
875.67	0.078
875.85	0.078
876.03	0.078
876.21	0.079
876.39	0.079
876.57	0.079
876.75	0.079
876.93	0.079
877.11	0.079
877.29	0.079
877.47	0.078
877.65	0.079
877.82	0.079
878.00	0.079
878.18	0.079
878.36	0.079
878.54	0.079
878.72	0.079
878.90	0.079
879.08	0.079
879.26	0.079
879.44	0.080
879.62	0.079
879.80	0.079
879.98	0.079
880.16	0.079
880.34	0.079
880.52	0.079
880.70	0.079
880.88	0.079
881.06	0.079
881.24	0.079
881.42	0.079
881.59	0.079
881.77	0.079
881.95	0.079
882.13	0.080
882.31	0.080
882.49	0.079
882.67	0.080
882.85	0.080
883.03	0.080
883.21	0.080
883.39	0.080
883.57	0.080
883.75	0.080
883.92	0.081
884.10	0.081
884.28	0.081
884.46	0.081
884.64	0.081
884.82	0.081
885.00	0.081
885.18	0.081
885.36	0.082
885.54	0.082
885.71	0.082
885.89	0.082
886.07	0.081
886.25	0.081
886.43	0.082
886.61	0.082
886.79	0.081
886.97	0.081
887.15	0.082
887.32	0.081
887.50	0.081
887.68	0.081
887.86	0.081
888.04	0.081
888.22	0.081
888.40	0.081
888.57	0.081
888.75	0.082
888.93	0.082
889.11	0.082
889.29	0.082
889.47	0.082
889.65	0.082
889.82	0.082
890.00	0.083
890.18	0.082
890.36	0.083
890.54	0.083
890.72	0.083
890.90	0.083
891.07	0.082
891.25	0.082
891.43	0.082
891.61	0.082
891.79	0.082
891.97	0.082
892.14	0.082
892.32	0.082
892.50	0.082
892.68	0.082
892.86	0.082
893.03	0.083
893.21	0.083
893.39	0.083
893.57	0.083
893.75	0.083
893.93	0.083
894.10	0.083
894.28	0.082
894.46	0.083
894.64	0.082
894.82	0.082
894.99	0.082
895.17	0.082
895.35	0.082
895.53	0.082
895.71	0.082
895.88	0.082
896.06	0.082
896.24	0.083
896.42	0.082
896.59	0.083
896.77	0.083
896.95	0.083
897.13	0.083
897.31	0.083
897.48	0.083
897.66	0.083
897.84	0.083
898.02	0.083
898.19	0.083
898.37	0.083
898.55	0.083
898.73	0.084
898.91	0.083
899.08	0.083
899.26	0.083
899.44	0.084
899.62	0.084
899.79	0.084
899.97	0.085
900.15	0.084
900.33	0.085
900.50	0.085
900.68	0.085
900.86	0.085
901.04	0.085
901.21	0.085
901.39	0.085
901.57	0.085
901.74	0.085
901.92	0.085
902.10	0.085
902.28	0.085
902.45	0.085
902.63	0.085
902.81	0.085
902.99	0.085
903.16	0.085
903.34	0.085
903.52	0.085
903.69	0.085
903.87	0.085
904.05	0.086
904.22	0.086
904.40	0.086
904.58	0.086
904.76	0.086
904.93	0.086
905.11	0.086
905.29	0.086
905.46	0.086
905.64	0.086
905.82	0.086
905.99	0.086
906.17	0.086
906.35	0.086
906.53	0.086
906.70	0.087
906.88	0.087
907.06	0.086
907.23	0.086
907.41	0.087
907.59	0.087
907.76	0.087
907.94	0.087
908.12	0.087
908.29	0.087
908.47	0.087
908.65	0.087
908.82	0.087
909.00	0.087
909.18	0.088
909.35	0.088
909.53	0.088
909.71	0.088
909.88	0.088
910.06	0.088
910.23	0.088
910.41	0.088
910.59	0.088
910.76	0.088
910.94	0.088
911.12	0.087
911.29	0.087
911.47	0.087
911.65	0.088
911.82	0.088
912.00	0.088
912.17	0.088
912.35	0.088
912.53	0.088
912.70	0.088
912.88	0.089
913.06	0.089
913.23	0.089
913.41	0.090
913.58	0.090
913.76	0.090
913.94	0.090
914.11	0.091
914.29	0.090
914.46	0.091
914.64	0.091
914.82	0.091
914.99	0.091
915.17	0.091
915.34	0.091
915.52	0.091
915.70	0.091
915.87	0.091
916.05	0.091
916.22	0.091
916.40	0.091
916.57	0.091
916.75	0.092
916.93	0.092
917.10	0.091
917.28	0.092
917.45	0.091
917.63	0.091
917.80	0.091
917.98	0.092
918.16	0.092
918.33	0.092
918.51	0.092
918.68	0.092
918.86	0.092
919.03	0.092
919.21	0.093
919.39	0.093
919.56	0.094
919.74	0.094
919.91	0.094
920.09	0.094
920.26	0.094
920.44	0.094
920.61	0.095
920.79	0.095
920.96	0.095
921.14	0.095
921.31	0.095
921.49	0.095
921.67	0.096
921.84	0.096
922.02	0.096
922.19	0.097
922.37	0.097
922.54	0.097
922.72	0.097
922.89	0.098
923.07	0.098
923.24	0.099
923.42	0.099
923.59	0.099
923.77	0.099
923.94	0.100
924.12	0.100
924.29	0.100
924.47	0.100
924.64	0.101
924.82	0.101
924.99	0.101
925.17	0.102
925.34	0.102
925.52	0.102
925.69	0.103
925.87	0.103
926.04	0.103
926.22	0.104
926.39	0.104
926.57	0.104
926.74	0.104
926.91	0.105
927.09	0.105
927.26	0.105
927.44	0.105
927.61	0.105
927.79	0.106
927.96	0.106
928.14	0.106
928.31	0.106
928.49	0.106
928.66	0.107
928.84	0.108
929.01	0.108
929.18	0.109
929.36	0.109
929.53	0.110
929.71	0.110
929.88	0.111
930.06	0.111
930.23	0.111
930.41	0.112
930.58	0.112
930.75	0.112
930.93	0.113
931.10	0.113
931.28	0.114
931.45	0.114
931.63	0.114
931.80	0.114
931.97	0.115
932.15	0.116
932.32	0.116
932.50	0.116
932.67	0.117
932.84	0.117
933.02	0.118
933.19	0.118
933.37	0.119
933.54	0.119
933.71	0.120
933.89	0.121
934.06	0.121
934.24	0.122
934.41	0.122
934.58	0.123
934.76	0.123
934.93	0.123
935.11	0.124
935.28	0.124
935.45	0.124
935.63	0.125
935.80	0.125
935.98	0.126
936.15	0.126
936.32	0.127
936.50	0.127
936.67	0.128
936.84	0.128
937.02	0.129
937.19	0.130
937.36	0.130
937.54	0.130
937.71	0.131
937.89	0.132
938.06	0.132
938.23	0.133
938.41	0.134
938.58	0.134
938.75	0.134
938.93	0.135
939.10	0.135
939.27	0.136
939.45	0.137
939.62	0.137
939.79	0.138
939.97	0.138
940.14	0.139
940.31	0.139
940.49	0.140
940.66	0.140
940.83	0.140
941.01	0.141
941.18	0.142
941.35	0.142
941.53	0.143
941.70	0.144
941.87	0.144
942.05	0.145
942.22	0.145
942.39	0.147
942.57	0.147
942.74	0.149
942.91	0.148
943.08	0.149
943.26	0.149
943.43	0.150
943.60	0.151
943.78	0.152
943.95	0.152
944.12	0.152
944.29	0.153
944.47	0.154
944.64	0.154
944.81	0.156
944.99	0.156
945.16	0.157
945.33	0.157
945.50	0.158
945.68	0.159
945.85	0.159
946.02	0.161
946.20	0.161
946.37	0.163
946.54	0.163
946.71	0.165
946.89	0.165
947.06	0.166
947.23	0.167
947.40	0.169
947.58	0.169
947.75	0.170
947.92	0.171
948.09	0.171
948.27	0.172
948.44	0.173
948.61	0.174
948.78	0.175
948.96	0.176
949.13	0.177
949.30	0.177
949.47	0.178
949.65	0.179
949.82	0.182
949.99	0.182
950.16	0.184
950.33	0.185
950.51	0.187
950.68	0.188
950.85	0.189
951.02	0.190
951.20	0.191
951.37	0.192
951.54	0.193
951.71	0.194
951.88	0.195
952.06	0.196
952.23	0.196
952.40	0.198
952.57	0.199
952.74	0.201
952.92	0.202
953.09	0.203
953.26	0.205
953.43	0.205
953.60	0.207
953.77	0.207
953.95	0.208
954.12	0.211
954.29	0.211
954.46	0.214
954.63	0.215
954.81	0.215
954.98	0.216
955.15	0.218
955.32	0.220
955.49	0.220
955.66	0.222
955.84	0.223
956.01	0.223
956.18	0.225
956.35	0.226
956.52	0.227
956.69	0.228
956.87	0.229
957.04	0.230
957.21	0.232
957.38	0.232
957.55	0.234
957.72	0.235
957.89	0.236
958.07	0.236
958.24	0.239
958.41	0.240
958.58	0.240
958.75	0.241
958.92	0.242
959.09	0.242
959.26	0.243
959.44	0.243
959.61	0.244
959.78	0.245
959.95	0.246
960.12	0.246
960.29	0.248
960.46	0.248
960.63	0.248
960.81	0.248
960.98	0.249
961.15	0.249
961.32	0.250
961.49	0.249
961.66	0.251
961.83	0.251
962.00	0.251
962.17	0.252
962.34	0.252
962.52	0.253
962.69	0.254
962.86	0.253
963.03	0.254
963.20	0.255
963.37	0.254
963.54	0.254
963.71	0.254
963.88	0.253
964.05	0.255
964.22	0.256
964.39	0.255
964.56	0.255
964.74	0.257
964.91	0.257
965.08	0.257
965.25	0.257
965.42	0.258
965.59	0.260
965.76	0.259
965.93	0.261
966.10	0.259
966.27	0.260
966.44	0.259
966.61	0.260
966.78	0.259
966.95	0.259
967.12	0.260
967.29	0.262
967.46	0.261
967.63	0.261
967.80	0.261
967.97	0.261
968.14	0.260
968.32	0.261
968.49	0.261
968.66	0.260
968.83	0.261
969.00	0.261
969.17	0.260
969.34	0.262
969.51	0.263
969.68	0.262
969.85	0.262
970.02	0.262
970.19	0.262
970.36	0.263
970.53	0.263
970.70	0.262
970.87	0.262
971.04	0.262
971.21	0.262
971.38	0.262
971.55	0.262
971.72	0.262
971.89	0.263
972.06	0.263
972.23	0.262
972.40	0.262
972.57	0.261
972.74	0.262
972.91	0.263
973.07	0.262
973.24	0.262
973.41	0.262
973.58	0.261
973.75	0.272
973.92	0.261
974.09	0.260
974.26	0.261
974.43	0.260
974.60	0.260
974.77	0.261
974.94	0.260
975.11	0.261
975.28	0.262
975.45	0.261
975.62	0.262
975.79	0.264
975.96	0.262
976.13	0.261
976.30	0.263
976.47	0.261
976.64	0.261
976.80	0.262
976.97	0.262
977.14	0.261
977.31	0.261
977.48	0.261
977.65	0.261
977.82	0.260
977.99	0.262
978.16	0.261
978.33	0.261
978.50	0.260
978.67	0.261
978.83	0.260
979.00	0.260
979.17	0.260
979.34	0.259
979.51	0.258
979.68	0.259
979.85	0.258
980.02	0.259
980.19	0.258
980.36	0.259
980.52	0.260
980.69	0.259
980.86	0.259
981.03	0.259
981.20	0.258
981.37	0.258
981.54	0.258
981.71	0.257
981.88	0.257
982.04	0.257
982.21	0.256
982.38	0.258
982.55	0.256
982.72	0.255
982.89	0.257
983.06	0.256
983.22	0.256
983.39	0.256
983.56	0.256
983.73	0.255
983.90	0.254
984.07	0.256
984.24	0.255
984.40	0.254
984.57	0.253
984.74	0.255
984.91	0.255
985.08	0.253
985.25	0.251
985.41	0.251
985.58	0.251
985.75	0.252
985.92	0.251
986.09	0.250
986.26	0.250
986.42	0.249
986.59	0.247
986.76	0.249
986.93	0.249
987.10	0.250
987.27	0.248
987.43	0.246
987.60	0.248
987.77	0.248
987.94	0.247
988.11	0.247
988.27	0.247
988.44	0.247
988.61	0.246
988.78	0.244
988.95	0.244
989.11	0.245
989.28	0.243
989.45	0.242
989.62	0.241
989.79	0.242
989.95	0.241
990.12	0.242
990.29	0.242
990.46	0.240
990.62	0.239
990.79	0.240
990.96	0.240
991.13	0.241
991.30	0.240
991.46	0.239
991.63	0.237
991.80	0.236
991.97	0.236
992.13	0.237
992.30	0.238
992.47	0.237
992.64	0.236
992.80	0.236
992.97	0.237
993.14	0.234
993.31	0.232
993.47	0.235
993.64	0.234
993.81	0.234
993.98	0.234
994.14	0.232
994.31	0.232
994.48	0.232
994.64	0.233
994.81	0.231
994.98	0.232
995.15	0.229
995.31	0.229
995.48	0.228
995.65	0.230
995.82	0.228
995.98	0.228
996.15	0.228
996.32	0.230
996.48	0.228
996.65	0.228
996.82	0.225
996.99	0.226
997.15	0.226
997.32	0.227
997.49	0.225
997.65	0.225
997.82	0.224
997.99	0.223
998.15	0.223
998.32	0.224
998.49	0.223
998.65	0.223
998.82	0.223
998.99	0.220
999.15	0.221
999.32	0.220
999.49	0.220
999.65	0.220
999.82	0.218
999.99	0.218
1000.15	0.218
1000.32	0.218
1000.49	0.218
1000.65	0.217
1000.82	0.216
1000.99	0.217
1001.15	0.216
1001.32	0.215
1001.49	0.215
1001.65	0.216
1001.82	0.218
1001.99	0.215
1002.15	0.214
1002.32	0.213
1002.49	0.214
1002.65	0.213
1002.82	0.211
1002.99	0.211
1003.15	0.212
1003.32	0.212
1003.48	0.212
1003.65	0.212
1003.82	0.211
1003.98	0.208
1004.15	0.208
1004.32	0.209
1004.48	0.208
1004.65	0.209
1004.81	0.206
1004.98	0.205
1005.15	0.206
1005.31	0.205
1005.48	0.203
1005.64	0.203
1005.81	0.205
1005.98	0.202
1006.14	0.200
1006.31	0.201
1006.47	0.200
1006.64	0.199
1006.81	0.199
1006.97	0.198
1007.14	0.198
1007.30	0.200
1007.47	0.200
1007.63	0.198
1007.80	0.196
1007.97	0.197
1008.13	0.197
1008.30	0.198
1008.46	0.198
1008.63	0.196
1008.79	0.197
1008.96	0.196
1009.13	0.197
1009.29	0.195
1009.46	0.194
1009.62	0.194
1009.79	0.193
1009.95	0.193
1010.12	0.193
1010.28	0.194
1010.45	0.192
1010.62	0.192
1010.78	0.191
1010.95	0.190
1011.11	0.190
1011.28	0.190
1011.44	0.193
1011.61	0.190
1011.77	0.189
1011.94	0.188
1012.10	0.188
1012.27	0.189
1012.43	0.188
1012.60	0.187
1012.76	0.188
1012.93	0.187
1013.10	0.185
1013.26	0.182
1013.43	0.183
1013.59	0.191
1013.76	0.184
1013.92	0.182
1014.09	0.180
1014.25	0.182
1014.42	0.182
1014.58	0.182
1014.75	0.184
1014.91	0.184
1015.08	0.186
1015.24	0.183
1015.41	0.185
1015.57	0.184
1015.73	0.183
1015.90	0.182
1016.06	0.184
1016.23	0.182
1016.39	0.181
1016.56	0.181
1016.72	0.180
1016.89	0.180
1017.05	0.181
1017.22	0.178
1017.38	0.178
1017.55	0.176
1017.71	0.177
1017.88	0.176
1018.04	0.177
1018.21	0.174
1018.37	0.174
1018.53	0.174
1018.70	0.173
1018.86	0.172
1019.03	0.174
1019.19	0.173
1019.36	0.174
1019.52	0.175
1019.69	0.175
1019.85	0.174
1020.01	0.175
1020.18	0.173
1020.34	0.172
1020.51	0.171
1020.67	0.172
1020.84	0.170
1021.00	0.170
1021.16	0.167
1021.33	0.167
1021.49	0.166
1021.66	0.167
1021.82	0.165
1021.98	0.164
1022.15	0.164
1022.31	0.164
1022.48	0.163
1022.64	0.164
1022.80	0.163
1022.97	0.162
1023.13	0.161
1023.30	0.162
1023.46	0.163
1023.62	0.160
1023.79	0.163
1023.95	0.163
1024.12	0.163
1024.28	0.162
1024.44	0.162
1024.61	0.161
1024.77	0.161
1024.93	0.160
1025.10	0.161
1025.26	0.159
1025.43	0.159
1025.59	0.155
1025.75	0.159
1025.92	0.157
1026.08	0.156
1026.24	0.156
1026.41	0.157
1026.57	0.155
1026.73	0.153
1026.90	0.156
1027.06	0.154
1027.23	0.156
1027.39	0.155
1027.55	0.155
1027.72	0.154
1027.88	0.154
1028.04	0.154
1028.21	0.154
1028.37	0.149
1028.53	0.153
1028.70	0.151
1028.86	0.149
1029.02	0.149
1029.19	0.150
1029.35	0.148
1029.51	0.147
1029.67	0.146
1029.84	0.148
1030.00	0.143
1030.16	0.144
1030.33	0.147
1030.49	0.144
1030.65	0.142
1030.82	0.157
1030.98	0.144
1031.14	0.144
1031.31	0.144
1031.47	0.141
1031.63	0.143
1031.79	0.143
1031.96	0.143
1032.12	0.144
1032.28	0.142
1032.45	0.146
1032.61	0.145
1032.77	0.144
1032.93	0.142
1033.10	0.144
1033.26	0.147
1033.42	0.144
1033.58	0.145
1033.75	0.147
1033.91	0.145
1034.07	0.149
1034.24	0.147
1034.40	0.144
1034.56	0.145
1034.72	0.145
1034.89	0.145
1035.05	0.143
1035.21	0.143
1035.37	0.142
1035.54	0.145
1035.70	0.143
1035.86	0.141
1036.02	0.142
1036.19	0.140
1036.35	0.138
1036.51	0.141
1036.67	0.140
1036.83	0.138
1037.00	0.137
1037.16	0.139
1037.32	0.139
1037.48	0.137
1037.65	0.142
1037.81	0.137
1037.97	0.137
1038.13	0.137
1038.29	0.136
1038.46	0.132
1038.62	0.136
1038.78	0.133
1038.94	0.129
1039.10	0.133
1039.27	0.129
1039.43	0.131
1039.59	0.131
1039.75	0.131
1039.91	0.131
1040.08	0.130
1040.24	0.133
1040.40	0.135
1040.56	0.133
1040.72	0.129
1040.89	0.132
1041.05	0.134
1041.21	0.133
1041.37	0.131
1041.53	0.137
1041.69	0.134
1041.86	0.132
1042.02	0.129
1042.18	0.129
1042.34	0.131
1042.50	0.134
1042.66	0.129
1042.83	0.128
1042.99	0.131
1043.15	0.126
1043.31	0.127
1043.47	0.131
1043.63	0.128
1043.79	0.127
1043.96	0.129
1044.12	0.133
1044.28	0.131
1044.44	0.133
1044.60	0.127
1044.76	0.126
1044.92	0.129
1045.09	0.129
1045.25	0.125
1045.41	0.127
1045.57	0.122
1045.73	0.122
1045.89	0.122
1046.05	0.124
1046.21	0.127
1046.38	0.127
1046.54	0.132
1046.70	0.117
1046.86	0.127
>>>>>End Processed Spectral Data<<<<<
