SpectraSuite Data File
++++++++++++++++++++++++++++++++++++
Date: Mon May 20 12:11:38 CDT 2013
User: Students
Dark Spectrum Present: Yes
Reference Spectrum Present: Yes
Number of Sampled Component Spectra: 1
Spectrometers: USB4H00887
Integration Time (usec): 60000 (USB4H00887)
Spectra Averaged: 5 (USB4H00887)
Boxcar Smoothing: 5 (USB4H00887)
Correct for Electrical Dark: No (USB4H00887)
Strobe/Lamp Enabled: No (USB4H00887)
Correct for Detector Non-linearity: No (USB4H00887)
Correct for Stray Light: No (USB4H00887)
Number of Pixels in Processed Spectrum: 3648
>>>>>Begin Processed Spectral Data<<<<<
345.83	-0.000
346.05	-0.000
346.26	-0.000
346.48	-0.000
346.70	1.342
346.92	-0.085
347.14	-0.019
347.35	0.006
347.57	0.105
347.79	-0.138
348.01	-0.119
348.23	-0.230
348.44	-0.000
348.66	0.230
348.88	-0.355
349.10	-0.143
349.32	0.085
349.53	-0.032
349.75	-0.025
349.97	-0.034
350.19	0.004
350.41	-0.019
350.62	0.083
350.84	0.002
351.06	0.017
351.28	-0.013
351.50	-0.160
351.71	-0.063
351.93	-0.042
352.15	-0.026
352.37	-0.088
352.58	-0.032
352.80	-0.007
353.02	0.005
353.24	0.024
353.46	0.030
353.67	-0.025
353.89	0.011
354.11	-0.004
354.33	0.005
354.54	0.037
354.76	0.091
354.98	0.160
355.20	0.103
355.41	0.069
355.63	0.079
355.85	0.050
356.07	0.195
356.28	0.040
356.50	0.077
356.72	0.032
356.94	0.070
357.15	0.074
357.37	-0.000
357.59	0.064
357.81	0.011
358.02	0.054
358.24	0.025
358.46	0.125
358.68	0.122
358.89	0.075
359.11	-0.000
359.33	0.057
359.55	-0.486
359.76	0.087
359.98	0.124
360.20	0.127
360.42	0.097
360.63	0.170
360.85	0.133
361.07	0.815
361.29	0.123
361.50	0.430
361.72	0.161
361.94	0.896
362.15	0.285
362.37	0.142
362.59	0.136
362.81	0.270
363.02	0.408
363.24	0.680
363.46	0.304
363.68	0.382
363.89	0.223
364.11	0.304
364.33	0.344
364.54	0.208
364.76	0.250
364.98	0.291
365.20	0.327
365.41	0.177
365.63	0.208
365.85	0.138
366.06	0.416
366.28	0.482
366.50	0.259
366.71	0.117
366.93	0.148
367.15	0.146
367.37	0.122
367.58	0.155
367.80	0.191
368.02	0.708
368.23	0.196
368.45	0.230
368.67	0.211
368.88	0.211
369.10	-0.000
369.32	0.188
369.53	0.117
369.75	0.197
369.97	0.500
370.19	0.274
370.40	0.089
370.62	0.229
370.84	0.080
371.05	0.328
371.27	0.105
371.49	0.140
371.70	0.166
371.92	0.213
372.14	0.099
372.35	0.127
372.57	0.131
372.79	0.395
373.00	0.113
373.22	0.183
373.44	0.182
373.65	0.138
373.87	0.182
374.09	-0.000
374.30	0.189
374.52	0.210
374.74	0.145
374.95	1.152
375.17	0.187
375.39	-0.000
375.60	0.199
375.82	0.355
376.04	0.145
376.25	0.177
376.47	0.102
376.68	0.256
376.90	0.152
377.12	0.367
377.33	0.171
377.55	0.460
377.77	0.197
377.98	0.317
378.20	0.156
378.42	0.200
378.63	0.270
378.85	-0.000
379.07	0.156
379.28	0.586
379.50	0.298
379.71	0.153
379.93	0.100
380.15	0.139
380.36	0.201
380.58	0.161
380.80	0.384
381.01	0.121
381.23	0.110
381.44	0.123
381.66	0.153
381.88	0.187
382.09	-0.080
382.31	0.117
382.53	0.122
382.74	0.620
382.96	0.187
383.17	0.157
383.39	0.220
383.61	0.292
383.82	0.208
384.04	0.233
384.25	0.277
384.47	0.266
384.69	0.256
384.90	0.237
385.12	0.499
385.33	0.305
385.55	0.228
385.77	0.329
385.98	0.187
386.20	0.254
386.41	0.215
386.63	0.273
386.85	0.234
387.06	0.278
387.28	0.425
387.49	0.278
387.71	0.201
387.93	0.188
388.14	0.640
388.36	0.226
388.57	0.193
388.79	0.234
389.01	-0.000
389.22	0.298
389.44	0.295
389.65	0.262
389.87	0.237
390.08	0.265
390.30	0.195
390.52	0.370
390.73	0.378
390.95	0.285
391.16	0.274
391.38	-0.000
391.59	0.304
391.81	0.237
392.03	0.208
392.24	0.259
392.46	0.230
392.67	0.207
392.89	0.299
393.10	0.430
393.32	0.281
393.53	0.313
393.75	0.193
393.97	0.226
394.18	0.311
394.40	0.269
394.61	0.288
394.83	0.246
395.04	0.293
395.26	0.196
395.47	0.315
395.69	0.254
395.91	0.269
396.12	0.346
396.34	0.331
396.55	0.217
396.77	0.332
396.98	1.840
397.20	0.385
397.41	0.419
397.63	0.297
397.84	0.270
398.06	0.262
398.27	0.276
398.49	0.327
398.71	0.245
398.92	0.288
399.14	0.402
399.35	0.541
399.57	0.505
399.78	0.346
400.00	0.346
400.21	0.433
400.43	0.344
400.64	0.356
400.86	0.834
401.07	0.409
401.29	0.352
401.50	0.367
401.72	0.511
401.93	0.335
402.15	0.416
402.36	0.367
402.58	0.309
402.79	0.337
403.01	0.581
403.22	0.450
403.44	0.299
403.65	0.489
403.87	0.517
404.08	0.396
404.30	0.622
404.51	0.329
404.73	0.409
404.94	0.345
405.16	0.364
405.37	0.293
405.59	0.530
405.80	0.331
406.02	0.403
406.23	0.408
406.45	0.481
406.66	0.544
406.88	0.331
407.09	0.507
407.31	0.408
407.52	0.503
407.74	0.404
407.95	0.483
408.17	0.445
408.38	0.488
408.60	0.317
408.81	0.535
409.03	0.381
409.24	0.399
409.45	0.462
409.67	0.435
409.88	0.386
410.10	0.476
410.31	0.403
410.53	0.387
410.74	0.541
410.96	0.528
411.17	0.564
411.39	0.433
411.60	0.394
411.82	0.445
412.03	0.425
412.24	0.415
412.46	0.623
412.67	0.506
412.89	0.490
413.10	0.495
413.32	0.457
413.53	0.531
413.75	0.557
413.96	0.417
414.17	0.585
414.39	0.587
414.60	0.457
414.82	0.620
415.03	0.461
415.25	0.511
415.46	0.344
415.68	0.469
415.89	0.883
416.10	0.668
416.32	0.360
416.53	0.430
416.75	0.413
416.96	0.506
417.18	0.432
417.39	0.412
417.60	0.417
417.82	0.620
418.03	0.544
418.25	0.449
418.46	0.475
418.67	0.444
418.89	0.480
419.10	0.498
419.32	0.680
419.53	0.617
419.75	0.529
419.96	0.461
420.17	0.561
420.39	0.526
420.60	0.554
420.82	0.696
421.03	0.533
421.24	0.445
421.46	0.488
421.67	0.536
421.89	0.459
422.10	0.500
422.31	0.503
422.53	0.756
422.74	0.544
422.96	0.424
423.17	0.470
423.38	0.587
423.60	0.489
423.81	0.619
424.03	0.530
424.24	0.602
424.45	0.585
424.67	0.571
424.88	0.499
425.09	0.546
425.31	0.512
425.52	0.550
425.74	0.616
425.95	0.667
426.16	0.518
426.38	0.601
426.59	0.548
426.80	0.630
427.02	0.665
427.23	0.515
427.45	0.677
427.66	0.659
427.87	0.503
428.09	0.537
428.30	0.587
428.51	0.572
428.73	0.630
428.94	0.555
429.15	0.540
429.37	0.514
429.58	0.543
429.79	0.507
430.01	0.608
430.22	0.603
430.44	0.625
430.65	0.567
430.86	0.618
431.08	0.601
431.29	0.549
431.50	0.656
431.72	0.915
431.93	0.723
432.14	0.525
432.36	0.571
432.57	0.584
432.78	0.601
433.00	0.550
433.21	0.546
433.42	0.680
433.64	0.593
433.85	0.687
434.06	0.552
434.28	0.584
434.49	0.604
434.70	0.624
434.92	0.639
435.13	0.695
435.34	0.707
435.56	0.657
435.77	0.655
435.98	0.857
436.20	0.692
436.41	0.588
436.62	0.571
436.83	0.653
437.05	0.740
437.26	0.648
437.47	0.573
437.69	0.637
437.90	0.587
438.11	0.574
438.33	0.630
438.54	0.658
438.75	0.863
438.97	0.851
439.18	0.624
439.39	0.657
439.60	0.720
439.82	0.668
440.03	0.610
440.24	0.925
440.46	0.672
440.67	0.648
440.88	0.697
441.10	0.644
441.31	0.640
441.52	0.701
441.73	0.785
441.95	0.684
442.16	0.636
442.37	1.052
442.58	0.621
442.80	0.610
443.01	0.792
443.22	0.715
443.44	0.612
443.65	0.731
443.86	0.727
444.07	0.783
444.29	0.667
444.50	0.864
444.71	0.640
444.92	0.602
445.14	0.780
445.35	0.833
445.56	0.639
445.78	0.758
445.99	0.765
446.20	0.651
446.41	0.740
446.63	0.744
446.84	0.693
447.05	0.698
447.26	0.847
447.48	0.708
447.69	0.666
447.90	0.776
448.11	0.679
448.33	0.701
448.54	0.723
448.75	0.754
448.96	0.759
449.18	0.811
449.39	0.715
449.60	0.693
449.81	0.834
450.03	0.718
450.24	0.772
450.45	0.725
450.66	0.712
450.87	0.748
451.09	0.699
451.30	0.674
451.51	0.746
451.72	0.764
451.94	0.779
452.15	0.858
452.36	0.718
452.57	0.742
452.78	0.748
453.00	0.782
453.21	0.729
453.42	0.702
453.63	0.814
453.85	0.781
454.06	0.765
454.27	0.923
454.48	0.814
454.69	0.729
454.91	0.805
455.12	0.693
455.33	0.781
455.54	0.808
455.75	0.776
455.97	0.808
456.18	0.794
456.39	0.801
456.60	0.829
456.81	0.762
457.03	0.777
457.24	0.779
457.45	0.885
457.66	0.823
457.87	0.764
458.09	0.783
458.30	0.686
458.51	0.810
458.72	0.839
458.93	0.847
459.15	0.731
459.36	0.799
459.57	0.823
459.78	0.874
459.99	0.776
460.20	0.739
460.42	0.829
460.63	0.787
460.84	0.766
461.05	0.789
461.26	0.850
461.47	0.765
461.69	0.824
461.90	0.861
462.11	0.811
462.32	0.871
462.53	0.804
462.74	0.919
462.96	0.795
463.17	0.786
463.38	0.832
463.59	0.960
463.80	0.792
464.01	0.811
464.23	0.907
464.44	0.864
464.65	0.870
464.86	0.898
465.07	0.893
465.28	0.847
465.49	0.879
465.71	0.829
465.92	0.878
466.13	0.930
466.34	0.860
466.55	0.926
466.76	0.876
466.97	0.906
467.19	0.888
467.40	0.930
467.61	0.925
467.82	0.833
468.03	0.813
468.24	0.880
468.45	0.911
468.66	0.892
468.88	0.902
469.09	0.906
469.30	0.949
469.51	0.875
469.72	0.919
469.93	0.895
470.14	0.873
470.35	0.977
470.57	0.923
470.78	0.863
470.99	1.005
471.20	0.932
471.41	0.892
471.62	0.955
471.83	0.918
472.04	0.953
472.25	1.001
472.47	0.906
472.68	0.912
472.89	0.917
473.10	0.962
473.31	0.909
473.52	0.972
473.73	0.991
473.94	0.905
474.15	0.930
474.36	0.928
474.57	0.957
474.79	0.921
475.00	0.914
475.21	0.897
475.42	0.988
475.63	0.889
475.84	0.926
476.05	0.930
476.26	0.896
476.47	0.933
476.68	0.983
476.89	0.909
477.10	0.962
477.32	0.950
477.53	1.010
477.74	0.926
477.95	0.969
478.16	0.909
478.37	0.954
478.58	0.959
478.79	0.976
479.00	0.978
479.21	0.930
479.42	0.974
479.63	0.983
479.84	0.943
480.05	0.943
480.26	0.973
480.47	0.994
480.69	0.999
480.90	0.965
481.11	0.964
481.32	1.033
481.53	0.971
481.74	1.029
481.95	0.988
482.16	1.007
482.37	1.014
482.58	0.973
482.79	0.994
483.00	1.028
483.21	0.965
483.42	0.934
483.63	1.015
483.84	1.039
484.05	1.031
484.26	0.997
484.47	0.995
484.68	0.956
484.89	0.962
485.10	1.016
485.31	0.990
485.52	0.996
485.73	0.998
485.94	1.043
486.15	0.986
486.37	1.002
486.58	0.967
486.79	0.978
487.00	1.032
487.21	1.025
487.42	1.019
487.63	1.024
487.84	1.043
488.05	1.036
488.26	0.988
488.47	0.995
488.68	1.024
488.89	0.997
489.10	0.992
489.31	1.004
489.52	1.039
489.73	1.003
489.94	1.044
490.15	0.998
490.36	1.048
490.57	1.000
490.78	0.983
490.99	1.026
491.20	1.116
491.41	1.065
491.62	1.000
491.83	1.034
492.04	1.029
492.25	1.036
492.45	1.036
492.66	1.060
492.87	1.046
493.08	1.034
493.29	1.017
493.50	1.006
493.71	1.015
493.92	1.013
494.13	1.027
494.34	1.050
494.55	1.056
494.76	1.090
494.97	1.081
495.18	1.042
495.39	1.056
495.60	1.002
495.81	1.002
496.02	1.024
496.23	1.016
496.44	1.055
496.65	1.047
496.86	1.056
497.07	1.086
497.28	1.084
497.49	1.025
497.70	1.031
497.91	1.056
498.12	1.034
498.32	1.083
498.53	1.065
498.74	1.052
498.95	1.078
499.16	1.023
499.37	1.024
499.58	1.029
499.79	1.064
500.00	1.057
500.21	1.087
500.42	1.026
500.63	1.027
500.84	1.048
501.05	1.028
501.26	1.057
501.46	1.102
501.67	1.064
501.88	1.068
502.09	1.042
502.30	1.051
502.51	1.102
502.72	1.055
502.93	1.074
503.14	1.097
503.35	1.061
503.56	1.056
503.77	1.090
503.97	1.062
504.18	1.060
504.39	1.099
504.60	1.065
504.81	1.099
505.02	1.088
505.23	1.088
505.44	1.067
505.65	1.076
505.86	1.053
506.07	1.127
506.27	1.082
506.48	1.089
506.69	1.072
506.90	1.096
507.11	1.092
507.32	1.061
507.53	1.072
507.74	1.066
507.95	1.082
508.15	1.090
508.36	1.096
508.57	1.109
508.78	1.089
508.99	1.087
509.20	1.061
509.41	1.087
509.62	1.076
509.82	1.071
510.03	1.084
510.24	1.083
510.45	1.107
510.66	1.097
510.87	1.091
511.08	1.046
511.29	1.090
511.49	1.062
511.70	1.112
511.91	1.039
512.12	1.035
512.33	1.069
512.54	1.087
512.75	1.066
512.95	1.093
513.16	1.082
513.37	1.058
513.58	1.100
513.79	1.060
514.00	1.066
514.20	1.088
514.41	1.078
514.62	1.041
514.83	1.086
515.04	1.078
515.25	1.057
515.46	1.072
515.66	1.075
515.87	1.089
516.08	1.055
516.29	1.082
516.50	1.059
516.71	1.053
516.91	1.066
517.12	1.082
517.33	1.066
517.54	1.051
517.75	1.055
517.95	1.066
518.16	1.077
518.37	1.041
518.58	1.050
518.79	1.023
519.00	1.056
519.20	1.065
519.41	1.038
519.62	1.059
519.83	1.069
520.04	1.027
520.24	1.028
520.45	1.039
520.66	1.065
520.87	1.021
521.08	1.017
521.28	1.021
521.49	1.038
521.70	1.006
521.91	1.023
522.12	1.003
522.32	1.029
522.53	1.006
522.74	0.993
522.95	1.004
523.16	1.007
523.36	1.018
523.57	0.998
523.78	0.993
523.99	0.997
524.20	0.989
524.40	1.004
524.61	1.012
524.82	0.986
525.03	0.992
525.23	0.992
525.44	0.975
525.65	0.974
525.86	0.998
526.06	0.967
526.27	0.968
526.48	0.978
526.69	0.957
526.90	0.961
527.10	0.997
527.31	0.949
527.52	0.943
527.73	0.935
527.93	0.947
528.14	0.954
528.35	0.943
528.56	0.944
528.76	0.936
528.97	0.926
529.18	0.915
529.39	0.916
529.59	0.921
529.80	0.953
530.01	0.924
530.22	0.923
530.42	0.890
530.63	0.910
530.84	0.885
531.05	0.900
531.25	0.904
531.46	0.896
531.67	0.873
531.88	0.892
532.08	0.885
532.29	0.880
532.50	0.872
532.70	0.864
532.91	0.854
533.12	0.857
533.33	0.883
533.53	0.851
533.74	0.852
533.95	0.859
534.15	0.847
534.36	0.847
534.57	0.829
534.78	0.832
534.98	0.843
535.19	0.810
535.40	0.812
535.60	0.832
535.81	0.810
536.02	0.813
536.23	0.804
536.43	0.804
536.64	0.791
536.85	0.799
537.05	0.808
537.26	0.784
537.47	0.788
537.67	0.778
537.88	0.772
538.09	0.780
538.30	0.769
538.50	0.759
538.71	0.773
538.92	0.759
539.12	0.754
539.33	0.749
539.54	0.750
539.74	0.754
539.95	0.743
540.16	0.741
540.36	0.731
540.57	0.730
540.78	0.722
540.98	0.720
541.19	0.718
541.40	0.705
541.60	0.715
541.81	0.709
542.02	0.709
542.22	0.697
542.43	0.692
542.64	0.689
542.84	0.688
543.05	0.681
543.26	0.681
543.46	0.684
543.67	0.683
543.88	0.679
544.08	0.668
544.29	0.662
544.50	0.664
544.70	0.664
544.91	0.654
545.12	0.655
545.32	0.650
545.53	0.654
545.74	0.642
545.94	0.638
546.15	0.636
546.35	0.633
546.56	0.631
546.77	0.626
546.97	0.623
547.18	0.615
547.39	0.616
547.59	0.613
547.80	0.608
548.01	0.612
548.21	0.608
548.42	0.599
548.62	0.598
548.83	0.594
549.04	0.591
549.24	0.584
549.45	0.583
549.65	0.578
549.86	0.573
550.07	0.572
550.27	0.570
550.48	0.578
550.69	0.563
550.89	0.563
551.10	0.559
551.30	0.557
551.51	0.556
551.72	0.546
551.92	0.548
552.13	0.547
552.33	0.548
552.54	0.543
552.75	0.535
552.95	0.536
553.16	0.530
553.36	0.528
553.57	0.526
553.78	0.525
553.98	0.525
554.19	0.517
554.39	0.514
554.60	0.516
554.80	0.515
555.01	0.508
555.22	0.510
555.42	0.507
555.63	0.500
555.83	0.503
556.04	0.496
556.25	0.498
556.45	0.489
556.66	0.487
556.86	0.490
557.07	0.488
557.27	0.486
557.48	0.481
557.68	0.478
557.89	0.479
558.10	0.475
558.30	0.472
558.51	0.470
558.71	0.467
558.92	0.462
559.12	0.464
559.33	0.467
559.54	0.461
559.74	0.457
559.95	0.455
560.15	0.455
560.36	0.453
560.56	0.447
560.77	0.448
560.97	0.448
561.18	0.442
561.38	0.442
561.59	0.444
561.79	0.440
562.00	0.438
562.21	0.434
562.41	0.433
562.62	0.432
562.82	0.429
563.03	0.427
563.23	0.425
563.44	0.425
563.64	0.422
563.85	0.423
564.05	0.417
564.26	0.415
564.46	0.415
564.67	0.414
564.87	0.411
565.08	0.408
565.28	0.407
565.49	0.408
565.69	0.405
565.90	0.401
566.10	0.404
566.31	0.397
566.51	0.399
566.72	0.399
566.92	0.393
567.13	0.392
567.33	0.391
567.54	0.390
567.74	0.389
567.95	0.384
568.15	0.385
568.36	0.385
568.56	0.384
568.77	0.379
568.97	0.377
569.18	0.377
569.38	0.375
569.59	0.376
569.79	0.373
570.00	0.370
570.20	0.369
570.41	0.366
570.61	0.364
570.82	0.365
571.02	0.361
571.23	0.364
571.43	0.359
571.64	0.357
571.84	0.356
572.05	0.354
572.25	0.354
572.45	0.352
572.66	0.350
572.86	0.349
573.07	0.347
573.27	0.348
573.48	0.346
573.68	0.343
573.89	0.343
574.09	0.343
574.30	0.341
574.50	0.339
574.70	0.339
574.91	0.337
575.11	0.337
575.32	0.337
575.52	0.332
575.73	0.332
575.93	0.332
576.14	0.331
576.34	0.329
576.54	0.328
576.75	0.326
576.95	0.325
577.16	0.322
577.36	0.321
577.57	0.321
577.77	0.319
577.97	0.315
578.18	0.316
578.38	0.313
578.59	0.311
578.79	0.310
579.00	0.311
579.20	0.309
579.40	0.308
579.61	0.307
579.81	0.306
580.02	0.304
580.22	0.304
580.42	0.303
580.63	0.304
580.83	0.303
581.04	0.301
581.24	0.300
581.45	0.299
581.65	0.297
581.85	0.296
582.06	0.295
582.26	0.295
582.47	0.293
582.67	0.293
582.87	0.292
583.08	0.289
583.28	0.289
583.48	0.288
583.69	0.285
583.89	0.285
584.10	0.286
584.30	0.283
584.50	0.281
584.71	0.281
584.91	0.280
585.12	0.278
585.32	0.279
585.52	0.277
585.73	0.276
585.93	0.276
586.13	0.275
586.34	0.274
586.54	0.273
586.75	0.272
586.95	0.271
587.15	0.271
587.36	0.270
587.56	0.269
587.76	0.267
587.97	0.267
588.17	0.266
588.37	0.265
588.58	0.266
588.78	0.263
588.98	0.264
589.19	0.262
589.39	0.260
589.60	0.262
589.80	0.259
590.00	0.258
590.21	0.258
590.41	0.256
590.61	0.255
590.82	0.254
591.02	0.253
591.22	0.251
591.43	0.251
591.63	0.249
591.83	0.249
592.04	0.248
592.24	0.249
592.44	0.246
592.65	0.245
592.85	0.246
593.05	0.246
593.26	0.245
593.46	0.244
593.66	0.245
593.86	0.244
594.07	0.242
594.27	0.242
594.47	0.240
594.68	0.240
594.88	0.240
595.08	0.239
595.29	0.239
595.49	0.237
595.69	0.237
595.90	0.236
596.10	0.236
596.30	0.235
596.50	0.234
596.71	0.233
596.91	0.232
597.11	0.232
597.32	0.231
597.52	0.230
597.72	0.230
597.93	0.229
598.13	0.227
598.33	0.228
598.53	0.227
598.74	0.227
598.94	0.226
599.14	0.226
599.35	0.226
599.55	0.225
599.75	0.224
599.95	0.223
600.16	0.224
600.36	0.222
600.56	0.222
600.76	0.220
600.97	0.219
601.17	0.218
601.37	0.218
601.58	0.217
601.78	0.218
601.98	0.217
602.18	0.216
602.39	0.216
602.59	0.216
602.79	0.215
602.99	0.215
603.20	0.214
603.40	0.214
603.60	0.213
603.80	0.213
604.01	0.212
604.21	0.211
604.41	0.211
604.61	0.210
604.82	0.209
605.02	0.210
605.22	0.209
605.42	0.208
605.62	0.209
605.83	0.208
606.03	0.206
606.23	0.206
606.43	0.206
606.64	0.206
606.84	0.205
607.04	0.205
607.24	0.204
607.45	0.204
607.65	0.203
607.85	0.204
608.05	0.202
608.25	0.202
608.46	0.201
608.66	0.201
608.86	0.200
609.06	0.199
609.26	0.198
609.47	0.198
609.67	0.197
609.87	0.199
610.07	0.198
610.28	0.197
610.48	0.197
610.68	0.197
610.88	0.196
611.08	0.196
611.29	0.195
611.49	0.194
611.69	0.195
611.89	0.193
612.09	0.192
612.29	0.192
612.50	0.191
612.70	0.191
612.90	0.190
613.10	0.189
613.30	0.189
613.51	0.189
613.71	0.188
613.91	0.192
614.11	0.187
614.31	0.187
614.51	0.187
614.72	0.186
614.92	0.186
615.12	0.186
615.32	0.186
615.52	0.185
615.72	0.186
615.93	0.185
616.13	0.185
616.33	0.185
616.53	0.184
616.73	0.185
616.93	0.184
617.14	0.184
617.34	0.184
617.54	0.184
617.74	0.184
617.94	0.183
618.14	0.183
618.34	0.182
618.55	0.182
618.75	0.182
618.95	0.182
619.15	0.181
619.35	0.180
619.55	0.179
619.75	0.180
619.96	0.179
620.16	0.179
620.36	0.179
620.56	0.178
620.76	0.178
620.96	0.177
621.16	0.177
621.36	0.177
621.57	0.178
621.77	0.178
621.97	0.177
622.17	0.176
622.37	0.176
622.57	0.177
622.77	0.176
622.97	0.175
623.18	0.175
623.38	0.175
623.58	0.174
623.78	0.174
623.98	0.174
624.18	0.173
624.38	0.173
624.58	0.173
624.78	0.173
624.98	0.173
625.19	0.173
625.39	0.173
625.59	0.173
625.79	0.173
625.99	0.172
626.19	0.172
626.39	0.171
626.59	0.171
626.79	0.171
626.99	0.171
627.19	0.171
627.40	0.171
627.60	0.170
627.80	0.170
628.00	0.169
628.20	0.168
628.40	0.168
628.60	0.168
628.80	0.167
629.00	0.167
629.20	0.166
629.40	0.166
629.60	0.165
629.80	0.166
630.00	0.166
630.20	0.166
630.41	0.165
630.61	0.165
630.81	0.165
631.01	0.165
631.21	0.165
631.41	0.165
631.61	0.165
631.81	0.164
632.01	0.164
632.21	0.164
632.41	0.163
632.61	0.163
632.81	0.163
633.01	0.163
633.21	0.163
633.41	0.163
633.61	0.162
633.81	0.162
634.01	0.161
634.21	0.161
634.41	0.160
634.61	0.161
634.81	0.160
635.01	0.159
635.22	0.159
635.42	0.159
635.62	0.159
635.82	0.160
636.02	0.159
636.22	0.159
636.42	0.159
636.62	0.158
636.82	0.158
637.02	0.158
637.22	0.159
637.42	0.158
637.62	0.157
637.82	0.157
638.02	0.156
638.22	0.156
638.42	0.155
638.62	0.155
638.82	0.155
639.02	0.155
639.22	0.155
639.42	0.154
639.62	0.154
639.82	0.153
640.02	0.153
640.22	0.153
640.42	0.153
640.62	0.153
640.82	0.153
641.02	0.153
641.22	0.153
641.42	0.152
641.61	0.153
641.81	0.153
642.01	0.152
642.21	0.153
642.41	0.152
642.61	0.152
642.81	0.151
643.01	0.151
643.21	0.151
643.41	0.151
643.61	0.151
643.81	0.150
644.01	0.149
644.21	0.149
644.41	0.149
644.61	0.149
644.81	0.150
645.01	0.150
645.21	0.149
645.41	0.149
645.61	0.149
645.81	0.148
646.01	0.148
646.21	0.148
646.40	0.148
646.60	0.148
646.80	0.148
647.00	0.147
647.20	0.146
647.40	0.146
647.60	0.146
647.80	0.146
648.00	0.146
648.20	0.146
648.40	0.145
648.60	0.145
648.80	0.145
649.00	0.145
649.20	0.146
649.39	0.145
649.59	0.145
649.79	0.144
649.99	0.144
650.19	0.144
650.39	0.143
650.59	0.143
650.79	0.143
650.99	0.142
651.19	0.142
651.39	0.142
651.58	0.141
651.78	0.141
651.98	0.141
652.18	0.141
652.38	0.140
652.58	0.140
652.78	0.140
652.98	0.140
653.18	0.140
653.38	0.140
653.57	0.140
653.77	0.140
653.97	0.139
654.17	0.139
654.37	0.139
654.57	0.139
654.77	0.139
654.97	0.139
655.16	0.139
655.36	0.138
655.56	0.137
655.76	0.137
655.96	0.138
656.16	0.136
656.36	0.137
656.56	0.136
656.75	0.136
656.95	0.136
657.15	0.136
657.35	0.136
657.55	0.135
657.75	0.136
657.95	0.136
658.14	0.135
658.34	0.136
658.54	0.135
658.74	0.135
658.94	0.135
659.14	0.135
659.34	0.134
659.53	0.133
659.73	0.133
659.93	0.132
660.13	0.132
660.33	0.132
660.53	0.131
660.72	0.131
660.92	0.131
661.12	0.130
661.32	0.130
661.52	0.130
661.72	0.130
661.91	0.130
662.11	0.130
662.31	0.130
662.51	0.130
662.71	0.130
662.90	0.129
663.10	0.129
663.30	0.129
663.50	0.129
663.70	0.129
663.90	0.129
664.09	0.129
664.29	0.128
664.49	0.127
664.69	0.127
664.89	0.127
665.08	0.127
665.28	0.126
665.48	0.126
665.68	0.125
665.88	0.125
666.07	0.125
666.27	0.125
666.47	0.125
666.67	0.125
666.87	0.125
667.06	0.125
667.26	0.125
667.46	0.124
667.66	0.124
667.85	0.125
668.05	0.125
668.25	0.125
668.45	0.125
668.65	0.125
668.84	0.125
669.04	0.124
669.24	0.124
669.44	0.123
669.63	0.123
669.83	0.124
670.03	0.122
670.23	0.122
670.42	0.122
670.62	0.121
670.82	0.121
671.02	0.121
671.22	0.120
671.41	0.119
671.61	0.120
671.81	0.120
672.01	0.120
672.20	0.119
672.40	0.119
672.60	0.119
672.80	0.119
672.99	0.119
673.19	0.118
673.39	0.118
673.58	0.118
673.78	0.118
673.98	0.117
674.18	0.117
674.37	0.117
674.57	0.117
674.77	0.116
674.97	0.116
675.16	0.116
675.36	0.116
675.56	0.115
675.75	0.115
675.95	0.115
676.15	0.115
676.35	0.115
676.54	0.115
676.74	0.115
676.94	0.115
677.13	0.115
677.33	0.114
677.53	0.115
677.73	0.115
677.92	0.114
678.12	0.114
678.32	0.113
678.51	0.113
678.71	0.113
678.91	0.113
679.11	0.113
679.30	0.113
679.50	0.112
679.70	0.112
679.89	0.112
680.09	0.112
680.29	0.112
680.48	0.112
680.68	0.111
680.88	0.111
681.07	0.111
681.27	0.110
681.47	0.110
681.66	0.110
681.86	0.110
682.06	0.110
682.25	0.110
682.45	0.109
682.65	0.109
682.84	0.109
683.04	0.109
683.24	0.108
683.43	0.109
683.63	0.108
683.83	0.108
684.02	0.108
684.22	0.108
684.42	0.107
684.61	0.108
684.81	0.108
685.01	0.107
685.20	0.107
685.40	0.107
685.60	0.107
685.79	0.106
685.99	0.107
686.19	0.106
686.38	0.106
686.58	0.107
686.77	0.107
686.97	0.107
687.17	0.107
687.36	0.107
687.56	0.106
687.76	0.106
687.95	0.106
688.15	0.106
688.34	0.106
688.54	0.105
688.74	0.104
688.93	0.104
689.13	0.104
689.33	0.104
689.52	0.103
689.72	0.104
689.91	0.103
690.11	0.103
690.31	0.102
690.50	0.103
690.70	0.103
690.89	0.103
691.09	0.103
691.29	0.102
691.48	0.102
691.68	0.102
691.87	0.102
692.07	0.102
692.27	0.102
692.46	0.102
692.66	0.102
692.85	0.101
693.05	0.101
693.25	0.101
693.44	0.101
693.64	0.101
693.83	0.101
694.03	0.100
694.22	0.099
694.42	0.099
694.62	0.100
694.81	0.100
695.01	0.100
695.20	0.099
695.40	0.099
695.59	0.099
695.79	0.098
695.99	0.099
696.18	0.099
696.38	0.099
696.57	0.099
696.77	0.098
696.96	0.099
697.16	0.098
697.36	0.098
697.55	0.098
697.75	0.098
697.94	0.097
698.14	0.097
698.33	0.097
698.53	0.097
698.72	0.097
698.92	0.097
699.11	0.096
699.31	0.096
699.51	0.097
699.70	0.096
699.90	0.096
700.09	0.096
700.29	0.096
700.48	0.096
700.68	0.096
700.87	0.096
701.07	0.095
701.26	0.095
701.46	0.095
701.65	0.095
701.85	0.094
702.04	0.094
702.24	0.094
702.43	0.094
702.63	0.094
702.82	0.094
703.02	0.094
703.21	0.094
703.41	0.094
703.60	0.094
703.80	0.093
703.99	0.093
704.19	0.093
704.38	0.093
704.58	0.092
704.77	0.092
704.97	0.092
705.16	0.092
705.36	0.092
705.55	0.092
705.75	0.092
705.94	0.093
706.14	0.093
706.33	0.093
706.53	0.093
706.72	0.093
706.92	0.092
707.11	0.092
707.31	0.092
707.50	0.092
707.70	0.092
707.89	0.092
708.09	0.091
708.28	0.091
708.48	0.092
708.67	0.091
708.86	0.091
709.06	0.091
709.25	0.091
709.45	0.091
709.64	0.091
709.84	0.091
710.03	0.090
710.23	0.090
710.42	0.090
710.62	0.090
710.81	0.090
711.00	0.090
711.20	0.090
711.39	0.090
711.59	0.090
711.78	0.090
711.98	0.090
712.17	0.090
712.37	0.090
712.56	0.090
712.75	0.090
712.95	0.090
713.14	0.090
713.34	0.090
713.53	0.090
713.73	0.090
713.92	0.090
714.11	0.090
714.31	0.090
714.50	0.090
714.70	0.090
714.89	0.090
715.08	0.090
715.28	0.090
715.47	0.089
715.67	0.089
715.86	0.089
716.06	0.089
716.25	0.089
716.44	0.088
716.64	0.088
716.83	0.088
717.03	0.088
717.22	0.088
717.41	0.088
717.61	0.088
717.80	0.088
717.99	0.088
718.19	0.088
718.38	0.088
718.58	0.088
718.77	0.088
718.96	0.087
719.16	0.087
719.35	0.087
719.55	0.087
719.74	0.087
719.93	0.087
720.13	0.086
720.32	0.086
720.51	0.086
720.71	0.086
720.90	0.086
721.10	0.086
721.29	0.086
721.48	0.085
721.68	0.085
721.87	0.085
722.06	0.085
722.26	0.086
722.45	0.086
722.64	0.086
722.84	0.086
723.03	0.086
723.22	0.086
723.42	0.087
723.61	0.087
723.80	0.087
724.00	0.087
724.19	0.087
724.38	0.087
724.58	0.087
724.77	0.087
724.96	0.086
725.16	0.086
725.35	0.086
725.54	0.086
725.74	0.086
725.93	0.086
726.12	0.086
726.32	0.086
726.51	0.086
726.70	0.086
726.90	0.087
727.09	0.086
727.28	0.086
727.48	0.086
727.67	0.086
727.86	0.086
728.06	0.087
728.25	0.087
728.44	0.087
728.64	0.086
728.83	0.086
729.02	0.086
729.21	0.086
729.41	0.086
729.60	0.086
729.79	0.086
729.99	0.086
730.18	0.086
730.37	0.086
730.56	0.086
730.76	0.086
730.95	0.086
731.14	0.086
731.34	0.086
731.53	0.086
731.72	0.086
731.91	0.086
732.11	0.086
732.30	0.086
732.49	0.087
732.69	0.087
732.88	0.087
733.07	0.087
733.26	0.087
733.46	0.086
733.65	0.087
733.84	0.087
734.03	0.087
734.23	0.087
734.42	0.087
734.61	0.087
734.80	0.087
735.00	0.087
735.19	0.087
735.38	0.087
735.57	0.087
735.77	0.087
735.96	0.087
736.15	0.087
736.34	0.087
736.54	0.087
736.73	0.087
736.92	0.086
737.11	0.087
737.31	0.086
737.50	0.087
737.69	0.087
737.88	0.087
738.07	0.086
738.27	0.086
738.46	0.086
738.65	0.086
738.84	0.086
739.04	0.087
739.23	0.087
739.42	0.087
739.61	0.087
739.80	0.087
740.00	0.087
740.19	0.087
740.38	0.087
740.57	0.087
740.76	0.086
740.96	0.086
741.15	0.086
741.34	0.086
741.53	0.086
741.72	0.086
741.92	0.085
742.11	0.085
742.30	0.085
742.49	0.085
742.68	0.085
742.88	0.086
743.07	0.086
743.26	0.086
743.45	0.085
743.64	0.085
743.84	0.085
744.03	0.085
744.22	0.085
744.41	0.085
744.60	0.084
744.79	0.084
744.99	0.084
745.18	0.084
745.37	0.084
745.56	0.084
745.75	0.084
745.94	0.084
746.14	0.083
746.33	0.084
746.52	0.084
746.71	0.084
746.90	0.084
747.09	0.084
747.28	0.084
747.48	0.084
747.67	0.084
747.86	0.084
748.05	0.084
748.24	0.084
748.43	0.084
748.62	0.083
748.82	0.083
749.01	0.083
749.20	0.083
749.39	0.083
749.58	0.083
749.77	0.083
749.96	0.083
750.16	0.083
750.35	0.083
750.54	0.083
750.73	0.083
750.92	0.083
751.11	0.083
751.30	0.083
751.49	0.083
751.68	0.083
751.88	0.083
752.07	0.083
752.26	0.083
752.45	0.083
752.64	0.083
752.83	0.083
753.02	0.083
753.21	0.083
753.40	0.082
753.60	0.083
753.79	0.082
753.98	0.082
754.17	0.082
754.36	0.082
754.55	0.082
754.74	0.081
754.93	0.081
755.12	0.081
755.31	0.082
755.50	0.081
755.70	0.081
755.89	0.081
756.08	0.081
756.27	0.081
756.46	0.081
756.65	0.081
756.84	0.081
757.03	0.081
757.22	0.080
757.41	0.080
757.60	0.080
757.79	0.080
757.98	0.080
758.17	0.080
758.36	0.080
758.56	0.080
758.75	0.080
758.94	0.080
759.13	0.080
759.32	0.080
759.51	0.080
759.70	0.081
759.89	0.081
760.08	0.080
760.27	0.080
760.46	0.080
760.65	0.081
760.84	0.080
761.03	0.080
761.22	0.080
761.41	0.081
761.60	0.080
761.79	0.080
761.98	0.080
762.17	0.080
762.36	0.080
762.55	0.080
762.74	0.079
762.93	0.079
763.12	0.079
763.31	0.079
763.50	0.078
763.69	0.079
763.88	0.079
764.07	0.079
764.26	0.079
764.45	0.079
764.64	0.079
764.83	0.079
765.02	0.079
765.21	0.079
765.40	0.079
765.59	0.079
765.78	0.079
765.97	0.079
766.16	0.079
766.35	0.078
766.54	0.078
766.73	0.079
766.92	0.078
767.11	0.078
767.30	0.079
767.49	0.078
767.68	0.079
767.87	0.078
768.06	0.078
768.25	0.078
768.44	0.079
768.63	0.078
768.82	0.078
769.01	0.078
769.20	0.078
769.39	0.078
769.58	0.078
769.77	0.078
769.96	0.078
770.15	0.078
770.34	0.078
770.53	0.077
770.72	0.077
770.91	0.077
771.10	0.077
771.29	0.077
771.47	0.077
771.66	0.077
771.85	0.077
772.04	0.077
772.23	0.077
772.42	0.077
772.61	0.077
772.80	0.077
772.99	0.077
773.18	0.077
773.37	0.077
773.56	0.077
773.75	0.077
773.94	0.077
774.13	0.077
774.31	0.077
774.50	0.077
774.69	0.078
774.88	0.077
775.07	0.078
775.26	0.077
775.45	0.077
775.64	0.077
775.83	0.077
776.02	0.076
776.21	0.077
776.40	0.077
776.58	0.076
776.77	0.076
776.96	0.077
777.15	0.077
777.34	0.077
777.53	0.077
777.72	0.077
777.91	0.077
778.10	0.077
778.28	0.076
778.47	0.076
778.66	0.076
778.85	0.075
779.04	0.075
779.23	0.075
779.42	0.075
779.61	0.075
779.79	0.075
779.98	0.075
780.17	0.075
780.36	0.075
780.55	0.074
780.74	0.074
780.93	0.074
781.12	0.075
781.30	0.074
781.49	0.075
781.68	0.075
781.87	0.074
782.06	0.074
782.25	0.074
782.44	0.074
782.62	0.074
782.81	0.075
783.00	0.075
783.19	0.075
783.38	0.075
783.57	0.075
783.75	0.074
783.94	0.074
784.13	0.074
784.32	0.074
784.51	0.074
784.70	0.074
784.88	0.074
785.07	0.074
785.26	0.074
785.45	0.074
785.64	0.074
785.83	0.074
786.01	0.074
786.20	0.074
786.39	0.074
786.58	0.074
786.77	0.074
786.95	0.074
787.14	0.074
787.33	0.074
787.52	0.074
787.71	0.074
787.90	0.073
788.08	0.073
788.27	0.073
788.46	0.073
788.65	0.073
788.84	0.073
789.02	0.073
789.21	0.073
789.40	0.073
789.59	0.073
789.77	0.074
789.96	0.073
790.15	0.073
790.34	0.073
790.53	0.073
790.71	0.073
790.90	0.073
791.09	0.073
791.28	0.073
791.46	0.074
791.65	0.073
791.84	0.073
792.03	0.073
792.22	0.073
792.40	0.072
792.59	0.072
792.78	0.072
792.97	0.072
793.15	0.072
793.34	0.072
793.53	0.072
793.72	0.073
793.90	0.072
794.09	0.073
794.28	0.072
794.47	0.073
794.65	0.073
794.84	0.072
795.03	0.072
795.22	0.072
795.40	0.072
795.59	0.072
795.78	0.072
795.97	0.072
796.15	0.072
796.34	0.073
796.53	0.073
796.71	0.073
796.90	0.073
797.09	0.073
797.28	0.073
797.46	0.073
797.65	0.073
797.84	0.073
798.02	0.072
798.21	0.072
798.40	0.072
798.59	0.072
798.77	0.072
798.96	0.071
799.15	0.071
799.33	0.071
799.52	0.071
799.71	0.071
799.90	0.071
800.08	0.072
800.27	0.072
800.46	0.072
800.64	0.072
800.83	0.072
801.02	0.072
801.20	0.071
801.39	0.071
801.58	0.072
801.76	0.071
801.95	0.071
802.14	0.071
802.32	0.071
802.51	0.071
802.70	0.071
802.88	0.071
803.07	0.071
803.26	0.071
803.44	0.070
803.63	0.070
803.82	0.070
804.00	0.070
804.19	0.070
804.38	0.070
804.56	0.070
804.75	0.070
804.94	0.070
805.12	0.071
805.31	0.071
805.50	0.071
805.68	0.071
805.87	0.071
806.06	0.071
806.24	0.071
806.43	0.071
806.62	0.071
806.80	0.071
806.99	0.071
807.17	0.070
807.36	0.070
807.55	0.071
807.73	0.071
807.92	0.071
808.11	0.071
808.29	0.070
808.48	0.070
808.66	0.070
808.85	0.070
809.04	0.070
809.22	0.070
809.41	0.070
809.59	0.070
809.78	0.070
809.97	0.070
810.15	0.070
810.34	0.070
810.53	0.070
810.71	0.070
810.90	0.070
811.08	0.069
811.27	0.069
811.45	0.069
811.64	0.069
811.83	0.069
812.01	0.069
812.20	0.069
812.38	0.070
812.57	0.070
812.76	0.070
812.94	0.070
813.13	0.070
813.31	0.070
813.50	0.070
813.68	0.070
813.87	0.070
814.06	0.070
814.24	0.070
814.43	0.070
814.61	0.070
814.80	0.070
814.98	0.070
815.17	0.070
815.36	0.070
815.54	0.070
815.73	0.070
815.91	0.069
816.10	0.069
816.28	0.070
816.47	0.069
816.65	0.070
816.84	0.070
817.03	0.070
817.21	0.070
817.40	0.070
817.58	0.070
817.77	0.070
817.95	0.070
818.14	0.070
818.32	0.070
818.51	0.071
818.69	0.071
818.88	0.070
819.06	0.070
819.25	0.070
819.43	0.070
819.62	0.070
819.80	0.070
819.99	0.071
820.18	0.070
820.36	0.070
820.55	0.070
820.73	0.070
820.92	0.070
821.10	0.070
821.29	0.070
821.47	0.070
821.66	0.070
821.84	0.070
822.03	0.070
822.21	0.070
822.40	0.070
822.58	0.070
822.77	0.070
822.95	0.070
823.14	0.070
823.32	0.070
823.50	0.070
823.69	0.070
823.87	0.070
824.06	0.071
824.24	0.071
824.43	0.071
824.61	0.071
824.80	0.071
824.98	0.072
825.17	0.072
825.35	0.072
825.54	0.072
825.72	0.072
825.91	0.072
826.09	0.071
826.28	0.071
826.46	0.072
826.64	0.072
826.83	0.072
827.01	0.072
827.20	0.072
827.38	0.072
827.57	0.072
827.75	0.072
827.94	0.072
828.12	0.073
828.31	0.073
828.49	0.073
828.67	0.073
828.86	0.073
829.04	0.073
829.23	0.073
829.41	0.073
829.60	0.073
829.78	0.074
829.96	0.074
830.15	0.074
830.33	0.074
830.52	0.074
830.70	0.074
830.88	0.074
831.07	0.074
831.25	0.074
831.44	0.074
831.62	0.074
831.81	0.074
831.99	0.074
832.17	0.074
832.36	0.075
832.54	0.075
832.73	0.075
832.91	0.075
833.09	0.075
833.28	0.075
833.46	0.075
833.65	0.075
833.83	0.076
834.01	0.076
834.20	0.076
834.38	0.076
834.56	0.076
834.75	0.076
834.93	0.076
835.12	0.076
835.30	0.076
835.48	0.077
835.67	0.076
835.85	0.076
836.03	0.076
836.22	0.076
836.40	0.076
836.59	0.076
836.77	0.076
836.95	0.077
837.14	0.076
837.32	0.076
837.50	0.076
837.69	0.076
837.87	0.076
838.05	0.076
838.24	0.077
838.42	0.077
838.60	0.077
838.79	0.078
838.97	0.077
839.15	0.077
839.34	0.077
839.52	0.077
839.70	0.077
839.89	0.077
840.07	0.077
840.25	0.077
840.44	0.077
840.62	0.077
840.80	0.077
840.99	0.077
841.17	0.077
841.35	0.077
841.54	0.077
841.72	0.077
841.90	0.077
842.09	0.077
842.27	0.077
842.45	0.077
842.64	0.077
842.82	0.077
843.00	0.077
843.19	0.078
843.37	0.077
843.55	0.077
843.73	0.077
843.92	0.077
844.10	0.077
844.28	0.077
844.47	0.077
844.65	0.077
844.83	0.077
845.01	0.077
845.20	0.077
845.38	0.078
845.56	0.078
845.75	0.078
845.93	0.078
846.11	0.078
846.29	0.078
846.48	0.078
846.66	0.078
846.84	0.078
847.02	0.078
847.21	0.078
847.39	0.078
847.57	0.078
847.76	0.078
847.94	0.078
848.12	0.078
848.30	0.078
848.49	0.078
848.67	0.078
848.85	0.078
849.03	0.078
849.22	0.078
849.40	0.079
849.58	0.079
849.76	0.079
849.95	0.079
850.13	0.079
850.31	0.079
850.49	0.079
850.67	0.079
850.86	0.079
851.04	0.078
851.22	0.078
851.40	0.078
851.59	0.078
851.77	0.078
851.95	0.078
852.13	0.079
852.31	0.078
852.50	0.079
852.68	0.079
852.86	0.079
853.04	0.079
853.23	0.079
853.41	0.079
853.59	0.079
853.77	0.079
853.95	0.079
854.14	0.079
854.32	0.079
854.50	0.079
854.68	0.078
854.86	0.079
855.04	0.078
855.23	0.079
855.41	0.079
855.59	0.079
855.77	0.079
855.95	0.079
856.14	0.079
856.32	0.079
856.50	0.079
856.68	0.079
856.86	0.079
857.04	0.079
857.23	0.079
857.41	0.079
857.59	0.079
857.77	0.079
857.95	0.079
858.13	0.079
858.32	0.079
858.50	0.080
858.68	0.079
858.86	0.079
859.04	0.079
859.22	0.079
859.41	0.079
859.59	0.079
859.77	0.079
859.95	0.079
860.13	0.079
860.31	0.079
860.49	0.079
860.68	0.079
860.86	0.079
861.04	0.079
861.22	0.079
861.40	0.079
861.58	0.079
861.76	0.079
861.94	0.079
862.13	0.079
862.31	0.079
862.49	0.079
862.67	0.079
862.85	0.080
863.03	0.080
863.21	0.080
863.39	0.080
863.57	0.080
863.76	0.080
863.94	0.080
864.12	0.080
864.30	0.080
864.48	0.079
864.66	0.080
864.84	0.080
865.02	0.080
865.20	0.080
865.38	0.080
865.57	0.080
865.75	0.080
865.93	0.081
866.11	0.081
866.29	0.081
866.47	0.081
866.65	0.081
866.83	0.081
867.01	0.081
867.19	0.081
867.37	0.080
867.55	0.081
867.73	0.081
867.92	0.081
868.10	0.081
868.28	0.081
868.46	0.081
868.64	0.080
868.82	0.081
869.00	0.081
869.18	0.081
869.36	0.081
869.54	0.081
869.72	0.081
869.90	0.081
870.08	0.081
870.26	0.081
870.44	0.081
870.62	0.081
870.80	0.081
870.98	0.081
871.16	0.081
871.34	0.081
871.53	0.080
871.71	0.080
871.89	0.081
872.07	0.081
872.25	0.080
872.43	0.080
872.61	0.080
872.79	0.081
872.97	0.081
873.15	0.081
873.33	0.082
873.51	0.082
873.69	0.082
873.87	0.082
874.05	0.082
874.23	0.082
874.41	0.082
874.59	0.083
874.77	0.083
874.95	0.083
875.13	0.083
875.31	0.083
875.49	0.083
875.67	0.083
875.85	0.083
876.03	0.083
876.21	0.083
876.39	0.083
876.57	0.083
876.75	0.083
876.93	0.082
877.11	0.083
877.29	0.082
877.47	0.082
877.65	0.083
877.82	0.083
878.00	0.083
878.18	0.083
878.36	0.083
878.54	0.083
878.72	0.082
878.90	0.083
879.08	0.083
879.26	0.083
879.44	0.083
879.62	0.083
879.80	0.083
879.98	0.083
880.16	0.083
880.34	0.083
880.52	0.083
880.70	0.083
880.88	0.083
881.06	0.083
881.24	0.083
881.42	0.083
881.59	0.083
881.77	0.082
881.95	0.083
882.13	0.083
882.31	0.083
882.49	0.083
882.67	0.084
882.85	0.083
883.03	0.084
883.21	0.084
883.39	0.084
883.57	0.084
883.75	0.084
883.92	0.084
884.10	0.084
884.28	0.084
884.46	0.084
884.64	0.084
884.82	0.084
885.00	0.083
885.18	0.084
885.36	0.084
885.54	0.084
885.71	0.084
885.89	0.084
886.07	0.084
886.25	0.084
886.43	0.084
886.61	0.084
886.79	0.084
886.97	0.085
887.15	0.085
887.32	0.084
887.50	0.085
887.68	0.084
887.86	0.085
888.04	0.085
888.22	0.085
888.40	0.085
888.57	0.085
888.75	0.085
888.93	0.085
889.11	0.085
889.29	0.086
889.47	0.086
889.65	0.086
889.82	0.086
890.00	0.087
890.18	0.087
890.36	0.087
890.54	0.087
890.72	0.087
890.90	0.087
891.07	0.087
891.25	0.086
891.43	0.086
891.61	0.086
891.79	0.086
891.97	0.086
892.14	0.086
892.32	0.085
892.50	0.086
892.68	0.086
892.86	0.086
893.03	0.086
893.21	0.086
893.39	0.086
893.57	0.086
893.75	0.086
893.93	0.086
894.10	0.086
894.28	0.086
894.46	0.086
894.64	0.086
894.82	0.087
894.99	0.087
895.17	0.087
895.35	0.087
895.53	0.087
895.71	0.087
895.88	0.087
896.06	0.087
896.24	0.087
896.42	0.087
896.59	0.087
896.77	0.087
896.95	0.087
897.13	0.087
897.31	0.087
897.48	0.087
897.66	0.087
897.84	0.087
898.02	0.087
898.19	0.087
898.37	0.087
898.55	0.087
898.73	0.088
898.91	0.088
899.08	0.088
899.26	0.088
899.44	0.088
899.62	0.088
899.79	0.088
899.97	0.089
900.15	0.088
900.33	0.088
900.50	0.088
900.68	0.087
900.86	0.087
901.04	0.088
901.21	0.088
901.39	0.088
901.57	0.088
901.74	0.088
901.92	0.088
902.10	0.088
902.28	0.088
902.45	0.088
902.63	0.088
902.81	0.088
902.99	0.088
903.16	0.089
903.34	0.089
903.52	0.089
903.69	0.089
903.87	0.089
904.05	0.089
904.22	0.089
904.40	0.089
904.58	0.089
904.76	0.090
904.93	0.090
905.11	0.090
905.29	0.090
905.46	0.090
905.64	0.090
905.82	0.090
905.99	0.090
906.17	0.090
906.35	0.090
906.53	0.090
906.70	0.090
906.88	0.090
907.06	0.090
907.23	0.090
907.41	0.091
907.59	0.090
907.76	0.091
907.94	0.091
908.12	0.091
908.29	0.091
908.47	0.091
908.65	0.091
908.82	0.091
909.00	0.091
909.18	0.091
909.35	0.091
909.53	0.091
909.71	0.091
909.88	0.092
910.06	0.092
910.23	0.091
910.41	0.092
910.59	0.091
910.76	0.091
910.94	0.092
911.12	0.091
911.29	0.091
911.47	0.092
911.65	0.092
911.82	0.092
912.00	0.092
912.17	0.092
912.35	0.092
912.53	0.093
912.70	0.093
912.88	0.093
913.06	0.094
913.23	0.094
913.41	0.094
913.58	0.094
913.76	0.094
913.94	0.094
914.11	0.094
914.29	0.094
914.46	0.094
914.64	0.094
914.82	0.094
914.99	0.094
915.17	0.094
915.34	0.094
915.52	0.094
915.70	0.094
915.87	0.094
916.05	0.095
916.22	0.094
916.40	0.095
916.57	0.095
916.75	0.095
916.93	0.095
917.10	0.095
917.28	0.095
917.45	0.095
917.63	0.095
917.80	0.095
917.98	0.096
918.16	0.096
918.33	0.096
918.51	0.096
918.68	0.097
918.86	0.097
919.03	0.097
919.21	0.098
919.39	0.098
919.56	0.098
919.74	0.098
919.91	0.098
920.09	0.098
920.26	0.098
920.44	0.099
920.61	0.099
920.79	0.099
920.96	0.099
921.14	0.099
921.31	0.100
921.49	0.100
921.67	0.100
921.84	0.101
922.02	0.101
922.19	0.101
922.37	0.101
922.54	0.101
922.72	0.102
922.89	0.102
923.07	0.102
923.24	0.102
923.42	0.102
923.59	0.102
923.77	0.102
923.94	0.103
924.12	0.103
924.29	0.104
924.47	0.104
924.64	0.104
924.82	0.104
924.99	0.104
925.17	0.105
925.34	0.105
925.52	0.105
925.69	0.106
925.87	0.106
926.04	0.106
926.22	0.106
926.39	0.107
926.57	0.107
926.74	0.107
926.91	0.107
927.09	0.108
927.26	0.108
927.44	0.108
927.61	0.108
927.79	0.108
927.96	0.109
928.14	0.109
928.31	0.109
928.49	0.109
928.66	0.110
928.84	0.111
929.01	0.112
929.18	0.112
929.36	0.113
929.53	0.114
929.71	0.114
929.88	0.114
930.06	0.115
930.23	0.115
930.41	0.116
930.58	0.116
930.75	0.116
930.93	0.117
931.10	0.117
931.28	0.117
931.45	0.118
931.63	0.118
931.80	0.118
931.97	0.119
932.15	0.120
932.32	0.120
932.50	0.120
932.67	0.121
932.84	0.121
933.02	0.122
933.19	0.122
933.37	0.123
933.54	0.123
933.71	0.124
933.89	0.125
934.06	0.125
934.24	0.126
934.41	0.126
934.58	0.126
934.76	0.127
934.93	0.127
935.11	0.127
935.28	0.127
935.45	0.127
935.63	0.128
935.80	0.128
935.98	0.129
936.15	0.129
936.32	0.130
936.50	0.131
936.67	0.131
936.84	0.131
937.02	0.132
937.19	0.133
937.36	0.134
937.54	0.134
937.71	0.135
937.89	0.135
938.06	0.136
938.23	0.136
938.41	0.137
938.58	0.137
938.75	0.137
938.93	0.137
939.10	0.138
939.27	0.138
939.45	0.139
939.62	0.139
939.79	0.140
939.97	0.140
940.14	0.141
940.31	0.142
940.49	0.142
940.66	0.143
940.83	0.143
941.01	0.144
941.18	0.145
941.35	0.145
941.53	0.146
941.70	0.147
941.87	0.147
942.05	0.148
942.22	0.149
942.39	0.150
942.57	0.150
942.74	0.151
942.91	0.151
943.08	0.152
943.26	0.153
943.43	0.153
943.60	0.154
943.78	0.155
943.95	0.156
944.12	0.156
944.29	0.157
944.47	0.158
944.64	0.159
944.81	0.160
944.99	0.160
945.16	0.161
945.33	0.162
945.50	0.163
945.68	0.163
945.85	0.163
946.02	0.165
946.20	0.166
946.37	0.167
946.54	0.167
946.71	0.169
946.89	0.169
947.06	0.170
947.23	0.171
947.40	0.173
947.58	0.173
947.75	0.174
947.92	0.175
948.09	0.175
948.27	0.177
948.44	0.178
948.61	0.178
948.78	0.179
948.96	0.181
949.13	0.181
949.30	0.182
949.47	0.183
949.65	0.184
949.82	0.186
949.99	0.186
950.16	0.188
950.33	0.189
950.51	0.190
950.68	0.192
950.85	0.192
951.02	0.194
951.20	0.194
951.37	0.196
951.54	0.197
951.71	0.198
951.88	0.199
952.06	0.200
952.23	0.201
952.40	0.203
952.57	0.204
952.74	0.205
952.92	0.207
953.09	0.208
953.26	0.209
953.43	0.210
953.60	0.211
953.77	0.211
953.95	0.212
954.12	0.214
954.29	0.215
954.46	0.217
954.63	0.218
954.81	0.219
954.98	0.220
955.15	0.222
955.32	0.223
955.49	0.224
955.66	0.225
955.84	0.227
956.01	0.227
956.18	0.229
956.35	0.231
956.52	0.231
956.69	0.232
956.87	0.232
957.04	0.233
957.21	0.236
957.38	0.236
957.55	0.237
957.72	0.238
957.89	0.239
958.07	0.239
958.24	0.242
958.41	0.243
958.58	0.243
958.75	0.244
958.92	0.245
959.09	0.246
959.26	0.246
959.44	0.247
959.61	0.248
959.78	0.249
959.95	0.250
960.12	0.250
960.29	0.252
960.46	0.251
960.63	0.252
960.81	0.252
960.98	0.253
961.15	0.253
961.32	0.254
961.49	0.253
961.66	0.255
961.83	0.255
962.00	0.255
962.17	0.257
962.34	0.256
962.52	0.257
962.69	0.258
962.86	0.257
963.03	0.258
963.20	0.258
963.37	0.258
963.54	0.258
963.71	0.258
963.88	0.259
964.05	0.259
964.22	0.261
964.39	0.260
964.56	0.260
964.74	0.261
964.91	0.261
965.08	0.261
965.25	0.261
965.42	0.262
965.59	0.263
965.76	0.263
965.93	0.264
966.10	0.262
966.27	0.263
966.44	0.263
966.61	0.264
966.78	0.263
966.95	0.262
967.12	0.264
967.29	0.265
967.46	0.265
967.63	0.264
967.80	0.264
967.97	0.264
968.14	0.263
968.32	0.264
968.49	0.264
968.66	0.264
968.83	0.265
969.00	0.265
969.17	0.265
969.34	0.266
969.51	0.267
969.68	0.265
969.85	0.266
970.02	0.266
970.19	0.266
970.36	0.266
970.53	0.267
970.70	0.265
970.87	0.265
971.04	0.264
971.21	0.265
971.38	0.265
971.55	0.265
971.72	0.265
971.89	0.266
972.06	0.265
972.23	0.266
972.40	0.266
972.57	0.265
972.74	0.265
972.91	0.267
973.07	0.267
973.24	0.266
973.41	0.267
973.58	0.266
973.75	0.278
973.92	0.266
974.09	0.266
974.26	0.265
974.43	0.265
974.60	0.265
974.77	0.265
974.94	0.264
975.11	0.265
975.28	0.266
975.45	0.264
975.62	0.265
975.79	0.266
975.96	0.264
976.13	0.263
976.30	0.265
976.47	0.263
976.64	0.264
976.80	0.264
976.97	0.264
977.14	0.263
977.31	0.264
977.48	0.264
977.65	0.264
977.82	0.263
977.99	0.264
978.16	0.264
978.33	0.264
978.50	0.263
978.67	0.264
978.83	0.263
979.00	0.264
979.17	0.263
979.34	0.262
979.51	0.262
979.68	0.263
979.85	0.262
980.02	0.263
980.19	0.260
980.36	0.262
980.52	0.264
980.69	0.262
980.86	0.262
981.03	0.262
981.20	0.261
981.37	0.262
981.54	0.263
981.71	0.262
981.88	0.263
982.04	0.262
982.21	0.262
982.38	0.263
982.55	0.261
982.72	0.260
982.89	0.261
983.06	0.259
983.22	0.259
983.39	0.259
983.56	0.258
983.73	0.257
983.90	0.257
984.07	0.259
984.24	0.257
984.40	0.257
984.57	0.255
984.74	0.257
984.91	0.258
985.08	0.256
985.25	0.254
985.41	0.255
985.58	0.255
985.75	0.256
985.92	0.255
986.09	0.254
986.26	0.254
986.42	0.253
986.59	0.252
986.76	0.253
986.93	0.253
987.10	0.254
987.27	0.252
987.43	0.250
987.60	0.252
987.77	0.252
987.94	0.250
988.11	0.251
988.27	0.251
988.44	0.250
988.61	0.249
988.78	0.248
988.95	0.249
989.11	0.250
989.28	0.249
989.45	0.248
989.62	0.248
989.79	0.248
989.95	0.247
990.12	0.249
990.29	0.249
990.46	0.247
990.62	0.245
990.79	0.245
990.96	0.245
991.13	0.245
991.30	0.244
991.46	0.243
991.63	0.242
991.80	0.241
991.97	0.241
992.13	0.241
992.30	0.242
992.47	0.240
992.64	0.240
992.80	0.240
992.97	0.241
993.14	0.238
993.31	0.236
993.47	0.239
993.64	0.237
993.81	0.237
993.98	0.237
994.14	0.236
994.31	0.236
994.48	0.236
994.64	0.236
994.81	0.235
994.98	0.235
995.15	0.233
995.31	0.232
995.48	0.232
995.65	0.233
995.82	0.231
995.98	0.230
996.15	0.231
996.32	0.232
996.48	0.231
996.65	0.230
996.82	0.228
996.99	0.229
997.15	0.228
997.32	0.230
997.49	0.228
997.65	0.229
997.82	0.229
997.99	0.227
998.15	0.227
998.32	0.228
998.49	0.227
998.65	0.227
998.82	0.227
998.99	0.225
999.15	0.225
999.32	0.224
999.49	0.224
999.65	0.224
999.82	0.222
999.99	0.223
1000.15	0.223
1000.32	0.223
1000.49	0.224
1000.65	0.221
1000.82	0.221
1000.99	0.221
1001.15	0.221
1001.32	0.220
1001.49	0.220
1001.65	0.220
1001.82	0.221
1001.99	0.218
1002.15	0.217
1002.32	0.217
1002.49	0.217
1002.65	0.217
1002.82	0.214
1002.99	0.214
1003.15	0.216
1003.32	0.215
1003.48	0.215
1003.65	0.215
1003.82	0.214
1003.98	0.211
1004.15	0.211
1004.32	0.211
1004.48	0.211
1004.65	0.213
1004.81	0.210
1004.98	0.208
1005.15	0.209
1005.31	0.209
1005.48	0.207
1005.64	0.206
1005.81	0.209
1005.98	0.206
1006.14	0.206
1006.31	0.206
1006.47	0.205
1006.64	0.204
1006.81	0.203
1006.97	0.203
1007.14	0.202
1007.30	0.204
1007.47	0.204
1007.63	0.201
1007.80	0.200
1007.97	0.200
1008.13	0.201
1008.30	0.200
1008.46	0.200
1008.63	0.199
1008.79	0.199
1008.96	0.200
1009.13	0.201
1009.29	0.198
1009.46	0.198
1009.62	0.198
1009.79	0.197
1009.95	0.196
1010.12	0.197
1010.28	0.197
1010.45	0.196
1010.62	0.196
1010.78	0.194
1010.95	0.193
1011.11	0.194
1011.28	0.192
1011.44	0.194
1011.61	0.192
1011.77	0.192
1011.94	0.191
1012.10	0.191
1012.27	0.190
1012.43	0.191
1012.60	0.189
1012.76	0.189
1012.93	0.189
1013.10	0.187
1013.26	0.184
1013.43	0.186
1013.59	0.193
1013.76	0.185
1013.92	0.183
1014.09	0.182
1014.25	0.183
1014.42	0.184
1014.58	0.184
1014.75	0.186
1014.91	0.184
1015.08	0.187
1015.24	0.183
1015.41	0.185
1015.57	0.185
1015.73	0.184
1015.90	0.183
1016.06	0.185
1016.23	0.183
1016.39	0.183
1016.56	0.184
1016.72	0.183
1016.89	0.183
1017.05	0.185
1017.22	0.181
1017.38	0.181
1017.55	0.180
1017.71	0.181
1017.88	0.181
1018.04	0.182
1018.21	0.179
1018.37	0.178
1018.53	0.178
1018.70	0.176
1018.86	0.175
1019.03	0.177
1019.19	0.175
1019.36	0.175
1019.52	0.176
1019.69	0.176
1019.85	0.175
1020.01	0.175
1020.18	0.174
1020.34	0.174
1020.51	0.174
1020.67	0.175
1020.84	0.173
1021.00	0.175
1021.16	0.172
1021.33	0.173
1021.49	0.172
1021.66	0.173
1021.82	0.171
1021.98	0.171
1022.15	0.170
1022.31	0.170
1022.48	0.170
1022.64	0.172
1022.80	0.171
1022.97	0.169
1023.13	0.167
1023.30	0.168
1023.46	0.169
1023.62	0.167
1023.79	0.169
1023.95	0.170
1024.12	0.169
1024.28	0.167
1024.44	0.166
1024.61	0.164
1024.77	0.163
1024.93	0.162
1025.10	0.163
1025.26	0.160
1025.43	0.160
1025.59	0.156
1025.75	0.160
1025.92	0.159
1026.08	0.158
1026.24	0.159
1026.41	0.161
1026.57	0.160
1026.73	0.157
1026.90	0.160
1027.06	0.157
1027.23	0.159
1027.39	0.160
1027.55	0.159
1027.72	0.157
1027.88	0.156
1028.04	0.156
1028.21	0.156
1028.37	0.151
1028.53	0.157
1028.70	0.155
1028.86	0.153
1029.02	0.154
1029.19	0.155
1029.35	0.154
1029.51	0.154
1029.67	0.153
1029.84	0.154
1030.00	0.149
1030.16	0.149
1030.33	0.152
1030.49	0.148
1030.65	0.146
1030.82	0.160
1030.98	0.147
1031.14	0.147
1031.31	0.147
1031.47	0.145
1031.63	0.148
1031.79	0.148
1031.96	0.149
1032.12	0.150
1032.28	0.148
1032.45	0.152
1032.61	0.150
1032.77	0.150
1032.93	0.147
1033.10	0.147
1033.26	0.149
1033.42	0.147
1033.58	0.147
1033.75	0.148
1033.91	0.145
1034.07	0.148
1034.24	0.146
1034.40	0.144
1034.56	0.143
1034.72	0.142
1034.89	0.143
1035.05	0.141
1035.21	0.141
1035.37	0.140
1035.54	0.144
1035.70	0.143
1035.86	0.143
1036.02	0.145
1036.19	0.143
1036.35	0.142
1036.51	0.146
1036.67	0.144
1036.83	0.145
1037.00	0.143
1037.16	0.143
1037.32	0.144
1037.48	0.142
1037.65	0.146
1037.81	0.142
1037.97	0.142
1038.13	0.142
1038.29	0.140
1038.46	0.137
1038.62	0.141
1038.78	0.139
1038.94	0.136
1039.10	0.140
1039.27	0.136
1039.43	0.139
1039.59	0.137
1039.75	0.136
1039.91	0.135
1040.08	0.135
1040.24	0.138
1040.40	0.139
1040.56	0.137
1040.72	0.132
1040.89	0.134
1041.05	0.136
1041.21	0.134
1041.37	0.134
1041.53	0.140
1041.69	0.138
1041.86	0.137
1042.02	0.133
1042.18	0.133
1042.34	0.133
1042.50	0.138
1042.66	0.134
1042.83	0.132
1042.99	0.134
1043.15	0.129
1043.31	0.130
1043.47	0.135
1043.63	0.131
1043.79	0.131
1043.96	0.133
1044.12	0.136
1044.28	0.132
1044.44	0.135
1044.60	0.130
1044.76	0.128
1044.92	0.131
1045.09	0.132
1045.25	0.129
1045.41	0.129
1045.57	0.125
1045.73	0.126
1045.89	0.128
1046.05	0.130
1046.21	0.133
1046.38	0.133
1046.54	0.141
1046.70	0.126
1046.86	0.125
>>>>>End Processed Spectral Data<<<<<
