SpectraSuite Data File
++++++++++++++++++++++++++++++++++++
Date: Mon May 20 12:13:54 CDT 2013
User: Students
Dark Spectrum Present: Yes
Reference Spectrum Present: Yes
Number of Sampled Component Spectra: 1
Spectrometers: USB4H00887
Integration Time (usec): 60000 (USB4H00887)
Spectra Averaged: 5 (USB4H00887)
Boxcar Smoothing: 5 (USB4H00887)
Correct for Electrical Dark: No (USB4H00887)
Strobe/Lamp Enabled: No (USB4H00887)
Correct for Detector Non-linearity: No (USB4H00887)
Correct for Stray Light: No (USB4H00887)
Number of Pixels in Processed Spectrum: 3648
>>>>>Begin Processed Spectral Data<<<<<
345.83	0.972
346.05	0.972
346.26	0.972
346.48	0.135
346.70	0.422
346.92	-0.036
347.14	0.011
347.35	0.023
347.57	0.246
347.79	-0.216
348.01	-0.172
348.23	-0.290
348.44	-0.000
348.66	0.166
348.88	-0.342
349.10	-0.171
349.32	0.052
349.53	-0.002
349.75	-0.032
349.97	-0.012
350.19	0.011
350.41	-0.003
350.62	0.185
350.84	-0.029
351.06	-0.032
351.28	-0.077
351.50	-0.261
351.71	-0.176
351.93	-0.167
352.15	-0.032
352.37	-0.114
352.58	-0.025
352.80	-0.001
353.02	0.023
353.24	0.044
353.46	0.098
353.67	-0.132
353.89	0.033
354.11	0.037
354.33	0.041
354.54	0.059
354.76	0.107
354.98	0.149
355.20	0.128
355.41	0.066
355.63	0.100
355.85	0.076
356.07	0.660
356.28	0.095
356.50	0.164
356.72	0.081
356.94	0.244
357.15	0.375
357.37	-0.000
357.59	0.176
357.81	0.122
358.02	0.186
358.24	0.112
358.46	0.227
358.68	0.185
358.89	0.091
359.11	-0.000
359.33	0.086
359.55	-0.495
359.76	0.087
359.98	0.083
360.20	0.103
360.42	0.104
360.63	0.104
360.85	0.070
361.07	0.356
361.29	0.078
361.50	0.281
361.72	0.092
361.94	0.379
362.15	0.161
362.37	0.115
362.59	0.106
362.81	0.170
363.02	0.288
363.24	0.441
363.46	0.248
363.68	0.315
363.89	0.180
364.11	0.268
364.33	0.351
364.54	0.202
364.76	0.243
364.98	0.284
365.20	0.309
365.41	0.191
365.63	0.236
365.85	0.156
366.06	0.452
366.28	0.382
366.50	0.200
366.71	0.092
366.93	0.116
367.15	0.103
367.37	0.086
367.58	0.099
367.80	0.129
368.02	0.265
368.23	0.111
368.45	0.121
368.67	0.121
368.88	0.125
369.10	-0.000
369.32	0.103
369.53	0.052
369.75	0.083
369.97	0.198
370.19	0.122
370.40	0.058
370.62	0.124
370.84	0.056
371.05	0.272
371.27	0.089
371.49	0.141
371.70	0.159
371.92	0.357
372.14	0.134
372.35	0.147
372.57	0.155
372.79	0.464
373.00	0.096
373.22	0.148
373.44	0.130
373.65	0.098
373.87	0.101
374.09	0.359
374.30	0.071
374.52	0.089
374.74	0.068
374.95	0.296
375.17	0.079
375.39	-0.000
375.60	0.100
375.82	0.182
376.04	0.082
376.25	0.118
376.47	0.076
376.68	0.180
376.90	0.115
377.12	0.248
377.33	0.142
377.55	0.395
377.77	0.190
377.98	0.338
378.20	0.180
378.42	0.216
378.63	0.284
378.85	-0.000
379.07	0.183
379.28	0.878
379.50	0.397
379.71	0.180
379.93	0.132
380.15	0.176
380.36	0.255
380.58	0.175
380.80	0.514
381.01	0.140
381.23	0.113
381.44	0.127
381.66	0.152
381.88	0.197
382.09	-0.087
382.31	0.128
382.53	0.129
382.74	0.774
382.96	0.218
383.17	0.191
383.39	0.267
383.61	0.354
383.82	0.245
384.04	0.282
384.25	0.347
384.47	0.342
384.69	0.332
384.90	0.334
385.12	0.774
385.33	0.399
385.55	0.272
385.77	0.442
385.98	0.214
386.20	0.293
386.41	0.256
386.63	0.316
386.85	0.259
387.06	0.315
387.28	0.464
387.49	0.309
387.71	0.216
387.93	0.192
388.14	0.648
388.36	0.253
388.57	0.227
388.79	0.253
389.01	-0.000
389.22	0.310
389.44	0.273
389.65	0.224
389.87	0.215
390.08	0.250
390.30	0.190
390.52	0.360
390.73	0.344
390.95	0.234
391.16	0.223
391.38	-0.000
391.59	0.235
391.81	0.200
392.03	0.206
392.24	0.247
392.46	0.201
392.67	0.182
392.89	0.249
393.10	0.374
393.32	0.277
393.53	0.320
393.75	0.213
393.97	0.246
394.18	0.338
394.40	0.297
394.61	0.299
394.83	0.277
395.04	0.349
395.26	0.239
395.47	0.390
395.69	0.318
395.91	0.334
396.12	0.421
396.34	0.399
396.55	0.254
396.77	0.397
396.98	-0.000
397.20	0.482
397.41	0.538
397.63	0.349
397.84	0.307
398.06	0.284
398.27	0.304
398.49	0.343
398.71	0.251
398.92	0.306
399.14	0.379
399.35	0.476
399.57	0.461
399.78	0.308
400.00	0.296
400.21	0.363
400.43	0.291
400.64	0.296
400.86	0.652
401.07	0.365
401.29	0.317
401.50	0.343
401.72	0.492
401.93	0.302
402.15	0.363
402.36	0.327
402.58	0.281
402.79	0.317
403.01	0.540
403.22	0.413
403.44	0.275
403.65	0.423
403.87	0.453
404.08	0.360
404.30	0.611
404.51	0.333
404.73	0.412
404.94	0.349
405.16	0.360
405.37	0.279
405.59	0.512
405.80	0.316
406.02	0.398
406.23	0.411
406.45	0.469
406.66	0.480
406.88	0.303
407.09	0.472
407.31	0.371
407.52	0.445
407.74	0.379
407.95	0.457
408.17	0.419
408.38	0.430
408.60	0.285
408.81	0.458
409.03	0.350
409.24	0.345
409.45	0.393
409.67	0.371
409.88	0.339
410.10	0.423
410.31	0.349
410.53	0.349
410.74	0.498
410.96	0.474
411.17	0.513
411.39	0.394
411.60	0.369
411.82	0.436
412.03	0.424
412.24	0.405
412.46	0.590
412.67	0.488
412.89	0.474
413.10	0.474
413.32	0.435
413.53	0.505
413.75	0.523
413.96	0.390
414.17	0.518
414.39	0.535
414.60	0.431
414.82	0.562
415.03	0.426
415.25	0.463
415.46	0.324
415.68	0.445
415.89	0.795
416.10	0.647
416.32	0.369
416.53	0.433
416.75	0.405
416.96	0.488
417.18	0.429
417.39	0.419
417.60	0.423
417.82	0.607
418.03	0.534
418.25	0.451
418.46	0.473
418.67	0.437
418.89	0.468
419.10	0.491
419.32	0.660
419.53	0.590
419.75	0.494
419.96	0.439
420.17	0.541
420.39	0.505
420.60	0.524
420.82	0.638
421.03	0.505
421.24	0.428
421.46	0.474
421.67	0.520
421.89	0.458
422.10	0.500
422.31	0.486
422.53	0.699
422.74	0.522
422.96	0.419
423.17	0.469
423.38	0.584
423.60	0.488
423.81	0.603
424.03	0.513
424.24	0.565
424.45	0.558
424.67	0.557
424.88	0.502
425.09	0.542
425.31	0.496
425.52	0.543
425.74	0.617
425.95	0.669
426.16	0.522
426.38	0.609
426.59	0.558
426.80	0.647
427.02	0.682
427.23	0.519
427.45	0.683
427.66	0.666
427.87	0.504
428.09	0.531
428.30	0.592
428.51	0.579
428.73	0.638
428.94	0.557
429.15	0.546
429.37	0.529
429.58	0.556
429.79	0.511
430.01	0.614
430.22	0.598
430.44	0.607
430.65	0.547
430.86	0.585
431.08	0.576
431.29	0.524
431.50	0.622
431.72	0.825
431.93	0.663
432.14	0.498
432.36	0.544
432.57	0.561
432.78	0.596
433.00	0.548
433.21	0.545
433.42	0.675
433.64	0.589
433.85	0.667
434.06	0.537
434.28	0.572
434.49	0.599
434.70	0.612
434.92	0.620
435.13	0.657
435.34	0.665
435.56	0.628
435.77	0.621
435.98	0.810
436.20	0.662
436.41	0.576
436.62	0.558
436.83	0.630
437.05	0.713
437.26	0.624
437.47	0.559
437.69	0.610
437.90	0.556
438.11	0.542
438.33	0.593
438.54	0.615
438.75	0.770
438.97	0.764
439.18	0.580
439.39	0.609
439.60	0.659
439.82	0.611
440.03	0.565
440.24	0.810
440.46	0.621
440.67	0.600
440.88	0.640
441.10	0.601
441.31	0.594
441.52	0.640
441.73	0.713
441.95	0.633
442.16	0.583
442.37	0.916
442.58	0.588
442.80	0.576
443.01	0.743
443.22	0.684
443.44	0.584
443.65	0.701
443.86	0.697
444.07	0.750
444.29	0.645
444.50	0.831
444.71	0.619
444.92	0.575
445.14	0.721
445.35	0.762
445.56	0.607
445.78	0.707
445.99	0.689
446.20	0.597
446.41	0.662
446.63	0.662
446.84	0.628
447.05	0.630
447.26	0.753
447.48	0.656
447.69	0.621
447.90	0.698
448.11	0.625
448.33	0.662
448.54	0.680
448.75	0.719
448.96	0.736
449.18	0.781
449.39	0.694
449.60	0.674
449.81	0.808
450.03	0.695
450.24	0.756
450.45	0.718
450.66	0.700
450.87	0.731
451.09	0.682
451.30	0.659
451.51	0.726
451.72	0.740
451.94	0.753
452.15	0.822
452.36	0.688
452.57	0.709
452.78	0.702
453.00	0.727
453.21	0.690
453.42	0.660
453.63	0.753
453.85	0.721
454.06	0.720
454.27	0.850
454.48	0.756
454.69	0.686
454.91	0.749
455.12	0.660
455.33	0.749
455.54	0.764
455.75	0.737
455.97	0.762
456.18	0.754
456.39	0.762
456.60	0.789
456.81	0.730
457.03	0.739
457.24	0.744
457.45	0.829
457.66	0.764
457.87	0.716
458.09	0.738
458.30	0.657
458.51	0.775
458.72	0.796
458.93	0.800
459.15	0.704
459.36	0.771
459.57	0.791
459.78	0.838
459.99	0.755
460.20	0.725
460.42	0.808
460.63	0.761
460.84	0.745
461.05	0.762
461.26	0.822
461.47	0.741
461.69	0.789
461.90	0.822
462.11	0.780
462.32	0.835
462.53	0.773
462.74	0.871
462.96	0.752
463.17	0.736
463.38	0.775
463.59	0.885
463.80	0.743
464.01	0.765
464.23	0.848
464.44	0.809
464.65	0.812
464.86	0.834
465.07	0.829
465.28	0.795
465.49	0.820
465.71	0.775
465.92	0.808
466.13	0.845
466.34	0.783
466.55	0.835
466.76	0.796
466.97	0.821
467.19	0.810
467.40	0.846
467.61	0.853
467.82	0.784
468.03	0.768
468.24	0.833
468.45	0.862
468.66	0.847
468.88	0.855
469.09	0.860
469.30	0.906
469.51	0.835
469.72	0.881
469.93	0.853
470.14	0.827
470.35	0.918
470.57	0.873
470.78	0.818
470.99	0.952
471.20	0.886
471.41	0.843
471.62	0.891
471.83	0.864
472.04	0.893
472.25	0.928
472.47	0.848
472.68	0.853
472.89	0.861
473.10	0.899
473.31	0.852
473.52	0.913
473.73	0.938
473.94	0.862
474.15	0.882
474.36	0.880
474.57	0.908
474.79	0.883
475.00	0.883
475.21	0.865
475.42	0.951
475.63	0.856
475.84	0.882
476.05	0.886
476.26	0.856
476.47	0.885
476.68	0.931
476.89	0.865
477.10	0.910
477.32	0.898
477.53	0.950
477.74	0.876
477.95	0.914
478.16	0.870
478.37	0.913
478.58	0.920
478.79	0.936
479.00	0.938
479.21	0.898
479.42	0.935
479.63	0.938
479.84	0.905
480.05	0.906
480.26	0.935
480.47	0.954
480.69	0.957
480.90	0.923
481.11	0.925
481.32	0.980
481.53	0.922
481.74	0.976
481.95	0.942
482.16	0.957
482.37	0.962
482.58	0.929
482.79	0.943
483.00	0.968
483.21	0.914
483.42	0.885
483.63	0.962
483.84	0.985
484.05	0.973
484.26	0.948
484.47	0.949
484.68	0.913
484.89	0.918
485.10	0.966
485.31	0.945
485.52	0.951
485.73	0.951
485.94	0.991
486.15	0.940
486.37	0.961
486.58	0.926
486.79	0.936
487.00	0.982
487.21	0.973
487.42	0.970
487.63	0.976
487.84	0.994
488.05	0.988
488.26	0.944
488.47	0.951
488.68	0.976
488.89	0.953
489.10	0.945
489.31	0.957
489.52	0.988
489.73	0.955
489.94	0.987
490.15	0.947
490.36	0.986
490.57	0.942
490.78	0.927
490.99	0.961
491.20	1.036
491.41	0.994
491.62	0.943
491.83	0.972
492.04	0.969
492.25	0.977
492.45	0.978
492.66	1.002
492.87	0.992
493.08	0.980
493.29	0.965
493.50	0.957
493.71	0.964
493.92	0.960
494.13	0.973
494.34	0.995
494.55	1.000
494.76	1.029
494.97	1.022
495.18	0.990
495.39	1.007
495.60	0.962
495.81	0.963
496.02	0.982
496.23	0.974
496.44	1.005
496.65	0.995
496.86	1.001
497.07	1.027
497.28	1.020
497.49	0.971
497.70	0.970
497.91	0.992
498.12	0.974
498.32	1.019
498.53	1.003
498.74	0.995
498.95	1.019
499.16	0.976
499.37	0.978
499.58	0.986
499.79	1.015
500.00	1.013
500.21	1.036
500.42	0.985
500.63	0.983
500.84	1.003
501.05	0.981
501.26	1.005
501.46	1.040
501.67	1.007
501.88	1.009
502.09	0.987
502.30	0.994
502.51	1.041
502.72	0.997
502.93	1.014
503.14	1.034
503.35	1.006
503.56	1.002
503.77	1.031
503.97	1.008
504.18	1.008
504.39	1.039
504.60	1.008
504.81	1.035
505.02	1.020
505.23	1.021
505.44	1.004
505.65	1.011
505.86	0.993
506.07	1.057
506.27	1.017
506.48	1.021
506.69	1.007
506.90	1.027
507.11	1.025
507.32	1.005
507.53	1.013
507.74	1.007
507.95	1.019
508.15	1.025
508.36	1.030
508.57	1.040
508.78	1.024
508.99	1.022
509.20	0.999
509.41	1.021
509.62	1.011
509.82	1.008
510.03	1.017
510.24	1.018
510.45	1.040
510.66	1.032
510.87	1.031
511.08	0.993
511.29	1.034
511.49	1.011
511.70	1.054
511.91	0.991
512.12	0.989
512.33	1.020
512.54	1.033
512.75	1.017
512.95	1.041
513.16	1.031
513.37	1.008
513.58	1.044
513.79	1.011
514.00	1.019
514.20	1.037
514.41	1.025
514.62	0.992
514.83	1.035
515.04	1.023
515.25	1.005
515.46	1.015
515.66	1.018
515.87	1.030
516.08	0.999
516.29	1.021
516.50	1.001
516.71	0.996
516.91	1.004
517.12	1.017
517.33	1.005
517.54	0.990
517.75	0.993
517.95	1.004
518.16	1.013
518.37	0.982
518.58	0.989
518.79	0.966
519.00	0.997
519.20	1.007
519.41	0.980
519.62	1.000
519.83	1.010
520.04	0.977
520.24	0.974
520.45	0.984
520.66	1.008
520.87	0.971
521.08	0.968
521.28	0.970
521.49	0.986
521.70	0.959
521.91	0.972
522.12	0.954
522.32	0.976
522.53	0.958
522.74	0.948
522.95	0.956
523.16	0.957
523.36	0.965
523.57	0.947
523.78	0.940
523.99	0.945
524.20	0.938
524.40	0.951
524.61	0.958
524.82	0.936
525.03	0.940
525.23	0.941
525.44	0.926
525.65	0.926
525.86	0.946
526.06	0.920
526.27	0.921
526.48	0.929
526.69	0.910
526.90	0.913
527.10	0.945
527.31	0.901
527.52	0.895
527.73	0.889
527.93	0.896
528.14	0.902
528.35	0.891
528.56	0.892
528.76	0.886
528.97	0.877
529.18	0.869
529.39	0.869
529.59	0.872
529.80	0.901
530.01	0.876
530.22	0.876
530.42	0.848
530.63	0.864
530.84	0.843
531.05	0.855
531.25	0.858
531.46	0.850
531.67	0.831
531.88	0.848
532.08	0.842
532.29	0.837
532.50	0.830
532.70	0.823
532.91	0.815
533.12	0.818
533.33	0.841
533.53	0.812
533.74	0.812
533.95	0.818
534.15	0.807
534.36	0.807
534.57	0.790
534.78	0.792
534.98	0.803
535.19	0.774
535.40	0.775
535.60	0.793
535.81	0.774
536.02	0.778
536.23	0.769
536.43	0.772
536.64	0.760
536.85	0.768
537.05	0.777
537.26	0.754
537.47	0.758
537.67	0.747
537.88	0.742
538.09	0.749
538.30	0.739
538.50	0.729
538.71	0.740
538.92	0.727
539.12	0.724
539.33	0.719
539.54	0.719
539.74	0.724
539.95	0.715
540.16	0.712
540.36	0.704
540.57	0.702
540.78	0.695
540.98	0.693
541.19	0.692
541.40	0.679
541.60	0.689
541.81	0.683
542.02	0.683
542.22	0.674
542.43	0.670
542.64	0.665
542.84	0.666
543.05	0.658
543.26	0.659
543.46	0.661
543.67	0.659
543.88	0.655
544.08	0.645
544.29	0.640
544.50	0.640
544.70	0.640
544.91	0.632
545.12	0.634
545.32	0.630
545.53	0.633
545.74	0.623
545.94	0.620
546.15	0.617
546.35	0.614
546.56	0.611
546.77	0.608
546.97	0.606
547.18	0.598
547.39	0.598
547.59	0.596
547.80	0.592
548.01	0.595
548.21	0.591
548.42	0.583
548.62	0.583
548.83	0.580
549.04	0.577
549.24	0.570
549.45	0.570
549.65	0.566
549.86	0.561
550.07	0.561
550.27	0.559
550.48	0.567
550.69	0.553
550.89	0.553
551.10	0.549
551.30	0.548
551.51	0.547
551.72	0.537
551.92	0.537
552.13	0.538
552.33	0.538
552.54	0.533
552.75	0.526
552.95	0.528
553.16	0.523
553.36	0.521
553.57	0.518
553.78	0.516
553.98	0.517
554.19	0.509
554.39	0.506
554.60	0.508
554.80	0.508
555.01	0.501
555.22	0.502
555.42	0.499
555.63	0.492
555.83	0.496
556.04	0.490
556.25	0.492
556.45	0.482
556.66	0.480
556.86	0.483
557.07	0.481
557.27	0.480
557.48	0.474
557.68	0.473
557.89	0.474
558.10	0.470
558.30	0.467
558.51	0.465
558.71	0.462
558.92	0.458
559.12	0.461
559.33	0.464
559.54	0.458
559.74	0.454
559.95	0.452
560.15	0.451
560.36	0.450
560.56	0.444
560.77	0.444
560.97	0.445
561.18	0.440
561.38	0.439
561.59	0.442
561.79	0.438
562.00	0.435
562.21	0.432
562.41	0.431
562.62	0.430
562.82	0.429
563.03	0.425
563.23	0.424
563.44	0.424
563.64	0.420
563.85	0.421
564.05	0.415
564.26	0.415
564.46	0.414
564.67	0.414
564.87	0.410
565.08	0.407
565.28	0.407
565.49	0.408
565.69	0.405
565.90	0.402
566.10	0.404
566.31	0.397
566.51	0.399
566.72	0.400
566.92	0.394
567.13	0.393
567.33	0.392
567.54	0.390
567.74	0.389
567.95	0.384
568.15	0.385
568.36	0.385
568.56	0.383
568.77	0.378
568.97	0.377
569.18	0.377
569.38	0.376
569.59	0.376
569.79	0.373
570.00	0.371
570.20	0.370
570.41	0.368
570.61	0.367
570.82	0.368
571.02	0.365
571.23	0.366
571.43	0.361
571.64	0.360
571.84	0.359
572.05	0.358
572.25	0.357
572.45	0.355
572.66	0.352
572.86	0.350
573.07	0.348
573.27	0.348
573.48	0.347
573.68	0.343
573.89	0.342
574.09	0.343
574.30	0.341
574.50	0.339
574.70	0.340
574.91	0.338
575.11	0.338
575.32	0.337
575.52	0.333
575.73	0.333
575.93	0.333
576.14	0.332
576.34	0.330
576.54	0.329
576.75	0.327
576.95	0.326
577.16	0.324
577.36	0.323
577.57	0.323
577.77	0.322
577.97	0.319
578.18	0.321
578.38	0.318
578.59	0.316
578.79	0.315
579.00	0.316
579.20	0.314
579.40	0.313
579.61	0.312
579.81	0.311
580.02	0.308
580.22	0.308
580.42	0.307
580.63	0.306
580.83	0.305
581.04	0.302
581.24	0.301
581.45	0.300
581.65	0.299
581.85	0.298
582.06	0.296
582.26	0.296
582.47	0.294
582.67	0.294
582.87	0.293
583.08	0.291
583.28	0.291
583.48	0.289
583.69	0.287
583.89	0.287
584.10	0.287
584.30	0.285
584.50	0.283
584.71	0.282
584.91	0.282
585.12	0.280
585.32	0.282
585.52	0.279
585.73	0.278
585.93	0.277
586.13	0.277
586.34	0.275
586.54	0.275
586.75	0.274
586.95	0.273
587.15	0.273
587.36	0.271
587.56	0.270
587.76	0.269
587.97	0.269
588.17	0.267
588.37	0.267
588.58	0.267
588.78	0.264
588.98	0.265
589.19	0.264
589.39	0.262
589.60	0.264
589.80	0.262
590.00	0.261
590.21	0.261
590.41	0.260
590.61	0.259
590.82	0.259
591.02	0.258
591.22	0.256
591.43	0.256
591.63	0.254
591.83	0.253
592.04	0.252
592.24	0.252
592.44	0.250
592.65	0.248
592.85	0.248
593.05	0.249
593.26	0.247
593.46	0.247
593.66	0.247
593.86	0.246
594.07	0.244
594.27	0.245
594.47	0.243
594.68	0.243
594.88	0.243
595.08	0.242
595.29	0.243
595.49	0.240
595.69	0.240
595.90	0.239
596.10	0.240
596.30	0.238
596.50	0.237
596.71	0.236
596.91	0.235
597.11	0.235
597.32	0.235
597.52	0.233
597.72	0.232
597.93	0.232
598.13	0.230
598.33	0.230
598.53	0.229
598.74	0.229
598.94	0.229
599.14	0.228
599.35	0.229
599.55	0.228
599.75	0.227
599.95	0.226
600.16	0.227
600.36	0.225
600.56	0.225
600.76	0.224
600.97	0.222
601.17	0.222
601.37	0.222
601.58	0.220
601.78	0.220
601.98	0.219
602.18	0.219
602.39	0.219
602.59	0.219
602.79	0.218
602.99	0.217
603.20	0.216
603.40	0.216
603.60	0.215
603.80	0.215
604.01	0.214
604.21	0.213
604.41	0.212
604.61	0.211
604.82	0.210
605.02	0.210
605.22	0.210
605.42	0.210
605.62	0.210
605.83	0.208
606.03	0.208
606.23	0.208
606.43	0.207
606.64	0.208
606.84	0.207
607.04	0.207
607.24	0.207
607.45	0.207
607.65	0.206
607.85	0.207
608.05	0.205
608.25	0.204
608.46	0.204
608.66	0.204
608.86	0.203
609.06	0.202
609.26	0.201
609.47	0.202
609.67	0.201
609.87	0.202
610.07	0.201
610.28	0.199
610.48	0.199
610.68	0.199
610.88	0.198
611.08	0.198
611.29	0.197
611.49	0.196
611.69	0.197
611.89	0.195
612.09	0.195
612.29	0.194
612.50	0.194
612.70	0.194
612.90	0.193
613.10	0.193
613.30	0.192
613.51	0.192
613.71	0.192
613.91	0.196
614.11	0.191
614.31	0.191
614.51	0.190
614.72	0.189
614.92	0.189
615.12	0.189
615.32	0.190
615.52	0.189
615.72	0.189
615.93	0.189
616.13	0.188
616.33	0.188
616.53	0.187
616.73	0.188
616.93	0.187
617.14	0.187
617.34	0.187
617.54	0.187
617.74	0.186
617.94	0.186
618.14	0.185
618.34	0.185
618.55	0.184
618.75	0.184
618.95	0.184
619.15	0.184
619.35	0.183
619.55	0.181
619.75	0.182
619.96	0.181
620.16	0.182
620.36	0.181
620.56	0.181
620.76	0.180
620.96	0.180
621.16	0.180
621.36	0.179
621.57	0.179
621.77	0.180
621.97	0.178
622.17	0.178
622.37	0.178
622.57	0.179
622.77	0.178
622.97	0.177
623.18	0.177
623.38	0.177
623.58	0.177
623.78	0.177
623.98	0.177
624.18	0.176
624.38	0.176
624.58	0.175
624.78	0.175
624.98	0.175
625.19	0.175
625.39	0.175
625.59	0.174
625.79	0.174
625.99	0.174
626.19	0.173
626.39	0.173
626.59	0.173
626.79	0.173
626.99	0.173
627.19	0.172
627.40	0.172
627.60	0.172
627.80	0.172
628.00	0.171
628.20	0.171
628.40	0.171
628.60	0.171
628.80	0.170
629.00	0.170
629.20	0.170
629.40	0.170
629.60	0.169
629.80	0.169
630.00	0.169
630.20	0.169
630.41	0.168
630.61	0.168
630.81	0.168
631.01	0.168
631.21	0.167
631.41	0.167
631.61	0.167
631.81	0.167
632.01	0.167
632.21	0.166
632.41	0.165
632.61	0.165
632.81	0.165
633.01	0.166
633.21	0.165
633.41	0.166
633.61	0.165
633.81	0.164
634.01	0.163
634.21	0.163
634.41	0.163
634.61	0.163
634.81	0.162
635.01	0.162
635.22	0.162
635.42	0.162
635.62	0.161
635.82	0.161
636.02	0.161
636.22	0.161
636.42	0.161
636.62	0.161
636.82	0.161
637.02	0.160
637.22	0.160
637.42	0.160
637.62	0.159
637.82	0.159
638.02	0.159
638.22	0.158
638.42	0.158
638.62	0.157
638.82	0.157
639.02	0.157
639.22	0.157
639.42	0.156
639.62	0.156
639.82	0.156
640.02	0.156
640.22	0.156
640.42	0.156
640.62	0.156
640.82	0.156
641.02	0.156
641.22	0.156
641.42	0.156
641.61	0.156
641.81	0.156
642.01	0.156
642.21	0.156
642.41	0.155
642.61	0.155
642.81	0.154
643.01	0.154
643.21	0.153
643.41	0.153
643.61	0.153
643.81	0.152
644.01	0.151
644.21	0.151
644.41	0.151
644.61	0.151
644.81	0.151
645.01	0.151
645.21	0.151
645.41	0.151
645.61	0.151
645.81	0.150
646.01	0.150
646.21	0.151
646.40	0.150
646.60	0.151
646.80	0.151
647.00	0.150
647.20	0.149
647.40	0.149
647.60	0.148
647.80	0.148
648.00	0.149
648.20	0.148
648.40	0.148
648.60	0.148
648.80	0.147
649.00	0.147
649.20	0.148
649.39	0.147
649.59	0.147
649.79	0.147
649.99	0.147
650.19	0.146
650.39	0.146
650.59	0.146
650.79	0.146
650.99	0.145
651.19	0.145
651.39	0.145
651.58	0.145
651.78	0.144
651.98	0.144
652.18	0.144
652.38	0.143
652.58	0.143
652.78	0.143
652.98	0.142
653.18	0.142
653.38	0.143
653.57	0.142
653.77	0.142
653.97	0.142
654.17	0.142
654.37	0.141
654.57	0.141
654.77	0.141
654.97	0.140
655.16	0.140
655.36	0.140
655.56	0.139
655.76	0.139
655.96	0.139
656.16	0.138
656.36	0.138
656.56	0.138
656.75	0.138
656.95	0.138
657.15	0.138
657.35	0.138
657.55	0.137
657.75	0.138
657.95	0.138
658.14	0.138
658.34	0.138
658.54	0.137
658.74	0.137
658.94	0.136
659.14	0.137
659.34	0.136
659.53	0.136
659.73	0.135
659.93	0.135
660.13	0.134
660.33	0.134
660.53	0.134
660.72	0.135
660.92	0.135
661.12	0.134
661.32	0.134
661.52	0.133
661.72	0.133
661.91	0.133
662.11	0.133
662.31	0.133
662.51	0.132
662.71	0.132
662.90	0.131
663.10	0.131
663.30	0.130
663.50	0.131
663.70	0.130
663.90	0.130
664.09	0.130
664.29	0.129
664.49	0.129
664.69	0.129
664.89	0.129
665.08	0.129
665.28	0.128
665.48	0.128
665.68	0.127
665.88	0.127
666.07	0.127
666.27	0.127
666.47	0.128
666.67	0.128
666.87	0.128
667.06	0.127
667.26	0.127
667.46	0.127
667.66	0.127
667.85	0.127
668.05	0.127
668.25	0.127
668.45	0.127
668.65	0.126
668.84	0.126
669.04	0.126
669.24	0.126
669.44	0.125
669.63	0.125
669.83	0.125
670.03	0.124
670.23	0.123
670.42	0.123
670.62	0.122
670.82	0.122
671.02	0.121
671.22	0.121
671.41	0.120
671.61	0.121
671.81	0.120
672.01	0.120
672.20	0.120
672.40	0.120
672.60	0.120
672.80	0.120
672.99	0.120
673.19	0.120
673.39	0.120
673.58	0.120
673.78	0.120
673.98	0.119
674.18	0.119
674.37	0.119
674.57	0.119
674.77	0.119
674.97	0.119
675.16	0.119
675.36	0.118
675.56	0.118
675.75	0.117
675.95	0.117
676.15	0.117
676.35	0.117
676.54	0.117
676.74	0.116
676.94	0.117
677.13	0.116
677.33	0.116
677.53	0.116
677.73	0.116
677.92	0.116
678.12	0.116
678.32	0.115
678.51	0.115
678.71	0.115
678.91	0.114
679.11	0.114
679.30	0.114
679.50	0.114
679.70	0.113
679.89	0.113
680.09	0.114
680.29	0.113
680.48	0.113
680.68	0.112
680.88	0.112
681.07	0.113
681.27	0.112
681.47	0.112
681.66	0.112
681.86	0.112
682.06	0.112
682.25	0.112
682.45	0.112
682.65	0.112
682.84	0.111
683.04	0.111
683.24	0.111
683.43	0.111
683.63	0.110
683.83	0.110
684.02	0.110
684.22	0.110
684.42	0.109
684.61	0.109
684.81	0.109
685.01	0.109
685.20	0.108
685.40	0.108
685.60	0.108
685.79	0.108
685.99	0.108
686.19	0.108
686.38	0.108
686.58	0.108
686.77	0.108
686.97	0.108
687.17	0.108
687.36	0.108
687.56	0.108
687.76	0.108
687.95	0.108
688.15	0.107
688.34	0.107
688.54	0.107
688.74	0.106
688.93	0.106
689.13	0.106
689.33	0.106
689.52	0.105
689.72	0.106
689.91	0.105
690.11	0.105
690.31	0.105
690.50	0.105
690.70	0.105
690.89	0.105
691.09	0.105
691.29	0.105
691.48	0.104
691.68	0.104
691.87	0.104
692.07	0.104
692.27	0.104
692.46	0.103
692.66	0.103
692.85	0.103
693.05	0.102
693.25	0.102
693.44	0.102
693.64	0.102
693.83	0.102
694.03	0.101
694.22	0.101
694.42	0.101
694.62	0.101
694.81	0.101
695.01	0.101
695.20	0.101
695.40	0.101
695.59	0.101
695.79	0.100
695.99	0.100
696.18	0.100
696.38	0.101
696.57	0.100
696.77	0.100
696.96	0.100
697.16	0.100
697.36	0.100
697.55	0.100
697.75	0.100
697.94	0.099
698.14	0.099
698.33	0.099
698.53	0.098
698.72	0.098
698.92	0.098
699.11	0.098
699.31	0.098
699.51	0.098
699.70	0.098
699.90	0.098
700.09	0.098
700.29	0.097
700.48	0.097
700.68	0.097
700.87	0.097
701.07	0.096
701.26	0.096
701.46	0.096
701.65	0.096
701.85	0.096
702.04	0.096
702.24	0.096
702.43	0.096
702.63	0.096
702.82	0.096
703.02	0.096
703.21	0.096
703.41	0.096
703.60	0.096
703.80	0.095
703.99	0.095
704.19	0.095
704.38	0.095
704.58	0.094
704.77	0.094
704.97	0.094
705.16	0.094
705.36	0.095
705.55	0.094
705.75	0.094
705.94	0.094
706.14	0.094
706.33	0.094
706.53	0.094
706.72	0.094
706.92	0.093
707.11	0.093
707.31	0.093
707.50	0.093
707.70	0.094
707.89	0.094
708.09	0.093
708.28	0.093
708.48	0.093
708.67	0.093
708.86	0.093
709.06	0.093
709.25	0.093
709.45	0.093
709.64	0.093
709.84	0.093
710.03	0.093
710.23	0.093
710.42	0.092
710.62	0.092
710.81	0.092
711.00	0.091
711.20	0.091
711.39	0.091
711.59	0.091
711.78	0.091
711.98	0.091
712.17	0.091
712.37	0.090
712.56	0.091
712.75	0.091
712.95	0.091
713.14	0.091
713.34	0.091
713.53	0.092
713.73	0.092
713.92	0.092
714.11	0.092
714.31	0.092
714.50	0.092
714.70	0.091
714.89	0.091
715.08	0.091
715.28	0.091
715.47	0.090
715.67	0.090
715.86	0.090
716.06	0.090
716.25	0.090
716.44	0.090
716.64	0.090
716.83	0.090
717.03	0.090
717.22	0.090
717.41	0.090
717.61	0.090
717.80	0.090
717.99	0.090
718.19	0.090
718.38	0.090
718.58	0.089
718.77	0.089
718.96	0.089
719.16	0.089
719.35	0.088
719.55	0.088
719.74	0.088
719.93	0.088
720.13	0.088
720.32	0.088
720.51	0.088
720.71	0.088
720.90	0.088
721.10	0.088
721.29	0.088
721.48	0.088
721.68	0.088
721.87	0.088
722.06	0.088
722.26	0.088
722.45	0.088
722.64	0.088
722.84	0.088
723.03	0.088
723.22	0.089
723.42	0.089
723.61	0.089
723.80	0.089
724.00	0.089
724.19	0.089
724.38	0.089
724.58	0.089
724.77	0.089
724.96	0.089
725.16	0.088
725.35	0.088
725.54	0.088
725.74	0.088
725.93	0.088
726.12	0.088
726.32	0.088
726.51	0.089
726.70	0.088
726.90	0.089
727.09	0.088
727.28	0.089
727.48	0.089
727.67	0.088
727.86	0.088
728.06	0.088
728.25	0.088
728.44	0.088
728.64	0.088
728.83	0.088
729.02	0.087
729.21	0.088
729.41	0.088
729.60	0.088
729.79	0.088
729.99	0.088
730.18	0.088
730.37	0.088
730.56	0.087
730.76	0.087
730.95	0.088
731.14	0.088
731.34	0.088
731.53	0.088
731.72	0.088
731.91	0.088
732.11	0.088
732.30	0.088
732.49	0.088
732.69	0.088
732.88	0.088
733.07	0.088
733.26	0.089
733.46	0.088
733.65	0.088
733.84	0.088
734.03	0.088
734.23	0.088
734.42	0.088
734.61	0.088
734.80	0.088
735.00	0.088
735.19	0.088
735.38	0.088
735.57	0.088
735.77	0.088
735.96	0.088
736.15	0.088
736.34	0.088
736.54	0.088
736.73	0.088
736.92	0.089
737.11	0.089
737.31	0.088
737.50	0.089
737.69	0.089
737.88	0.088
738.07	0.088
738.27	0.088
738.46	0.088
738.65	0.088
738.84	0.088
739.04	0.088
739.23	0.088
739.42	0.088
739.61	0.088
739.80	0.087
740.00	0.088
740.19	0.088
740.38	0.088
740.57	0.088
740.76	0.087
740.96	0.087
741.15	0.087
741.34	0.087
741.53	0.087
741.72	0.087
741.92	0.087
742.11	0.087
742.30	0.087
742.49	0.087
742.68	0.087
742.88	0.087
743.07	0.087
743.26	0.087
743.45	0.087
743.64	0.086
743.84	0.086
744.03	0.086
744.22	0.086
744.41	0.086
744.60	0.085
744.79	0.086
744.99	0.086
745.18	0.086
745.37	0.086
745.56	0.085
745.75	0.086
745.94	0.086
746.14	0.086
746.33	0.086
746.52	0.086
746.71	0.086
746.90	0.086
747.09	0.086
747.28	0.085
747.48	0.085
747.67	0.085
747.86	0.085
748.05	0.085
748.24	0.085
748.43	0.085
748.62	0.084
748.82	0.084
749.01	0.084
749.20	0.084
749.39	0.084
749.58	0.084
749.77	0.084
749.96	0.084
750.16	0.084
750.35	0.084
750.54	0.084
750.73	0.084
750.92	0.084
751.11	0.084
751.30	0.084
751.49	0.084
751.68	0.084
751.88	0.084
752.07	0.084
752.26	0.084
752.45	0.084
752.64	0.083
752.83	0.084
753.02	0.083
753.21	0.083
753.40	0.083
753.60	0.083
753.79	0.083
753.98	0.083
754.17	0.083
754.36	0.083
754.55	0.083
754.74	0.083
754.93	0.083
755.12	0.083
755.31	0.083
755.50	0.083
755.70	0.083
755.89	0.083
756.08	0.083
756.27	0.082
756.46	0.083
756.65	0.082
756.84	0.082
757.03	0.082
757.22	0.082
757.41	0.082
757.60	0.081
757.79	0.081
757.98	0.082
758.17	0.082
758.36	0.082
758.56	0.082
758.75	0.081
758.94	0.081
759.13	0.082
759.32	0.082
759.51	0.082
759.70	0.082
759.89	0.082
760.08	0.082
760.27	0.081
760.46	0.082
760.65	0.082
760.84	0.082
761.03	0.082
761.22	0.082
761.41	0.082
761.60	0.082
761.79	0.081
761.98	0.082
762.17	0.082
762.36	0.082
762.55	0.081
762.74	0.081
762.93	0.081
763.12	0.081
763.31	0.081
763.50	0.081
763.69	0.081
763.88	0.081
764.07	0.081
764.26	0.081
764.45	0.081
764.64	0.081
764.83	0.080
765.02	0.081
765.21	0.081
765.40	0.081
765.59	0.081
765.78	0.081
765.97	0.081
766.16	0.081
766.35	0.081
766.54	0.081
766.73	0.081
766.92	0.081
767.11	0.080
767.30	0.081
767.49	0.080
767.68	0.080
767.87	0.080
768.06	0.080
768.25	0.080
768.44	0.080
768.63	0.079
768.82	0.079
769.01	0.079
769.20	0.079
769.39	0.079
769.58	0.079
769.77	0.079
769.96	0.079
770.15	0.079
770.34	0.079
770.53	0.078
770.72	0.079
770.91	0.078
771.10	0.079
771.29	0.078
771.47	0.078
771.66	0.078
771.85	0.078
772.04	0.078
772.23	0.078
772.42	0.078
772.61	0.078
772.80	0.078
772.99	0.078
773.18	0.078
773.37	0.079
773.56	0.079
773.75	0.079
773.94	0.079
774.13	0.079
774.31	0.079
774.50	0.079
774.69	0.079
774.88	0.078
775.07	0.079
775.26	0.078
775.45	0.078
775.64	0.078
775.83	0.078
776.02	0.077
776.21	0.077
776.40	0.078
776.58	0.077
776.77	0.077
776.96	0.077
777.15	0.077
777.34	0.077
777.53	0.078
777.72	0.078
777.91	0.077
778.10	0.078
778.28	0.078
778.47	0.077
778.66	0.077
778.85	0.077
779.04	0.077
779.23	0.077
779.42	0.077
779.61	0.077
779.79	0.077
779.98	0.077
780.17	0.077
780.36	0.077
780.55	0.076
780.74	0.076
780.93	0.076
781.12	0.077
781.30	0.076
781.49	0.077
781.68	0.076
781.87	0.076
782.06	0.076
782.25	0.076
782.44	0.076
782.62	0.076
782.81	0.076
783.00	0.076
783.19	0.076
783.38	0.076
783.57	0.076
783.75	0.076
783.94	0.076
784.13	0.076
784.32	0.076
784.51	0.075
784.70	0.076
784.88	0.075
785.07	0.075
785.26	0.075
785.45	0.075
785.64	0.075
785.83	0.075
786.01	0.075
786.20	0.075
786.39	0.075
786.58	0.075
786.77	0.075
786.95	0.075
787.14	0.075
787.33	0.075
787.52	0.075
787.71	0.075
787.90	0.074
788.08	0.074
788.27	0.074
788.46	0.074
788.65	0.074
788.84	0.074
789.02	0.074
789.21	0.074
789.40	0.074
789.59	0.074
789.77	0.074
789.96	0.074
790.15	0.074
790.34	0.074
790.53	0.074
790.71	0.074
790.90	0.074
791.09	0.073
791.28	0.074
791.46	0.074
791.65	0.074
791.84	0.074
792.03	0.073
792.22	0.073
792.40	0.073
792.59	0.074
792.78	0.074
792.97	0.074
793.15	0.074
793.34	0.074
793.53	0.074
793.72	0.074
793.90	0.074
794.09	0.074
794.28	0.074
794.47	0.074
794.65	0.074
794.84	0.074
795.03	0.073
795.22	0.073
795.40	0.073
795.59	0.073
795.78	0.073
795.97	0.073
796.15	0.073
796.34	0.073
796.53	0.074
796.71	0.074
796.90	0.074
797.09	0.074
797.28	0.074
797.46	0.074
797.65	0.074
797.84	0.074
798.02	0.073
798.21	0.073
798.40	0.073
798.59	0.073
798.77	0.073
798.96	0.072
799.15	0.072
799.33	0.073
799.52	0.072
799.71	0.072
799.90	0.072
800.08	0.072
800.27	0.073
800.46	0.072
800.64	0.072
800.83	0.072
801.02	0.072
801.20	0.072
801.39	0.072
801.58	0.072
801.76	0.072
801.95	0.072
802.14	0.072
802.32	0.072
802.51	0.072
802.70	0.071
802.88	0.072
803.07	0.072
803.26	0.072
803.44	0.071
803.63	0.072
803.82	0.071
804.00	0.071
804.19	0.071
804.38	0.071
804.56	0.071
804.75	0.071
804.94	0.071
805.12	0.071
805.31	0.071
805.50	0.072
805.68	0.072
805.87	0.072
806.06	0.072
806.24	0.072
806.43	0.072
806.62	0.073
806.80	0.073
806.99	0.073
807.17	0.073
807.36	0.073
807.55	0.073
807.73	0.072
807.92	0.072
808.11	0.072
808.29	0.072
808.48	0.071
808.66	0.071
808.85	0.071
809.04	0.071
809.22	0.071
809.41	0.071
809.59	0.071
809.78	0.071
809.97	0.071
810.15	0.071
810.34	0.071
810.53	0.071
810.71	0.071
810.90	0.071
811.08	0.071
811.27	0.071
811.45	0.071
811.64	0.071
811.83	0.071
812.01	0.071
812.20	0.071
812.38	0.071
812.57	0.071
812.76	0.071
812.94	0.071
813.13	0.071
813.31	0.071
813.50	0.071
813.68	0.071
813.87	0.071
814.06	0.071
814.24	0.071
814.43	0.071
814.61	0.071
814.80	0.071
814.98	0.071
815.17	0.071
815.36	0.071
815.54	0.071
815.73	0.071
815.91	0.071
816.10	0.071
816.28	0.071
816.47	0.070
816.65	0.071
816.84	0.071
817.03	0.071
817.21	0.072
817.40	0.072
817.58	0.072
817.77	0.072
817.95	0.072
818.14	0.072
818.32	0.072
818.51	0.073
818.69	0.073
818.88	0.072
819.06	0.072
819.25	0.072
819.43	0.072
819.62	0.072
819.80	0.072
819.99	0.072
820.18	0.072
820.36	0.071
820.55	0.072
820.73	0.071
820.92	0.071
821.10	0.072
821.29	0.072
821.47	0.072
821.66	0.072
821.84	0.072
822.03	0.072
822.21	0.072
822.40	0.072
822.58	0.072
822.77	0.072
822.95	0.072
823.14	0.072
823.32	0.072
823.50	0.072
823.69	0.072
823.87	0.072
824.06	0.072
824.24	0.072
824.43	0.072
824.61	0.072
824.80	0.072
824.98	0.073
825.17	0.073
825.35	0.073
825.54	0.073
825.72	0.073
825.91	0.073
826.09	0.073
826.28	0.073
826.46	0.073
826.64	0.074
826.83	0.074
827.01	0.074
827.20	0.073
827.38	0.073
827.57	0.074
827.75	0.074
827.94	0.074
828.12	0.074
828.31	0.074
828.49	0.074
828.67	0.074
828.86	0.074
829.04	0.074
829.23	0.075
829.41	0.075
829.60	0.075
829.78	0.075
829.96	0.076
830.15	0.076
830.33	0.076
830.52	0.076
830.70	0.076
830.88	0.075
831.07	0.076
831.25	0.076
831.44	0.075
831.62	0.075
831.81	0.075
831.99	0.075
832.17	0.075
832.36	0.075
832.54	0.076
832.73	0.076
832.91	0.076
833.09	0.076
833.28	0.076
833.46	0.077
833.65	0.077
833.83	0.077
834.01	0.077
834.20	0.077
834.38	0.077
834.56	0.077
834.75	0.077
834.93	0.077
835.12	0.077
835.30	0.078
835.48	0.078
835.67	0.077
835.85	0.077
836.03	0.077
836.22	0.077
836.40	0.077
836.59	0.077
836.77	0.077
836.95	0.077
837.14	0.077
837.32	0.076
837.50	0.077
837.69	0.077
837.87	0.077
838.05	0.077
838.24	0.077
838.42	0.077
838.60	0.078
838.79	0.079
838.97	0.078
839.15	0.078
839.34	0.079
839.52	0.079
839.70	0.079
839.89	0.079
840.07	0.079
840.25	0.079
840.44	0.079
840.62	0.078
840.80	0.078
840.99	0.079
841.17	0.078
841.35	0.078
841.54	0.078
841.72	0.078
841.90	0.078
842.09	0.078
842.27	0.078
842.45	0.078
842.64	0.079
842.82	0.078
843.00	0.078
843.19	0.078
843.37	0.078
843.55	0.078
843.73	0.078
843.92	0.078
844.10	0.078
844.28	0.078
844.47	0.078
844.65	0.078
844.83	0.078
845.01	0.078
845.20	0.078
845.38	0.079
845.56	0.079
845.75	0.079
845.93	0.079
846.11	0.078
846.29	0.079
846.48	0.079
846.66	0.079
846.84	0.079
847.02	0.079
847.21	0.079
847.39	0.079
847.57	0.079
847.76	0.079
847.94	0.079
848.12	0.079
848.30	0.079
848.49	0.079
848.67	0.079
848.85	0.079
849.03	0.079
849.22	0.079
849.40	0.080
849.58	0.080
849.76	0.080
849.95	0.080
850.13	0.080
850.31	0.080
850.49	0.080
850.67	0.080
850.86	0.081
851.04	0.080
851.22	0.080
851.40	0.080
851.59	0.080
851.77	0.079
851.95	0.079
852.13	0.079
852.31	0.079
852.50	0.080
852.68	0.080
852.86	0.080
853.04	0.079
853.23	0.079
853.41	0.079
853.59	0.080
853.77	0.080
853.95	0.080
854.14	0.080
854.32	0.080
854.50	0.080
854.68	0.080
854.86	0.080
855.04	0.080
855.23	0.080
855.41	0.080
855.59	0.080
855.77	0.080
855.95	0.080
856.14	0.080
856.32	0.080
856.50	0.080
856.68	0.080
856.86	0.080
857.04	0.080
857.23	0.080
857.41	0.079
857.59	0.079
857.77	0.079
857.95	0.079
858.13	0.079
858.32	0.079
858.50	0.079
858.68	0.079
858.86	0.079
859.04	0.080
859.22	0.080
859.41	0.080
859.59	0.080
859.77	0.080
859.95	0.080
860.13	0.081
860.31	0.081
860.49	0.080
860.68	0.080
860.86	0.080
861.04	0.080
861.22	0.080
861.40	0.080
861.58	0.080
861.76	0.080
861.94	0.080
862.13	0.080
862.31	0.080
862.49	0.081
862.67	0.080
862.85	0.081
863.03	0.081
863.21	0.081
863.39	0.081
863.57	0.081
863.76	0.081
863.94	0.081
864.12	0.081
864.30	0.081
864.48	0.081
864.66	0.082
864.84	0.082
865.02	0.082
865.20	0.082
865.38	0.081
865.57	0.081
865.75	0.082
865.93	0.082
866.11	0.082
866.29	0.082
866.47	0.083
866.65	0.083
866.83	0.083
867.01	0.082
867.19	0.082
867.37	0.082
867.55	0.082
867.73	0.082
867.92	0.082
868.10	0.082
868.28	0.081
868.46	0.081
868.64	0.081
868.82	0.081
869.00	0.081
869.18	0.081
869.36	0.081
869.54	0.081
869.72	0.081
869.90	0.081
870.08	0.082
870.26	0.082
870.44	0.082
870.62	0.082
870.80	0.082
870.98	0.083
871.16	0.083
871.34	0.082
871.53	0.082
871.71	0.082
871.89	0.082
872.07	0.082
872.25	0.082
872.43	0.082
872.61	0.082
872.79	0.083
872.97	0.083
873.15	0.083
873.33	0.083
873.51	0.083
873.69	0.083
873.87	0.083
874.05	0.083
874.23	0.084
874.41	0.084
874.59	0.084
874.77	0.083
874.95	0.083
875.13	0.083
875.31	0.083
875.49	0.084
875.67	0.083
875.85	0.083
876.03	0.084
876.21	0.084
876.39	0.084
876.57	0.084
876.75	0.084
876.93	0.084
877.11	0.084
877.29	0.084
877.47	0.084
877.65	0.084
877.82	0.084
878.00	0.084
878.18	0.084
878.36	0.084
878.54	0.084
878.72	0.084
878.90	0.084
879.08	0.084
879.26	0.084
879.44	0.084
879.62	0.084
879.80	0.084
879.98	0.084
880.16	0.084
880.34	0.083
880.52	0.084
880.70	0.084
880.88	0.084
881.06	0.084
881.24	0.084
881.42	0.084
881.59	0.084
881.77	0.084
881.95	0.084
882.13	0.084
882.31	0.084
882.49	0.084
882.67	0.085
882.85	0.084
883.03	0.084
883.21	0.084
883.39	0.085
883.57	0.085
883.75	0.085
883.92	0.085
884.10	0.085
884.28	0.085
884.46	0.085
884.64	0.085
884.82	0.085
885.00	0.085
885.18	0.085
885.36	0.085
885.54	0.085
885.71	0.085
885.89	0.085
886.07	0.086
886.25	0.086
886.43	0.086
886.61	0.086
886.79	0.086
886.97	0.086
887.15	0.086
887.32	0.086
887.50	0.086
887.68	0.086
887.86	0.086
888.04	0.086
888.22	0.086
888.40	0.086
888.57	0.086
888.75	0.087
888.93	0.087
889.11	0.087
889.29	0.087
889.47	0.087
889.65	0.087
889.82	0.087
890.00	0.088
890.18	0.087
890.36	0.087
890.54	0.087
890.72	0.087
890.90	0.087
891.07	0.087
891.25	0.087
891.43	0.087
891.61	0.087
891.79	0.087
891.97	0.087
892.14	0.087
892.32	0.087
892.50	0.087
892.68	0.087
892.86	0.087
893.03	0.087
893.21	0.087
893.39	0.088
893.57	0.088
893.75	0.088
893.93	0.088
894.10	0.088
894.28	0.088
894.46	0.087
894.64	0.087
894.82	0.088
894.99	0.088
895.17	0.088
895.35	0.088
895.53	0.088
895.71	0.088
895.88	0.088
896.06	0.088
896.24	0.089
896.42	0.089
896.59	0.089
896.77	0.089
896.95	0.089
897.13	0.089
897.31	0.089
897.48	0.088
897.66	0.089
897.84	0.088
898.02	0.089
898.19	0.088
898.37	0.089
898.55	0.089
898.73	0.089
898.91	0.089
899.08	0.089
899.26	0.089
899.44	0.089
899.62	0.089
899.79	0.089
899.97	0.089
900.15	0.089
900.33	0.089
900.50	0.089
900.68	0.089
900.86	0.089
901.04	0.089
901.21	0.089
901.39	0.089
901.57	0.089
901.74	0.089
901.92	0.089
902.10	0.089
902.28	0.089
902.45	0.089
902.63	0.089
902.81	0.089
902.99	0.090
903.16	0.089
903.34	0.090
903.52	0.090
903.69	0.090
903.87	0.090
904.05	0.090
904.22	0.090
904.40	0.090
904.58	0.090
904.76	0.090
904.93	0.090
905.11	0.090
905.29	0.090
905.46	0.091
905.64	0.091
905.82	0.091
905.99	0.091
906.17	0.091
906.35	0.091
906.53	0.091
906.70	0.091
906.88	0.092
907.06	0.092
907.23	0.091
907.41	0.092
907.59	0.092
907.76	0.092
907.94	0.092
908.12	0.092
908.29	0.092
908.47	0.092
908.65	0.093
908.82	0.092
909.00	0.092
909.18	0.093
909.35	0.093
909.53	0.093
909.71	0.093
909.88	0.093
910.06	0.093
910.23	0.093
910.41	0.093
910.59	0.093
910.76	0.093
910.94	0.093
911.12	0.093
911.29	0.092
911.47	0.093
911.65	0.093
911.82	0.093
912.00	0.093
912.17	0.093
912.35	0.094
912.53	0.094
912.70	0.094
912.88	0.094
913.06	0.095
913.23	0.095
913.41	0.095
913.58	0.095
913.76	0.095
913.94	0.095
914.11	0.095
914.29	0.095
914.46	0.095
914.64	0.096
914.82	0.096
914.99	0.095
915.17	0.095
915.34	0.095
915.52	0.095
915.70	0.096
915.87	0.096
916.05	0.095
916.22	0.095
916.40	0.096
916.57	0.096
916.75	0.096
916.93	0.096
917.10	0.096
917.28	0.096
917.45	0.096
917.63	0.096
917.80	0.096
917.98	0.097
918.16	0.097
918.33	0.097
918.51	0.097
918.68	0.097
918.86	0.098
919.03	0.098
919.21	0.098
919.39	0.098
919.56	0.098
919.74	0.099
919.91	0.099
920.09	0.099
920.26	0.099
920.44	0.099
920.61	0.099
920.79	0.099
920.96	0.099
921.14	0.100
921.31	0.100
921.49	0.100
921.67	0.101
921.84	0.101
922.02	0.101
922.19	0.101
922.37	0.101
922.54	0.102
922.72	0.102
922.89	0.103
923.07	0.103
923.24	0.104
923.42	0.104
923.59	0.104
923.77	0.104
923.94	0.104
924.12	0.104
924.29	0.104
924.47	0.105
924.64	0.105
924.82	0.105
924.99	0.105
925.17	0.105
925.34	0.106
925.52	0.106
925.69	0.107
925.87	0.107
926.04	0.107
926.22	0.108
926.39	0.108
926.57	0.108
926.74	0.108
926.91	0.109
927.09	0.109
927.26	0.109
927.44	0.109
927.61	0.110
927.79	0.110
927.96	0.111
928.14	0.111
928.31	0.112
928.49	0.112
928.66	0.112
928.84	0.113
929.01	0.113
929.18	0.114
929.36	0.114
929.53	0.114
929.71	0.114
929.88	0.115
930.06	0.115
930.23	0.116
930.41	0.116
930.58	0.117
930.75	0.117
930.93	0.118
931.10	0.118
931.28	0.118
931.45	0.119
931.63	0.119
931.80	0.119
931.97	0.120
932.15	0.120
932.32	0.121
932.50	0.121
932.67	0.122
932.84	0.122
933.02	0.123
933.19	0.123
933.37	0.123
933.54	0.124
933.71	0.124
933.89	0.125
934.06	0.125
934.24	0.126
934.41	0.126
934.58	0.127
934.76	0.127
934.93	0.128
935.11	0.128
935.28	0.128
935.45	0.128
935.63	0.129
935.80	0.130
935.98	0.130
936.15	0.130
936.32	0.131
936.50	0.131
936.67	0.132
936.84	0.132
937.02	0.133
937.19	0.134
937.36	0.134
937.54	0.134
937.71	0.135
937.89	0.135
938.06	0.136
938.23	0.136
938.41	0.137
938.58	0.137
938.75	0.138
938.93	0.139
939.10	0.139
939.27	0.139
939.45	0.140
939.62	0.140
939.79	0.141
939.97	0.141
940.14	0.142
940.31	0.143
940.49	0.143
940.66	0.143
940.83	0.144
941.01	0.145
941.18	0.146
941.35	0.146
941.53	0.147
941.70	0.148
941.87	0.148
942.05	0.149
942.22	0.150
942.39	0.152
942.57	0.152
942.74	0.153
942.91	0.153
943.08	0.154
943.26	0.154
943.43	0.155
943.60	0.156
943.78	0.156
943.95	0.157
944.12	0.157
944.29	0.158
944.47	0.159
944.64	0.159
944.81	0.160
944.99	0.161
945.16	0.162
945.33	0.162
945.50	0.163
945.68	0.164
945.85	0.164
946.02	0.166
946.20	0.167
946.37	0.168
946.54	0.169
946.71	0.170
946.89	0.170
947.06	0.171
947.23	0.172
947.40	0.173
947.58	0.173
947.75	0.174
947.92	0.174
948.09	0.175
948.27	0.176
948.44	0.177
948.61	0.178
948.78	0.179
948.96	0.180
949.13	0.181
949.30	0.182
949.47	0.182
949.65	0.184
949.82	0.186
949.99	0.186
950.16	0.188
950.33	0.189
950.51	0.190
950.68	0.192
950.85	0.193
951.02	0.195
951.20	0.196
951.37	0.197
951.54	0.198
951.71	0.199
951.88	0.201
952.06	0.202
952.23	0.202
952.40	0.204
952.57	0.206
952.74	0.207
952.92	0.208
953.09	0.209
953.26	0.210
953.43	0.211
953.60	0.212
953.77	0.213
953.95	0.214
954.12	0.216
954.29	0.217
954.46	0.219
954.63	0.220
954.81	0.221
954.98	0.222
955.15	0.224
955.32	0.225
955.49	0.225
955.66	0.226
955.84	0.228
956.01	0.228
956.18	0.230
956.35	0.232
956.52	0.232
956.69	0.234
956.87	0.234
957.04	0.235
957.21	0.237
957.38	0.237
957.55	0.239
957.72	0.240
957.89	0.240
958.07	0.240
958.24	0.243
958.41	0.244
958.58	0.243
958.75	0.245
958.92	0.246
959.09	0.246
959.26	0.247
959.44	0.248
959.61	0.249
959.78	0.250
959.95	0.251
960.12	0.251
960.29	0.253
960.46	0.253
960.63	0.253
960.81	0.253
960.98	0.255
961.15	0.255
961.32	0.256
961.49	0.255
961.66	0.256
961.83	0.257
962.00	0.257
962.17	0.258
962.34	0.257
962.52	0.258
962.69	0.259
962.86	0.258
963.03	0.258
963.20	0.259
963.37	0.258
963.54	0.259
963.71	0.259
963.88	0.258
964.05	0.259
964.22	0.261
964.39	0.260
964.56	0.260
964.74	0.261
964.91	0.261
965.08	0.262
965.25	0.262
965.42	0.262
965.59	0.263
965.76	0.263
965.93	0.265
966.10	0.263
966.27	0.264
966.44	0.264
966.61	0.265
966.78	0.264
966.95	0.263
967.12	0.264
967.29	0.266
967.46	0.265
967.63	0.265
967.80	0.266
967.97	0.265
968.14	0.264
968.32	0.265
968.49	0.265
968.66	0.265
968.83	0.265
969.00	0.265
969.17	0.265
969.34	0.266
969.51	0.267
969.68	0.266
969.85	0.266
970.02	0.267
970.19	0.266
970.36	0.267
970.53	0.267
970.70	0.265
970.87	0.266
971.04	0.265
971.21	0.266
971.38	0.266
971.55	0.267
971.72	0.267
971.89	0.267
972.06	0.266
972.23	0.267
972.40	0.267
972.57	0.266
972.74	0.266
972.91	0.267
973.07	0.267
973.24	0.267
973.41	0.267
973.58	0.265
973.75	0.278
973.92	0.266
974.09	0.266
974.26	0.266
974.43	0.265
974.60	0.266
974.77	0.266
974.94	0.265
975.11	0.266
975.28	0.268
975.45	0.266
975.62	0.267
975.79	0.269
975.96	0.267
976.13	0.266
976.30	0.268
976.47	0.266
976.64	0.266
976.80	0.267
976.97	0.266
977.14	0.265
977.31	0.266
977.48	0.266
977.65	0.264
977.82	0.263
977.99	0.265
978.16	0.265
978.33	0.265
978.50	0.264
978.67	0.265
978.83	0.265
979.00	0.265
979.17	0.264
979.34	0.264
979.51	0.264
979.68	0.265
979.85	0.264
980.02	0.264
980.19	0.262
980.36	0.264
980.52	0.264
980.69	0.263
980.86	0.263
981.03	0.263
981.20	0.261
981.37	0.262
981.54	0.261
981.71	0.261
981.88	0.262
982.04	0.261
982.21	0.260
982.38	0.262
982.55	0.261
982.72	0.260
982.89	0.261
983.06	0.260
983.22	0.260
983.39	0.261
983.56	0.260
983.73	0.259
983.90	0.258
984.07	0.261
984.24	0.259
984.40	0.259
984.57	0.257
984.74	0.260
984.91	0.261
985.08	0.258
985.25	0.256
985.41	0.257
985.58	0.257
985.75	0.258
985.92	0.257
986.09	0.255
986.26	0.255
986.42	0.254
986.59	0.252
986.76	0.253
986.93	0.254
987.10	0.253
987.27	0.250
987.43	0.249
987.60	0.251
987.77	0.250
987.94	0.249
988.11	0.250
988.27	0.251
988.44	0.251
988.61	0.249
988.78	0.247
988.95	0.248
989.11	0.250
989.28	0.248
989.45	0.247
989.62	0.247
989.79	0.247
989.95	0.246
990.12	0.247
990.29	0.247
990.46	0.245
990.62	0.243
990.79	0.244
990.96	0.244
991.13	0.244
991.30	0.243
991.46	0.242
991.63	0.241
991.80	0.240
991.97	0.240
992.13	0.241
992.30	0.242
992.47	0.240
992.64	0.240
992.80	0.240
992.97	0.241
993.14	0.239
993.31	0.236
993.47	0.239
993.64	0.236
993.81	0.236
993.98	0.237
994.14	0.236
994.31	0.236
994.48	0.236
994.64	0.236
994.81	0.235
994.98	0.235
995.15	0.234
995.31	0.234
995.48	0.234
995.65	0.236
995.82	0.233
995.98	0.232
996.15	0.233
996.32	0.235
996.48	0.234
996.65	0.233
996.82	0.231
996.99	0.231
997.15	0.230
997.32	0.232
997.49	0.230
997.65	0.231
997.82	0.230
997.99	0.227
998.15	0.227
998.32	0.229
998.49	0.228
998.65	0.228
998.82	0.227
998.99	0.225
999.15	0.226
999.32	0.225
999.49	0.225
999.65	0.226
999.82	0.224
999.99	0.225
1000.15	0.225
1000.32	0.225
1000.49	0.224
1000.65	0.222
1000.82	0.221
1000.99	0.221
1001.15	0.221
1001.32	0.219
1001.49	0.219
1001.65	0.219
1001.82	0.221
1001.99	0.217
1002.15	0.216
1002.32	0.216
1002.49	0.217
1002.65	0.216
1002.82	0.215
1002.99	0.214
1003.15	0.216
1003.32	0.215
1003.48	0.215
1003.65	0.214
1003.82	0.213
1003.98	0.211
1004.15	0.211
1004.32	0.212
1004.48	0.212
1004.65	0.213
1004.81	0.211
1004.98	0.210
1005.15	0.211
1005.31	0.210
1005.48	0.208
1005.64	0.208
1005.81	0.210
1005.98	0.207
1006.14	0.206
1006.31	0.207
1006.47	0.205
1006.64	0.204
1006.81	0.204
1006.97	0.204
1007.14	0.204
1007.30	0.206
1007.47	0.205
1007.63	0.203
1007.80	0.201
1007.97	0.201
1008.13	0.201
1008.30	0.201
1008.46	0.202
1008.63	0.200
1008.79	0.200
1008.96	0.200
1009.13	0.201
1009.29	0.199
1009.46	0.198
1009.62	0.199
1009.79	0.197
1009.95	0.197
1010.12	0.198
1010.28	0.197
1010.45	0.196
1010.62	0.197
1010.78	0.195
1010.95	0.193
1011.11	0.194
1011.28	0.194
1011.44	0.196
1011.61	0.194
1011.77	0.192
1011.94	0.192
1012.10	0.192
1012.27	0.192
1012.43	0.192
1012.60	0.191
1012.76	0.191
1012.93	0.190
1013.10	0.187
1013.26	0.186
1013.43	0.188
1013.59	0.195
1013.76	0.187
1013.92	0.186
1014.09	0.185
1014.25	0.186
1014.42	0.187
1014.58	0.187
1014.75	0.189
1014.91	0.188
1015.08	0.189
1015.24	0.185
1015.41	0.186
1015.57	0.186
1015.73	0.185
1015.90	0.182
1016.06	0.185
1016.23	0.183
1016.39	0.183
1016.56	0.184
1016.72	0.182
1016.89	0.182
1017.05	0.184
1017.22	0.180
1017.38	0.181
1017.55	0.180
1017.71	0.181
1017.88	0.180
1018.04	0.181
1018.21	0.177
1018.37	0.178
1018.53	0.178
1018.70	0.177
1018.86	0.175
1019.03	0.177
1019.19	0.175
1019.36	0.175
1019.52	0.177
1019.69	0.178
1019.85	0.177
1020.01	0.177
1020.18	0.175
1020.34	0.176
1020.51	0.176
1020.67	0.177
1020.84	0.176
1021.00	0.177
1021.16	0.174
1021.33	0.174
1021.49	0.173
1021.66	0.173
1021.82	0.171
1021.98	0.171
1022.15	0.169
1022.31	0.169
1022.48	0.168
1022.64	0.170
1022.80	0.168
1022.97	0.167
1023.13	0.167
1023.30	0.168
1023.46	0.168
1023.62	0.165
1023.79	0.166
1023.95	0.167
1024.12	0.166
1024.28	0.166
1024.44	0.166
1024.61	0.165
1024.77	0.164
1024.93	0.163
1025.10	0.164
1025.26	0.162
1025.43	0.164
1025.59	0.160
1025.75	0.164
1025.92	0.163
1026.08	0.161
1026.24	0.161
1026.41	0.163
1026.57	0.162
1026.73	0.159
1026.90	0.162
1027.06	0.159
1027.23	0.160
1027.39	0.160
1027.55	0.160
1027.72	0.158
1027.88	0.158
1028.04	0.158
1028.21	0.159
1028.37	0.152
1028.53	0.158
1028.70	0.156
1028.86	0.155
1029.02	0.155
1029.19	0.156
1029.35	0.154
1029.51	0.154
1029.67	0.153
1029.84	0.156
1030.00	0.150
1030.16	0.151
1030.33	0.153
1030.49	0.149
1030.65	0.147
1030.82	0.162
1030.98	0.148
1031.14	0.147
1031.31	0.148
1031.47	0.144
1031.63	0.146
1031.79	0.145
1031.96	0.146
1032.12	0.147
1032.28	0.145
1032.45	0.149
1032.61	0.148
1032.77	0.148
1032.93	0.145
1033.10	0.148
1033.26	0.151
1033.42	0.150
1033.58	0.150
1033.75	0.152
1033.91	0.150
1034.07	0.153
1034.24	0.150
1034.40	0.148
1034.56	0.148
1034.72	0.149
1034.89	0.148
1035.05	0.145
1035.21	0.144
1035.37	0.143
1035.54	0.146
1035.70	0.144
1035.86	0.143
1036.02	0.144
1036.19	0.142
1036.35	0.142
1036.51	0.146
1036.67	0.143
1036.83	0.142
1037.00	0.141
1037.16	0.141
1037.32	0.141
1037.48	0.139
1037.65	0.145
1037.81	0.140
1037.97	0.140
1038.13	0.139
1038.29	0.137
1038.46	0.135
1038.62	0.140
1038.78	0.138
1038.94	0.135
1039.10	0.139
1039.27	0.135
1039.43	0.136
1039.59	0.136
1039.75	0.135
1039.91	0.135
1040.08	0.135
1040.24	0.137
1040.40	0.139
1040.56	0.138
1040.72	0.132
1040.89	0.135
1041.05	0.138
1041.21	0.135
1041.37	0.133
1041.53	0.139
1041.69	0.136
1041.86	0.135
1042.02	0.131
1042.18	0.131
1042.34	0.132
1042.50	0.136
1042.66	0.131
1042.83	0.130
1042.99	0.134
1043.15	0.129
1043.31	0.131
1043.47	0.135
1043.63	0.132
1043.79	0.132
1043.96	0.133
1044.12	0.137
1044.28	0.135
1044.44	0.137
1044.60	0.131
1044.76	0.129
1044.92	0.131
1045.09	0.132
1045.25	0.128
1045.41	0.129
1045.57	0.125
1045.73	0.125
1045.89	0.125
1046.05	0.127
1046.21	0.138
1046.38	0.134
1046.54	0.131
1046.70	0.119
1046.86	0.134
>>>>>End Processed Spectral Data<<<<<
