SpectraSuite Data File
++++++++++++++++++++++++++++++++++++
Date: Mon May 20 12:10:54 CDT 2013
User: Students
Dark Spectrum Present: Yes
Reference Spectrum Present: Yes
Number of Sampled Component Spectra: 1
Spectrometers: USB4H00887
Integration Time (usec): 60000 (USB4H00887)
Spectra Averaged: 5 (USB4H00887)
Boxcar Smoothing: 5 (USB4H00887)
Correct for Electrical Dark: No (USB4H00887)
Strobe/Lamp Enabled: No (USB4H00887)
Correct for Detector Non-linearity: No (USB4H00887)
Correct for Stray Light: No (USB4H00887)
Number of Pixels in Processed Spectrum: 3648
>>>>>Begin Processed Spectral Data<<<<<
345.83	0.006
346.05	0.006
346.26	0.006
346.48	-0.000
346.70	-0.000
346.92	0.038
347.14	0.050
347.35	0.061
347.57	0.465
347.79	-0.271
348.01	-0.224
348.23	-0.318
348.44	-0.000
348.66	0.251
348.88	-0.321
349.10	0.016
349.32	-0.027
349.53	0.051
349.75	0.076
349.97	0.059
350.19	0.070
350.41	0.086
350.62	-0.125
350.84	0.007
351.06	-0.005
351.28	-0.023
351.50	-0.217
351.71	-0.206
351.93	-0.123
352.15	-0.001
352.37	-0.039
352.58	0.021
352.80	0.030
353.02	0.081
353.24	0.093
353.46	0.910
353.67	-0.265
353.89	0.102
354.11	0.086
354.33	0.079
354.54	0.104
354.76	0.203
354.98	0.297
355.20	0.203
355.41	0.074
355.63	0.123
355.85	0.070
356.07	0.371
356.28	0.056
356.50	0.090
356.72	0.024
356.94	0.078
357.15	0.124
357.37	-0.000
357.59	0.062
357.81	0.045
358.02	0.087
358.24	0.061
358.46	0.161
358.68	0.136
358.89	0.082
359.11	-0.000
359.33	0.074
359.55	-0.550
359.76	0.120
359.98	0.135
360.20	0.117
360.42	0.109
360.63	0.098
360.85	0.057
361.07	0.239
361.29	0.061
361.50	0.227
361.72	0.089
361.94	0.278
362.15	0.109
362.37	0.065
362.59	0.088
362.81	0.134
363.02	0.255
363.24	0.454
363.46	0.253
363.68	0.346
363.89	0.198
364.11	0.291
364.33	0.401
364.54	0.238
364.76	0.325
364.98	0.340
365.20	0.431
365.41	0.239
365.63	0.255
365.85	0.173
366.06	0.545
366.28	0.748
366.50	0.405
366.71	0.138
366.93	0.167
367.15	0.144
367.37	0.120
367.58	0.129
367.80	0.142
368.02	0.354
368.23	0.103
368.45	0.094
368.67	0.052
368.88	0.067
369.10	-0.000
369.32	0.107
369.53	0.058
369.75	0.100
369.97	0.332
370.19	0.197
370.40	0.083
370.62	0.283
370.84	0.117
371.05	0.816
371.27	0.155
371.49	0.164
371.70	0.177
371.92	0.246
372.14	0.108
372.35	0.098
372.57	0.117
372.79	0.297
373.00	0.087
373.22	0.131
373.44	0.144
373.65	0.123
373.87	0.147
374.09	0.540
374.30	0.139
374.52	0.146
374.74	0.099
374.95	0.335
375.17	0.105
375.39	-0.000
375.60	0.109
375.82	0.180
376.04	0.078
376.25	0.108
376.47	0.083
376.68	0.203
376.90	0.127
377.12	0.266
377.33	0.154
377.55	0.338
377.77	0.200
377.98	0.298
378.20	0.155
378.42	0.186
378.63	0.237
378.85	-0.000
379.07	0.167
379.28	0.695
379.50	0.389
379.71	0.204
379.93	0.153
380.15	0.180
380.36	0.260
380.58	0.200
380.80	0.538
381.01	0.160
381.23	0.127
381.44	0.123
381.66	0.139
381.88	0.175
382.09	-0.078
382.31	0.113
382.53	0.125
382.74	0.694
382.96	0.186
383.17	0.154
383.39	0.204
383.61	0.268
383.82	0.195
384.04	0.225
384.25	0.278
384.47	0.250
384.69	0.248
384.90	0.231
385.12	0.516
385.33	0.295
385.55	0.237
385.77	0.384
385.98	0.188
386.20	0.243
386.41	0.225
386.63	0.259
386.85	0.226
387.06	0.288
387.28	0.502
387.49	0.316
387.71	0.232
387.93	0.209
388.14	0.633
388.36	0.239
388.57	0.221
388.79	0.240
389.01	-0.000
389.22	0.322
389.44	0.250
389.65	0.197
389.87	0.195
390.08	0.228
390.30	0.167
390.52	0.327
390.73	0.339
390.95	0.252
391.16	0.239
391.38	-0.000
391.59	0.267
391.81	0.241
392.03	0.220
392.24	0.264
392.46	0.214
392.67	0.193
392.89	0.271
393.10	0.412
393.32	0.277
393.53	0.328
393.75	0.204
393.97	0.220
394.18	0.295
394.40	0.273
394.61	0.261
394.83	0.233
395.04	0.276
395.26	0.193
395.47	0.288
395.69	0.234
395.91	0.250
396.12	0.287
396.34	0.307
396.55	0.198
396.77	0.292
396.98	1.134
397.20	0.378
397.41	0.428
397.63	0.283
397.84	0.253
398.06	0.238
398.27	0.246
398.49	0.296
398.71	0.223
398.92	0.282
399.14	0.352
399.35	0.443
399.57	0.409
399.78	0.280
400.00	0.287
400.21	0.369
400.43	0.304
400.64	0.311
400.86	0.747
401.07	0.386
401.29	0.325
401.50	0.358
401.72	0.517
401.93	0.319
402.15	0.381
402.36	0.333
402.58	0.282
402.79	0.306
403.01	0.527
403.22	0.404
403.44	0.270
403.65	0.432
403.87	0.473
404.08	0.389
404.30	0.684
404.51	0.358
404.73	0.468
404.94	0.391
405.16	0.410
405.37	0.319
405.59	0.597
405.80	0.354
406.02	0.438
406.23	0.428
406.45	0.491
406.66	0.516
406.88	0.329
407.09	0.504
407.31	0.394
407.52	0.481
407.74	0.383
407.95	0.463
408.17	0.443
408.38	0.463
408.60	0.306
408.81	0.491
409.03	0.363
409.24	0.360
409.45	0.406
409.67	0.389
409.88	0.361
410.10	0.465
410.31	0.391
410.53	0.364
410.74	0.519
410.96	0.493
411.17	0.540
411.39	0.396
411.60	0.374
411.82	0.447
412.03	0.431
412.24	0.403
412.46	0.587
412.67	0.474
412.89	0.468
413.10	0.478
413.32	0.443
413.53	0.520
413.75	0.560
413.96	0.415
414.17	0.565
414.39	0.576
414.60	0.471
414.82	0.643
415.03	0.478
415.25	0.535
415.46	0.355
415.68	0.506
415.89	1.026
416.10	0.802
416.32	0.411
416.53	0.479
416.75	0.444
416.96	0.544
417.18	0.454
417.39	0.432
417.60	0.438
417.82	0.655
418.03	0.575
418.25	0.462
418.46	0.469
418.67	0.437
418.89	0.475
419.10	0.490
419.32	0.651
419.53	0.594
419.75	0.515
419.96	0.450
420.17	0.545
420.39	0.501
420.60	0.519
420.82	0.650
421.03	0.514
421.24	0.426
421.46	0.484
421.67	0.534
421.89	0.468
422.10	0.501
422.31	0.495
422.53	0.748
422.74	0.540
422.96	0.435
423.17	0.483
423.38	0.597
423.60	0.494
423.81	0.618
424.03	0.519
424.24	0.576
424.45	0.573
424.67	0.564
424.88	0.506
425.09	0.549
425.31	0.500
425.52	0.532
425.74	0.602
425.95	0.663
426.16	0.506
426.38	0.594
426.59	0.541
426.80	0.628
427.02	0.658
427.23	0.495
427.45	0.647
427.66	0.629
427.87	0.485
428.09	0.523
428.30	0.575
428.51	0.557
428.73	0.606
428.94	0.533
429.15	0.519
429.37	0.500
429.58	0.527
429.79	0.492
430.01	0.588
430.22	0.586
430.44	0.588
430.65	0.534
430.86	0.583
431.08	0.567
431.29	0.524
431.50	0.609
431.72	0.805
431.93	0.662
432.14	0.496
432.36	0.543
432.57	0.559
432.78	0.586
433.00	0.543
433.21	0.533
433.42	0.674
433.64	0.590
433.85	0.685
434.06	0.548
434.28	0.582
434.49	0.593
434.70	0.607
434.92	0.612
435.13	0.663
435.34	0.666
435.56	0.621
435.77	0.610
435.98	0.787
436.20	0.645
436.41	0.555
436.62	0.541
436.83	0.621
437.05	0.702
437.26	0.622
437.47	0.551
437.69	0.604
437.90	0.558
438.11	0.552
438.33	0.599
438.54	0.625
438.75	0.820
438.97	0.803
439.18	0.600
439.39	0.629
439.60	0.680
439.82	0.632
440.03	0.583
440.24	0.867
440.46	0.646
440.67	0.621
440.88	0.666
441.10	0.624
441.31	0.627
441.52	0.688
441.73	0.776
441.95	0.681
442.16	0.623
442.37	1.019
442.58	0.617
442.80	0.604
443.01	0.788
443.22	0.718
443.44	0.600
443.65	0.703
443.86	0.694
444.07	0.741
444.29	0.640
444.50	0.833
444.71	0.628
444.92	0.586
445.14	0.744
445.35	0.789
445.56	0.620
445.78	0.734
445.99	0.718
446.20	0.617
446.41	0.705
446.63	0.706
446.84	0.660
447.05	0.664
447.26	0.793
447.48	0.670
447.69	0.637
447.90	0.728
448.11	0.646
448.33	0.678
448.54	0.702
448.75	0.724
448.96	0.738
449.18	0.780
449.39	0.689
449.60	0.674
449.81	0.817
450.03	0.706
450.24	0.759
450.45	0.714
450.66	0.707
450.87	0.742
451.09	0.699
451.30	0.670
451.51	0.747
451.72	0.759
451.94	0.776
452.15	0.853
452.36	0.714
452.57	0.734
452.78	0.739
453.00	0.767
453.21	0.713
453.42	0.678
453.63	0.788
453.85	0.754
454.06	0.745
454.27	0.882
454.48	0.780
454.69	0.701
454.91	0.775
455.12	0.672
455.33	0.756
455.54	0.777
455.75	0.749
455.97	0.771
456.18	0.761
456.39	0.777
456.60	0.801
456.81	0.737
457.03	0.748
457.24	0.749
457.45	0.839
457.66	0.779
457.87	0.732
458.09	0.754
458.30	0.665
458.51	0.787
458.72	0.803
458.93	0.810
459.15	0.709
459.36	0.770
459.57	0.786
459.78	0.837
459.99	0.750
460.20	0.719
460.42	0.798
460.63	0.754
460.84	0.738
461.05	0.760
461.26	0.823
461.47	0.742
461.69	0.792
461.90	0.832
462.11	0.789
462.32	0.848
462.53	0.782
462.74	0.883
462.96	0.768
463.17	0.752
463.38	0.787
463.59	0.895
463.80	0.742
464.01	0.765
464.23	0.849
464.44	0.803
464.65	0.810
464.86	0.826
465.07	0.831
465.28	0.787
465.49	0.808
465.71	0.773
465.92	0.809
466.13	0.853
466.34	0.793
466.55	0.845
466.76	0.814
466.97	0.840
467.19	0.838
467.40	0.870
467.61	0.879
467.82	0.802
468.03	0.782
468.24	0.855
468.45	0.897
468.66	0.873
468.88	0.883
469.09	0.886
469.30	0.931
469.51	0.850
469.72	0.893
469.93	0.863
470.14	0.840
470.35	0.935
470.57	0.883
470.78	0.816
470.99	0.952
471.20	0.890
471.41	0.848
471.62	0.899
471.83	0.871
472.04	0.901
472.25	0.948
472.47	0.862
472.68	0.866
472.89	0.872
473.10	0.919
473.31	0.866
473.52	0.922
473.73	0.942
473.94	0.867
474.15	0.893
474.36	0.894
474.57	0.920
474.79	0.893
475.00	0.890
475.21	0.872
475.42	0.963
475.63	0.868
475.84	0.900
476.05	0.906
476.26	0.875
476.47	0.907
476.68	0.952
476.89	0.878
477.10	0.929
477.32	0.920
477.53	0.977
477.74	0.896
477.95	0.937
478.16	0.886
478.37	0.928
478.58	0.933
478.79	0.949
479.00	0.948
479.21	0.908
479.42	0.949
479.63	0.950
479.84	0.912
480.05	0.911
480.26	0.938
480.47	0.960
480.69	0.960
480.90	0.924
481.11	0.920
481.32	0.978
481.53	0.921
481.74	0.971
481.95	0.937
482.16	0.951
482.37	0.961
482.58	0.927
482.79	0.946
483.00	0.978
483.21	0.921
483.42	0.894
483.63	0.972
483.84	0.996
484.05	0.991
484.26	0.966
484.47	0.965
484.68	0.927
484.89	0.933
485.10	0.978
485.31	0.954
485.52	0.961
485.73	0.965
485.94	1.004
486.15	0.949
486.37	0.960
486.58	0.926
486.79	0.939
487.00	0.984
487.21	0.977
487.42	0.971
487.63	0.975
487.84	0.998
488.05	0.993
488.26	0.953
488.47	0.961
488.68	0.990
488.89	0.966
489.10	0.960
489.31	0.971
489.52	1.004
489.73	0.969
489.94	1.006
490.15	0.961
490.36	1.000
490.57	0.954
490.78	0.939
490.99	0.975
491.20	1.050
491.41	1.009
491.62	0.954
491.83	0.980
492.04	0.981
492.25	0.988
492.45	0.989
492.66	1.010
492.87	0.999
493.08	0.985
493.29	0.970
493.50	0.960
493.71	0.964
493.92	0.960
494.13	0.979
494.34	0.996
494.55	1.002
494.76	1.030
494.97	1.024
495.18	0.990
495.39	1.009
495.60	0.962
495.81	0.966
496.02	0.987
496.23	0.982
496.44	1.010
496.65	1.003
496.86	1.008
497.07	1.033
497.28	1.030
497.49	0.981
497.70	0.982
497.91	1.005
498.12	0.986
498.32	1.029
498.53	1.012
498.74	1.005
498.95	1.027
499.16	0.984
499.37	0.988
499.58	0.998
499.79	1.025
500.00	1.021
500.21	1.046
500.42	0.990
500.63	0.991
500.84	1.009
501.05	0.989
501.26	1.014
501.46	1.051
501.67	1.012
501.88	1.013
502.09	0.988
502.30	0.995
502.51	1.041
502.72	0.997
502.93	1.010
503.14	1.032
503.35	1.001
503.56	0.997
503.77	1.026
503.97	1.006
504.18	1.005
504.39	1.041
504.60	1.011
504.81	1.039
505.02	1.030
505.23	1.035
505.44	1.016
505.65	1.027
505.86	1.009
506.07	1.075
506.27	1.032
506.48	1.038
506.69	1.020
506.90	1.040
507.11	1.037
507.32	1.012
507.53	1.020
507.74	1.012
507.95	1.021
508.15	1.027
508.36	1.030
508.57	1.042
508.78	1.025
508.99	1.026
509.20	1.002
509.41	1.024
509.62	1.013
509.82	1.009
510.03	1.020
510.24	1.021
510.45	1.043
510.66	1.034
510.87	1.032
511.08	0.991
511.29	1.033
511.49	1.010
511.70	1.057
511.91	0.994
512.12	0.993
512.33	1.023
512.54	1.040
512.75	1.024
512.95	1.049
513.16	1.041
513.37	1.018
513.58	1.056
513.79	1.019
514.00	1.023
514.20	1.040
514.41	1.028
514.62	0.998
514.83	1.037
515.04	1.029
515.25	1.010
515.46	1.021
515.66	1.024
515.87	1.034
516.08	1.004
516.29	1.026
516.50	1.007
516.71	1.000
516.91	1.008
517.12	1.025
517.33	1.011
517.54	0.997
517.75	0.999
517.95	1.014
518.16	1.026
518.37	0.994
518.58	1.001
518.79	0.976
519.00	1.007
519.20	1.016
519.41	0.987
519.62	1.006
519.83	1.016
520.04	0.981
520.24	0.977
520.45	0.986
520.66	1.008
520.87	0.971
521.08	0.969
521.28	0.974
521.49	0.988
521.70	0.963
521.91	0.975
522.12	0.957
522.32	0.977
522.53	0.961
522.74	0.949
522.95	0.958
523.16	0.960
523.36	0.969
523.57	0.951
523.78	0.945
523.99	0.949
524.20	0.942
524.40	0.952
524.61	0.959
524.82	0.934
525.03	0.938
525.23	0.938
525.44	0.923
525.65	0.922
525.86	0.941
526.06	0.915
526.27	0.916
526.48	0.924
526.69	0.908
526.90	0.910
527.10	0.944
527.31	0.902
527.52	0.896
527.73	0.889
527.93	0.899
528.14	0.904
528.35	0.895
528.56	0.895
528.76	0.889
528.97	0.880
529.18	0.872
529.39	0.871
529.59	0.875
529.80	0.903
530.01	0.878
530.22	0.877
530.42	0.849
530.63	0.865
530.84	0.844
531.05	0.857
531.25	0.860
531.46	0.851
531.67	0.830
531.88	0.846
532.08	0.841
532.29	0.836
532.50	0.829
532.70	0.822
532.91	0.812
533.12	0.815
533.33	0.838
533.53	0.811
533.74	0.811
533.95	0.817
534.15	0.806
534.36	0.806
534.57	0.790
534.78	0.790
534.98	0.800
535.19	0.774
535.40	0.774
535.60	0.791
535.81	0.771
536.02	0.774
536.23	0.766
536.43	0.767
536.64	0.755
536.85	0.762
537.05	0.771
537.26	0.748
537.47	0.749
537.67	0.738
537.88	0.734
538.09	0.740
538.30	0.730
538.50	0.721
538.71	0.731
538.92	0.719
539.12	0.714
539.33	0.710
539.54	0.710
539.74	0.715
539.95	0.706
540.16	0.703
540.36	0.694
540.57	0.695
540.78	0.688
540.98	0.687
541.19	0.685
541.40	0.674
541.60	0.684
541.81	0.678
542.02	0.677
542.22	0.667
542.43	0.662
542.64	0.658
542.84	0.657
543.05	0.648
543.26	0.649
543.46	0.650
543.67	0.647
543.88	0.642
544.08	0.633
544.29	0.628
544.50	0.629
544.70	0.629
544.91	0.621
545.12	0.622
545.32	0.617
545.53	0.622
545.74	0.610
545.94	0.607
546.15	0.605
546.35	0.602
546.56	0.598
546.77	0.594
546.97	0.591
547.18	0.584
547.39	0.585
547.59	0.583
547.80	0.578
548.01	0.582
548.21	0.578
548.42	0.570
548.62	0.570
548.83	0.568
549.04	0.564
549.24	0.557
549.45	0.556
549.65	0.552
549.86	0.547
550.07	0.547
550.27	0.544
550.48	0.552
550.69	0.538
550.89	0.537
551.10	0.533
551.30	0.532
551.51	0.531
551.72	0.522
551.92	0.524
552.13	0.523
552.33	0.524
552.54	0.518
552.75	0.512
552.95	0.513
553.16	0.509
553.36	0.507
553.57	0.505
553.78	0.502
553.98	0.501
554.19	0.493
554.39	0.491
554.60	0.492
554.80	0.491
555.01	0.484
555.22	0.485
555.42	0.482
555.63	0.476
555.83	0.479
556.04	0.473
556.25	0.476
556.45	0.467
556.66	0.466
556.86	0.470
557.07	0.467
557.27	0.467
557.48	0.462
557.68	0.459
557.89	0.460
558.10	0.456
558.30	0.454
558.51	0.452
558.71	0.449
558.92	0.444
559.12	0.446
559.33	0.450
559.54	0.444
559.74	0.440
559.95	0.439
560.15	0.439
560.36	0.437
560.56	0.431
560.77	0.432
560.97	0.432
561.18	0.427
561.38	0.426
561.59	0.428
561.79	0.424
562.00	0.422
562.21	0.418
562.41	0.417
562.62	0.416
562.82	0.414
563.03	0.410
563.23	0.410
563.44	0.410
563.64	0.406
563.85	0.407
564.05	0.401
564.26	0.400
564.46	0.399
564.67	0.400
564.87	0.395
565.08	0.392
565.28	0.392
565.49	0.393
565.69	0.391
565.90	0.387
566.10	0.390
566.31	0.383
566.51	0.385
566.72	0.386
566.92	0.379
567.13	0.379
567.33	0.378
567.54	0.376
567.74	0.375
567.95	0.371
568.15	0.371
568.36	0.371
568.56	0.371
568.77	0.366
568.97	0.365
569.18	0.365
569.38	0.363
569.59	0.363
569.79	0.361
570.00	0.358
570.20	0.357
570.41	0.356
570.61	0.353
570.82	0.353
571.02	0.350
571.23	0.352
571.43	0.348
571.64	0.347
571.84	0.346
572.05	0.345
572.25	0.345
572.45	0.342
572.66	0.340
572.86	0.339
573.07	0.337
573.27	0.337
573.48	0.336
573.68	0.332
573.89	0.331
574.09	0.332
574.30	0.330
574.50	0.329
574.70	0.330
574.91	0.327
575.11	0.327
575.32	0.327
575.52	0.323
575.73	0.323
575.93	0.324
576.14	0.322
576.34	0.320
576.54	0.319
576.75	0.317
576.95	0.317
577.16	0.315
577.36	0.313
577.57	0.313
577.77	0.311
577.97	0.309
578.18	0.309
578.38	0.307
578.59	0.306
578.79	0.304
579.00	0.305
579.20	0.303
579.40	0.302
579.61	0.302
579.81	0.301
580.02	0.298
580.22	0.298
580.42	0.296
580.63	0.296
580.83	0.294
581.04	0.292
581.24	0.292
581.45	0.290
581.65	0.290
581.85	0.289
582.06	0.287
582.26	0.287
582.47	0.286
582.67	0.286
582.87	0.285
583.08	0.283
583.28	0.284
583.48	0.283
583.69	0.280
583.89	0.280
584.10	0.280
584.30	0.278
584.50	0.277
584.71	0.275
584.91	0.275
585.12	0.273
585.32	0.274
585.52	0.271
585.73	0.269
585.93	0.269
586.13	0.268
586.34	0.268
586.54	0.267
586.75	0.266
586.95	0.266
587.15	0.266
587.36	0.265
587.56	0.264
587.76	0.263
587.97	0.262
588.17	0.261
588.37	0.261
588.58	0.261
588.78	0.258
588.98	0.258
589.19	0.256
589.39	0.254
589.60	0.256
589.80	0.254
590.00	0.253
590.21	0.253
590.41	0.252
590.61	0.251
590.82	0.251
591.02	0.250
591.22	0.249
591.43	0.250
591.63	0.248
591.83	0.248
592.04	0.246
592.24	0.247
592.44	0.244
592.65	0.243
592.85	0.243
593.05	0.243
593.26	0.242
593.46	0.241
593.66	0.241
593.86	0.240
594.07	0.238
594.27	0.238
594.47	0.236
594.68	0.236
594.88	0.236
595.08	0.235
595.29	0.236
595.49	0.233
595.69	0.233
595.90	0.231
596.10	0.232
596.30	0.231
596.50	0.231
596.71	0.231
596.91	0.230
597.11	0.229
597.32	0.229
597.52	0.228
597.72	0.228
597.93	0.227
598.13	0.226
598.33	0.226
598.53	0.225
598.74	0.224
598.94	0.223
599.14	0.223
599.35	0.223
599.55	0.223
599.75	0.222
599.95	0.221
600.16	0.221
600.36	0.219
600.56	0.220
600.76	0.219
600.97	0.217
601.17	0.217
601.37	0.217
601.58	0.216
601.78	0.216
601.98	0.215
602.18	0.213
602.39	0.214
602.59	0.214
602.79	0.212
602.99	0.212
603.20	0.210
603.40	0.211
603.60	0.210
603.80	0.210
604.01	0.210
604.21	0.209
604.41	0.209
604.61	0.207
604.82	0.207
605.02	0.208
605.22	0.207
605.42	0.207
605.62	0.207
605.83	0.206
606.03	0.205
606.23	0.205
606.43	0.205
606.64	0.204
606.84	0.204
607.04	0.204
607.24	0.203
607.45	0.203
607.65	0.202
607.85	0.203
608.05	0.201
608.25	0.201
608.46	0.200
608.66	0.200
608.86	0.199
609.06	0.198
609.26	0.197
609.47	0.198
609.67	0.196
609.87	0.197
610.07	0.196
610.28	0.194
610.48	0.194
610.68	0.194
610.88	0.193
611.08	0.194
611.29	0.193
611.49	0.193
611.69	0.193
611.89	0.192
612.09	0.191
612.29	0.191
612.50	0.191
612.70	0.191
612.90	0.189
613.10	0.189
613.30	0.188
613.51	0.188
613.71	0.187
613.91	0.191
614.11	0.186
614.31	0.186
614.51	0.186
614.72	0.185
614.92	0.185
615.12	0.184
615.32	0.185
615.52	0.185
615.72	0.186
615.93	0.186
616.13	0.185
616.33	0.185
616.53	0.184
616.73	0.184
616.93	0.183
617.14	0.184
617.34	0.184
617.54	0.184
617.74	0.183
617.94	0.182
618.14	0.181
618.34	0.180
618.55	0.180
618.75	0.180
618.95	0.180
619.15	0.180
619.35	0.179
619.55	0.178
619.75	0.179
619.96	0.178
620.16	0.178
620.36	0.178
620.56	0.177
620.76	0.177
620.96	0.177
621.16	0.177
621.36	0.176
621.57	0.177
621.77	0.177
621.97	0.176
622.17	0.176
622.37	0.176
622.57	0.176
622.77	0.176
622.97	0.174
623.18	0.174
623.38	0.175
623.58	0.174
623.78	0.173
623.98	0.173
624.18	0.173
624.38	0.172
624.58	0.172
624.78	0.173
624.98	0.173
625.19	0.172
625.39	0.172
625.59	0.171
625.79	0.171
625.99	0.171
626.19	0.171
626.39	0.170
626.59	0.170
626.79	0.170
626.99	0.170
627.19	0.169
627.40	0.170
627.60	0.169
627.80	0.169
628.00	0.170
628.20	0.169
628.40	0.168
628.60	0.168
628.80	0.167
629.00	0.168
629.20	0.167
629.40	0.167
629.60	0.166
629.80	0.166
630.00	0.166
630.20	0.166
630.41	0.165
630.61	0.166
630.81	0.165
631.01	0.166
631.21	0.165
631.41	0.165
631.61	0.165
631.81	0.165
632.01	0.164
632.21	0.164
632.41	0.163
632.61	0.163
632.81	0.163
633.01	0.163
633.21	0.162
633.41	0.163
633.61	0.162
633.81	0.161
634.01	0.161
634.21	0.161
634.41	0.160
634.61	0.161
634.81	0.160
635.01	0.159
635.22	0.160
635.42	0.159
635.62	0.159
635.82	0.159
636.02	0.159
636.22	0.158
636.42	0.158
636.62	0.159
636.82	0.158
637.02	0.158
637.22	0.159
637.42	0.158
637.62	0.157
637.82	0.157
638.02	0.156
638.22	0.156
638.42	0.156
638.62	0.155
638.82	0.155
639.02	0.154
639.22	0.154
639.42	0.153
639.62	0.153
639.82	0.153
640.02	0.153
640.22	0.153
640.42	0.153
640.62	0.153
640.82	0.153
641.02	0.152
641.22	0.153
641.42	0.152
641.61	0.153
641.81	0.153
642.01	0.152
642.21	0.152
642.41	0.152
642.61	0.152
642.81	0.151
643.01	0.151
643.21	0.151
643.41	0.151
643.61	0.150
643.81	0.150
644.01	0.148
644.21	0.149
644.41	0.148
644.61	0.148
644.81	0.148
645.01	0.148
645.21	0.147
645.41	0.147
645.61	0.147
645.81	0.147
646.01	0.146
646.21	0.147
646.40	0.146
646.60	0.147
646.80	0.147
647.00	0.147
647.20	0.146
647.40	0.146
647.60	0.146
647.80	0.145
648.00	0.145
648.20	0.145
648.40	0.145
648.60	0.145
648.80	0.144
649.00	0.144
649.20	0.145
649.39	0.144
649.59	0.144
649.79	0.143
649.99	0.143
650.19	0.143
650.39	0.142
650.59	0.142
650.79	0.142
650.99	0.141
651.19	0.141
651.39	0.141
651.58	0.140
651.78	0.140
651.98	0.140
652.18	0.139
652.38	0.139
652.58	0.140
652.78	0.139
652.98	0.139
653.18	0.140
653.38	0.140
653.57	0.139
653.77	0.140
653.97	0.139
654.17	0.139
654.37	0.139
654.57	0.138
654.77	0.138
654.97	0.138
655.16	0.138
655.36	0.137
655.56	0.137
655.76	0.136
655.96	0.137
656.16	0.136
656.36	0.136
656.56	0.135
656.75	0.135
656.95	0.135
657.15	0.135
657.35	0.135
657.55	0.134
657.75	0.135
657.95	0.134
658.14	0.134
658.34	0.134
658.54	0.134
658.74	0.134
658.94	0.134
659.14	0.133
659.34	0.133
659.53	0.133
659.73	0.132
659.93	0.132
660.13	0.132
660.33	0.132
660.53	0.131
660.72	0.131
660.92	0.131
661.12	0.131
661.32	0.131
661.52	0.130
661.72	0.130
661.91	0.130
662.11	0.130
662.31	0.130
662.51	0.129
662.71	0.129
662.90	0.129
663.10	0.128
663.30	0.128
663.50	0.128
663.70	0.127
663.90	0.127
664.09	0.127
664.29	0.126
664.49	0.126
664.69	0.126
664.89	0.126
665.08	0.126
665.28	0.125
665.48	0.125
665.68	0.125
665.88	0.125
666.07	0.124
666.27	0.124
666.47	0.124
666.67	0.124
666.87	0.124
667.06	0.123
667.26	0.123
667.46	0.123
667.66	0.123
667.85	0.123
668.05	0.123
668.25	0.123
668.45	0.123
668.65	0.122
668.84	0.122
669.04	0.122
669.24	0.122
669.44	0.121
669.63	0.120
669.83	0.120
670.03	0.120
670.23	0.119
670.42	0.119
670.62	0.119
670.82	0.119
671.02	0.118
671.22	0.117
671.41	0.117
671.61	0.118
671.81	0.118
672.01	0.118
672.20	0.118
672.40	0.117
672.60	0.117
672.80	0.117
672.99	0.117
673.19	0.117
673.39	0.117
673.58	0.117
673.78	0.116
673.98	0.116
674.18	0.116
674.37	0.115
674.57	0.115
674.77	0.116
674.97	0.115
675.16	0.115
675.36	0.115
675.56	0.114
675.75	0.115
675.95	0.114
676.15	0.114
676.35	0.114
676.54	0.114
676.74	0.114
676.94	0.114
677.13	0.113
677.33	0.113
677.53	0.113
677.73	0.113
677.92	0.112
678.12	0.112
678.32	0.111
678.51	0.111
678.71	0.111
678.91	0.111
679.11	0.110
679.30	0.110
679.50	0.110
679.70	0.109
679.89	0.109
680.09	0.109
680.29	0.109
680.48	0.109
680.68	0.109
680.88	0.109
681.07	0.109
681.27	0.109
681.47	0.109
681.66	0.109
681.86	0.109
682.06	0.109
682.25	0.109
682.45	0.108
682.65	0.108
682.84	0.107
683.04	0.107
683.24	0.106
683.43	0.106
683.63	0.106
683.83	0.106
684.02	0.106
684.22	0.106
684.42	0.106
684.61	0.105
684.81	0.105
685.01	0.105
685.20	0.105
685.40	0.105
685.60	0.105
685.79	0.105
685.99	0.105
686.19	0.104
686.38	0.104
686.58	0.104
686.77	0.104
686.97	0.104
687.17	0.104
687.36	0.104
687.56	0.103
687.76	0.103
687.95	0.103
688.15	0.103
688.34	0.103
688.54	0.103
688.74	0.103
688.93	0.102
689.13	0.102
689.33	0.102
689.52	0.101
689.72	0.102
689.91	0.101
690.11	0.101
690.31	0.101
690.50	0.101
690.70	0.101
690.89	0.101
691.09	0.101
691.29	0.101
691.48	0.100
691.68	0.100
691.87	0.100
692.07	0.100
692.27	0.099
692.46	0.099
692.66	0.099
692.85	0.098
693.05	0.098
693.25	0.098
693.44	0.098
693.64	0.098
693.83	0.098
694.03	0.097
694.22	0.096
694.42	0.097
694.62	0.097
694.81	0.097
695.01	0.097
695.20	0.097
695.40	0.097
695.59	0.097
695.79	0.096
695.99	0.097
696.18	0.097
696.38	0.097
696.57	0.097
696.77	0.096
696.96	0.096
697.16	0.096
697.36	0.096
697.55	0.095
697.75	0.095
697.94	0.095
698.14	0.095
698.33	0.095
698.53	0.094
698.72	0.094
698.92	0.094
699.11	0.094
699.31	0.093
699.51	0.094
699.70	0.094
699.90	0.094
700.09	0.094
700.29	0.094
700.48	0.094
700.68	0.094
700.87	0.094
701.07	0.094
701.26	0.093
701.46	0.093
701.65	0.093
701.85	0.093
702.04	0.093
702.24	0.092
702.43	0.093
702.63	0.092
702.82	0.092
703.02	0.092
703.21	0.092
703.41	0.092
703.60	0.091
703.80	0.091
703.99	0.091
704.19	0.091
704.38	0.091
704.58	0.090
704.77	0.090
704.97	0.090
705.16	0.090
705.36	0.090
705.55	0.089
705.75	0.089
705.94	0.090
706.14	0.089
706.33	0.089
706.53	0.089
706.72	0.090
706.92	0.089
707.11	0.089
707.31	0.088
707.50	0.088
707.70	0.089
707.89	0.089
708.09	0.089
708.28	0.088
708.48	0.088
708.67	0.088
708.86	0.088
709.06	0.088
709.25	0.088
709.45	0.088
709.64	0.088
709.84	0.088
710.03	0.087
710.23	0.087
710.42	0.087
710.62	0.087
710.81	0.087
711.00	0.087
711.20	0.087
711.39	0.087
711.59	0.087
711.78	0.087
711.98	0.087
712.17	0.087
712.37	0.086
712.56	0.086
712.75	0.086
712.95	0.086
713.14	0.086
713.34	0.086
713.53	0.086
713.73	0.087
713.92	0.086
714.11	0.086
714.31	0.086
714.50	0.086
714.70	0.086
714.89	0.086
715.08	0.086
715.28	0.086
715.47	0.086
715.67	0.086
715.86	0.085
716.06	0.086
716.25	0.086
716.44	0.086
716.64	0.086
716.83	0.085
717.03	0.085
717.22	0.085
717.41	0.085
717.61	0.085
717.80	0.085
717.99	0.085
718.19	0.085
718.38	0.085
718.58	0.084
718.77	0.084
718.96	0.084
719.16	0.084
719.35	0.084
719.55	0.083
719.74	0.083
719.93	0.083
720.13	0.083
720.32	0.083
720.51	0.083
720.71	0.083
720.90	0.083
721.10	0.083
721.29	0.083
721.48	0.083
721.68	0.083
721.87	0.082
722.06	0.082
722.26	0.083
722.45	0.083
722.64	0.083
722.84	0.083
723.03	0.083
723.22	0.083
723.42	0.083
723.61	0.083
723.80	0.083
724.00	0.084
724.19	0.084
724.38	0.084
724.58	0.083
724.77	0.084
724.96	0.083
725.16	0.083
725.35	0.083
725.54	0.084
725.74	0.084
725.93	0.083
726.12	0.083
726.32	0.083
726.51	0.083
726.70	0.083
726.90	0.083
727.09	0.083
727.28	0.083
727.48	0.083
727.67	0.083
727.86	0.083
728.06	0.083
728.25	0.083
728.44	0.083
728.64	0.083
728.83	0.083
729.02	0.083
729.21	0.083
729.41	0.082
729.60	0.083
729.79	0.083
729.99	0.083
730.18	0.083
730.37	0.083
730.56	0.083
730.76	0.083
730.95	0.083
731.14	0.082
731.34	0.082
731.53	0.082
731.72	0.082
731.91	0.082
732.11	0.082
732.30	0.083
732.49	0.083
732.69	0.083
732.88	0.083
733.07	0.083
733.26	0.084
733.46	0.083
733.65	0.083
733.84	0.083
734.03	0.083
734.23	0.083
734.42	0.083
734.61	0.082
734.80	0.082
735.00	0.083
735.19	0.082
735.38	0.082
735.57	0.083
735.77	0.083
735.96	0.083
736.15	0.083
736.34	0.083
736.54	0.083
736.73	0.083
736.92	0.083
737.11	0.083
737.31	0.083
737.50	0.083
737.69	0.083
737.88	0.083
738.07	0.083
738.27	0.082
738.46	0.083
738.65	0.082
738.84	0.082
739.04	0.082
739.23	0.082
739.42	0.083
739.61	0.083
739.80	0.083
740.00	0.083
740.19	0.083
740.38	0.083
740.57	0.083
740.76	0.082
740.96	0.082
741.15	0.082
741.34	0.082
741.53	0.082
741.72	0.081
741.92	0.081
742.11	0.081
742.30	0.081
742.49	0.081
742.68	0.081
742.88	0.081
743.07	0.081
743.26	0.082
743.45	0.082
743.64	0.081
743.84	0.081
744.03	0.081
744.22	0.081
744.41	0.081
744.60	0.081
744.79	0.081
744.99	0.081
745.18	0.081
745.37	0.081
745.56	0.080
745.75	0.081
745.94	0.080
746.14	0.080
746.33	0.080
746.52	0.080
746.71	0.080
746.90	0.080
747.09	0.080
747.28	0.079
747.48	0.079
747.67	0.079
747.86	0.079
748.05	0.079
748.24	0.079
748.43	0.079
748.62	0.079
748.82	0.079
749.01	0.079
749.20	0.078
749.39	0.078
749.58	0.079
749.77	0.078
749.96	0.078
750.16	0.078
750.35	0.078
750.54	0.078
750.73	0.078
750.92	0.078
751.11	0.078
751.30	0.078
751.49	0.078
751.68	0.078
751.88	0.078
752.07	0.078
752.26	0.078
752.45	0.078
752.64	0.078
752.83	0.078
753.02	0.078
753.21	0.078
753.40	0.077
753.60	0.078
753.79	0.078
753.98	0.078
754.17	0.078
754.36	0.077
754.55	0.077
754.74	0.078
754.93	0.078
755.12	0.078
755.31	0.078
755.50	0.078
755.70	0.077
755.89	0.077
756.08	0.077
756.27	0.077
756.46	0.077
756.65	0.077
756.84	0.077
757.03	0.076
757.22	0.076
757.41	0.076
757.60	0.076
757.79	0.077
757.98	0.076
758.17	0.076
758.36	0.076
758.56	0.076
758.75	0.075
758.94	0.076
759.13	0.076
759.32	0.075
759.51	0.075
759.70	0.075
759.89	0.075
760.08	0.075
760.27	0.075
760.46	0.075
760.65	0.076
760.84	0.076
761.03	0.076
761.22	0.076
761.41	0.076
761.60	0.076
761.79	0.076
761.98	0.076
762.17	0.075
762.36	0.075
762.55	0.075
762.74	0.075
762.93	0.074
763.12	0.074
763.31	0.074
763.50	0.074
763.69	0.074
763.88	0.074
764.07	0.074
764.26	0.074
764.45	0.074
764.64	0.074
764.83	0.074
765.02	0.074
765.21	0.074
765.40	0.075
765.59	0.074
765.78	0.075
765.97	0.075
766.16	0.075
766.35	0.075
766.54	0.075
766.73	0.075
766.92	0.075
767.11	0.074
767.30	0.075
767.49	0.075
767.68	0.075
767.87	0.074
768.06	0.074
768.25	0.074
768.44	0.074
768.63	0.073
768.82	0.074
769.01	0.073
769.20	0.073
769.39	0.073
769.58	0.074
769.77	0.074
769.96	0.074
770.15	0.074
770.34	0.074
770.53	0.074
770.72	0.073
770.91	0.073
771.10	0.073
771.29	0.073
771.47	0.072
771.66	0.072
771.85	0.072
772.04	0.072
772.23	0.072
772.42	0.072
772.61	0.072
772.80	0.072
772.99	0.072
773.18	0.072
773.37	0.072
773.56	0.072
773.75	0.073
773.94	0.072
774.13	0.072
774.31	0.072
774.50	0.072
774.69	0.072
774.88	0.072
775.07	0.072
775.26	0.072
775.45	0.071
775.64	0.071
775.83	0.071
776.02	0.071
776.21	0.071
776.40	0.072
776.58	0.071
776.77	0.071
776.96	0.071
777.15	0.071
777.34	0.071
777.53	0.072
777.72	0.071
777.91	0.071
778.10	0.072
778.28	0.071
778.47	0.071
778.66	0.071
778.85	0.071
779.04	0.071
779.23	0.070
779.42	0.070
779.61	0.071
779.79	0.070
779.98	0.070
780.17	0.071
780.36	0.070
780.55	0.070
780.74	0.070
780.93	0.070
781.12	0.070
781.30	0.071
781.49	0.071
781.68	0.070
781.87	0.070
782.06	0.070
782.25	0.070
782.44	0.070
782.62	0.070
782.81	0.070
783.00	0.070
783.19	0.070
783.38	0.070
783.57	0.070
783.75	0.070
783.94	0.070
784.13	0.070
784.32	0.069
784.51	0.069
784.70	0.069
784.88	0.069
785.07	0.069
785.26	0.069
785.45	0.069
785.64	0.069
785.83	0.069
786.01	0.069
786.20	0.069
786.39	0.069
786.58	0.069
786.77	0.069
786.95	0.069
787.14	0.069
787.33	0.069
787.52	0.069
787.71	0.069
787.90	0.069
788.08	0.069
788.27	0.069
788.46	0.069
788.65	0.069
788.84	0.069
789.02	0.068
789.21	0.069
789.40	0.069
789.59	0.069
789.77	0.069
789.96	0.069
790.15	0.069
790.34	0.069
790.53	0.069
790.71	0.069
790.90	0.069
791.09	0.068
791.28	0.069
791.46	0.069
791.65	0.068
791.84	0.068
792.03	0.068
792.22	0.068
792.40	0.068
792.59	0.068
792.78	0.068
792.97	0.068
793.15	0.068
793.34	0.068
793.53	0.067
793.72	0.067
793.90	0.067
794.09	0.067
794.28	0.067
794.47	0.067
794.65	0.067
794.84	0.067
795.03	0.067
795.22	0.067
795.40	0.067
795.59	0.067
795.78	0.067
795.97	0.068
796.15	0.068
796.34	0.068
796.53	0.068
796.71	0.068
796.90	0.068
797.09	0.069
797.28	0.068
797.46	0.068
797.65	0.068
797.84	0.068
798.02	0.067
798.21	0.067
798.40	0.067
798.59	0.066
798.77	0.066
798.96	0.066
799.15	0.066
799.33	0.066
799.52	0.066
799.71	0.066
799.90	0.066
800.08	0.067
800.27	0.067
800.46	0.066
800.64	0.066
800.83	0.066
801.02	0.066
801.20	0.066
801.39	0.066
801.58	0.066
801.76	0.066
801.95	0.066
802.14	0.066
802.32	0.066
802.51	0.066
802.70	0.066
802.88	0.066
803.07	0.066
803.26	0.065
803.44	0.065
803.63	0.066
803.82	0.065
804.00	0.066
804.19	0.066
804.38	0.066
804.56	0.066
804.75	0.066
804.94	0.066
805.12	0.067
805.31	0.066
805.50	0.067
805.68	0.066
805.87	0.066
806.06	0.066
806.24	0.066
806.43	0.066
806.62	0.066
806.80	0.066
806.99	0.066
807.17	0.066
807.36	0.066
807.55	0.066
807.73	0.066
807.92	0.066
808.11	0.066
808.29	0.065
808.48	0.065
808.66	0.065
808.85	0.065
809.04	0.065
809.22	0.065
809.41	0.065
809.59	0.065
809.78	0.065
809.97	0.065
810.15	0.065
810.34	0.065
810.53	0.065
810.71	0.065
810.90	0.066
811.08	0.065
811.27	0.065
811.45	0.065
811.64	0.065
811.83	0.065
812.01	0.065
812.20	0.065
812.38	0.065
812.57	0.065
812.76	0.065
812.94	0.065
813.13	0.065
813.31	0.064
813.50	0.065
813.68	0.065
813.87	0.064
814.06	0.065
814.24	0.065
814.43	0.065
814.61	0.065
814.80	0.065
814.98	0.065
815.17	0.065
815.36	0.065
815.54	0.065
815.73	0.065
815.91	0.065
816.10	0.065
816.28	0.065
816.47	0.064
816.65	0.065
816.84	0.065
817.03	0.065
817.21	0.065
817.40	0.065
817.58	0.065
817.77	0.066
817.95	0.066
818.14	0.065
818.32	0.066
818.51	0.066
818.69	0.065
818.88	0.065
819.06	0.065
819.25	0.065
819.43	0.065
819.62	0.065
819.80	0.065
819.99	0.065
820.18	0.065
820.36	0.065
820.55	0.065
820.73	0.065
820.92	0.065
821.10	0.065
821.29	0.065
821.47	0.065
821.66	0.065
821.84	0.065
822.03	0.065
822.21	0.065
822.40	0.065
822.58	0.065
822.77	0.065
822.95	0.066
823.14	0.066
823.32	0.066
823.50	0.066
823.69	0.066
823.87	0.066
824.06	0.066
824.24	0.066
824.43	0.066
824.61	0.066
824.80	0.067
824.98	0.067
825.17	0.067
825.35	0.067
825.54	0.067
825.72	0.067
825.91	0.067
826.09	0.066
826.28	0.066
826.46	0.067
826.64	0.067
826.83	0.067
827.01	0.067
827.20	0.067
827.38	0.066
827.57	0.067
827.75	0.067
827.94	0.067
828.12	0.067
828.31	0.067
828.49	0.067
828.67	0.068
828.86	0.068
829.04	0.068
829.23	0.068
829.41	0.069
829.60	0.069
829.78	0.069
829.96	0.069
830.15	0.069
830.33	0.069
830.52	0.070
830.70	0.069
830.88	0.069
831.07	0.070
831.25	0.070
831.44	0.070
831.62	0.069
831.81	0.069
831.99	0.070
832.17	0.070
832.36	0.070
832.54	0.070
832.73	0.070
832.91	0.070
833.09	0.070
833.28	0.070
833.46	0.071
833.65	0.071
833.83	0.071
834.01	0.071
834.20	0.071
834.38	0.071
834.56	0.071
834.75	0.071
834.93	0.071
835.12	0.071
835.30	0.071
835.48	0.071
835.67	0.071
835.85	0.071
836.03	0.071
836.22	0.071
836.40	0.071
836.59	0.071
836.77	0.071
836.95	0.071
837.14	0.071
837.32	0.071
837.50	0.071
837.69	0.071
837.87	0.071
838.05	0.072
838.24	0.072
838.42	0.072
838.60	0.072
838.79	0.072
838.97	0.072
839.15	0.072
839.34	0.073
839.52	0.073
839.70	0.073
839.89	0.072
840.07	0.072
840.25	0.072
840.44	0.072
840.62	0.072
840.80	0.072
840.99	0.072
841.17	0.072
841.35	0.072
841.54	0.072
841.72	0.072
841.90	0.072
842.09	0.072
842.27	0.072
842.45	0.073
842.64	0.073
842.82	0.073
843.00	0.073
843.19	0.073
843.37	0.073
843.55	0.074
843.73	0.073
843.92	0.073
844.10	0.073
844.28	0.073
844.47	0.073
844.65	0.072
844.83	0.073
845.01	0.073
845.20	0.073
845.38	0.073
845.56	0.072
845.75	0.073
845.93	0.072
846.11	0.072
846.29	0.072
846.48	0.073
846.66	0.073
846.84	0.073
847.02	0.072
847.21	0.072
847.39	0.072
847.57	0.072
847.76	0.072
847.94	0.073
848.12	0.073
848.30	0.073
848.49	0.073
848.67	0.073
848.85	0.073
849.03	0.073
849.22	0.073
849.40	0.074
849.58	0.074
849.76	0.074
849.95	0.074
850.13	0.074
850.31	0.074
850.49	0.074
850.67	0.074
850.86	0.074
851.04	0.074
851.22	0.074
851.40	0.074
851.59	0.073
851.77	0.074
851.95	0.074
852.13	0.074
852.31	0.074
852.50	0.074
852.68	0.074
852.86	0.074
853.04	0.074
853.23	0.074
853.41	0.074
853.59	0.074
853.77	0.074
853.95	0.074
854.14	0.074
854.32	0.074
854.50	0.073
854.68	0.073
854.86	0.074
855.04	0.074
855.23	0.074
855.41	0.074
855.59	0.074
855.77	0.074
855.95	0.074
856.14	0.074
856.32	0.074
856.50	0.074
856.68	0.074
856.86	0.074
857.04	0.074
857.23	0.074
857.41	0.074
857.59	0.074
857.77	0.074
857.95	0.073
858.13	0.073
858.32	0.073
858.50	0.074
858.68	0.073
858.86	0.074
859.04	0.074
859.22	0.074
859.41	0.074
859.59	0.074
859.77	0.074
859.95	0.074
860.13	0.074
860.31	0.074
860.49	0.074
860.68	0.074
860.86	0.074
861.04	0.074
861.22	0.074
861.40	0.074
861.58	0.074
861.76	0.074
861.94	0.074
862.13	0.074
862.31	0.074
862.49	0.074
862.67	0.074
862.85	0.074
863.03	0.074
863.21	0.075
863.39	0.075
863.57	0.075
863.76	0.075
863.94	0.075
864.12	0.075
864.30	0.075
864.48	0.074
864.66	0.075
864.84	0.075
865.02	0.075
865.20	0.075
865.38	0.075
865.57	0.075
865.75	0.075
865.93	0.075
866.11	0.075
866.29	0.075
866.47	0.076
866.65	0.076
866.83	0.076
867.01	0.075
867.19	0.075
867.37	0.075
867.55	0.075
867.73	0.075
867.92	0.075
868.10	0.076
868.28	0.076
868.46	0.075
868.64	0.075
868.82	0.076
869.00	0.076
869.18	0.076
869.36	0.076
869.54	0.076
869.72	0.076
869.90	0.076
870.08	0.076
870.26	0.076
870.44	0.076
870.62	0.077
870.80	0.076
870.98	0.076
871.16	0.076
871.34	0.076
871.53	0.076
871.71	0.076
871.89	0.076
872.07	0.076
872.25	0.076
872.43	0.076
872.61	0.076
872.79	0.076
872.97	0.076
873.15	0.076
873.33	0.077
873.51	0.077
873.69	0.077
873.87	0.077
874.05	0.077
874.23	0.077
874.41	0.077
874.59	0.078
874.77	0.077
874.95	0.077
875.13	0.077
875.31	0.077
875.49	0.077
875.67	0.077
875.85	0.077
876.03	0.077
876.21	0.077
876.39	0.077
876.57	0.077
876.75	0.078
876.93	0.077
877.11	0.077
877.29	0.077
877.47	0.077
877.65	0.078
877.82	0.078
878.00	0.078
878.18	0.078
878.36	0.078
878.54	0.078
878.72	0.078
878.90	0.078
879.08	0.078
879.26	0.078
879.44	0.078
879.62	0.078
879.80	0.078
879.98	0.079
880.16	0.078
880.34	0.078
880.52	0.078
880.70	0.078
880.88	0.078
881.06	0.078
881.24	0.078
881.42	0.078
881.59	0.078
881.77	0.078
881.95	0.078
882.13	0.078
882.31	0.078
882.49	0.077
882.67	0.078
882.85	0.078
883.03	0.078
883.21	0.078
883.39	0.078
883.57	0.079
883.75	0.079
883.92	0.079
884.10	0.079
884.28	0.079
884.46	0.079
884.64	0.079
884.82	0.079
885.00	0.079
885.18	0.079
885.36	0.079
885.54	0.079
885.71	0.079
885.89	0.079
886.07	0.079
886.25	0.079
886.43	0.080
886.61	0.079
886.79	0.079
886.97	0.079
887.15	0.079
887.32	0.079
887.50	0.080
887.68	0.080
887.86	0.080
888.04	0.080
888.22	0.080
888.40	0.080
888.57	0.081
888.75	0.080
888.93	0.081
889.11	0.080
889.29	0.080
889.47	0.080
889.65	0.080
889.82	0.080
890.00	0.081
890.18	0.081
890.36	0.080
890.54	0.081
890.72	0.081
890.90	0.081
891.07	0.081
891.25	0.080
891.43	0.080
891.61	0.081
891.79	0.081
891.97	0.080
892.14	0.080
892.32	0.080
892.50	0.080
892.68	0.080
892.86	0.080
893.03	0.080
893.21	0.081
893.39	0.081
893.57	0.081
893.75	0.081
893.93	0.081
894.10	0.082
894.28	0.082
894.46	0.082
894.64	0.082
894.82	0.082
894.99	0.082
895.17	0.082
895.35	0.082
895.53	0.082
895.71	0.081
895.88	0.081
896.06	0.081
896.24	0.082
896.42	0.081
896.59	0.082
896.77	0.082
896.95	0.082
897.13	0.082
897.31	0.082
897.48	0.082
897.66	0.082
897.84	0.082
898.02	0.082
898.19	0.082
898.37	0.082
898.55	0.082
898.73	0.082
898.91	0.082
899.08	0.082
899.26	0.082
899.44	0.083
899.62	0.083
899.79	0.083
899.97	0.083
900.15	0.083
900.33	0.083
900.50	0.083
900.68	0.083
900.86	0.083
901.04	0.083
901.21	0.083
901.39	0.083
901.57	0.083
901.74	0.083
901.92	0.083
902.10	0.083
902.28	0.083
902.45	0.083
902.63	0.083
902.81	0.083
902.99	0.083
903.16	0.083
903.34	0.083
903.52	0.083
903.69	0.083
903.87	0.083
904.05	0.084
904.22	0.084
904.40	0.084
904.58	0.085
904.76	0.085
904.93	0.085
905.11	0.085
905.29	0.085
905.46	0.085
905.64	0.085
905.82	0.085
905.99	0.085
906.17	0.084
906.35	0.085
906.53	0.085
906.70	0.085
906.88	0.085
907.06	0.085
907.23	0.085
907.41	0.086
907.59	0.086
907.76	0.086
907.94	0.086
908.12	0.086
908.29	0.086
908.47	0.086
908.65	0.086
908.82	0.086
909.00	0.086
909.18	0.087
909.35	0.087
909.53	0.087
909.71	0.087
909.88	0.087
910.06	0.087
910.23	0.086
910.41	0.087
910.59	0.086
910.76	0.086
910.94	0.086
911.12	0.086
911.29	0.086
911.47	0.086
911.65	0.087
911.82	0.087
912.00	0.087
912.17	0.087
912.35	0.087
912.53	0.088
912.70	0.088
912.88	0.088
913.06	0.089
913.23	0.089
913.41	0.088
913.58	0.089
913.76	0.089
913.94	0.089
914.11	0.089
914.29	0.089
914.46	0.089
914.64	0.089
914.82	0.089
914.99	0.089
915.17	0.089
915.34	0.089
915.52	0.089
915.70	0.090
915.87	0.090
916.05	0.090
916.22	0.090
916.40	0.090
916.57	0.090
916.75	0.090
916.93	0.091
917.10	0.091
917.28	0.091
917.45	0.091
917.63	0.091
917.80	0.091
917.98	0.091
918.16	0.091
918.33	0.092
918.51	0.092
918.68	0.092
918.86	0.092
919.03	0.092
919.21	0.092
919.39	0.092
919.56	0.093
919.74	0.093
919.91	0.093
920.09	0.093
920.26	0.093
920.44	0.093
920.61	0.093
920.79	0.094
920.96	0.093
921.14	0.094
921.31	0.094
921.49	0.094
921.67	0.094
921.84	0.094
922.02	0.095
922.19	0.095
922.37	0.095
922.54	0.096
922.72	0.096
922.89	0.096
923.07	0.097
923.24	0.097
923.42	0.097
923.59	0.097
923.77	0.098
923.94	0.098
924.12	0.098
924.29	0.098
924.47	0.099
924.64	0.099
924.82	0.099
924.99	0.100
925.17	0.100
925.34	0.100
925.52	0.101
925.69	0.101
925.87	0.102
926.04	0.102
926.22	0.102
926.39	0.102
926.57	0.102
926.74	0.102
926.91	0.102
927.09	0.103
927.26	0.103
927.44	0.103
927.61	0.103
927.79	0.104
927.96	0.104
928.14	0.105
928.31	0.105
928.49	0.105
928.66	0.106
928.84	0.107
929.01	0.107
929.18	0.107
929.36	0.108
929.53	0.108
929.71	0.109
929.88	0.109
930.06	0.109
930.23	0.110
930.41	0.110
930.58	0.111
930.75	0.111
930.93	0.111
931.10	0.111
931.28	0.112
931.45	0.112
931.63	0.112
931.80	0.112
931.97	0.113
932.15	0.114
932.32	0.114
932.50	0.115
932.67	0.115
932.84	0.116
933.02	0.117
933.19	0.117
933.37	0.118
933.54	0.118
933.71	0.119
933.89	0.120
934.06	0.119
934.24	0.120
934.41	0.120
934.58	0.121
934.76	0.121
934.93	0.122
935.11	0.122
935.28	0.122
935.45	0.123
935.63	0.123
935.80	0.123
935.98	0.124
936.15	0.124
936.32	0.125
936.50	0.125
936.67	0.126
936.84	0.126
937.02	0.127
937.19	0.127
937.36	0.128
937.54	0.128
937.71	0.129
937.89	0.129
938.06	0.130
938.23	0.131
938.41	0.131
938.58	0.132
938.75	0.132
938.93	0.133
939.10	0.133
939.27	0.134
939.45	0.135
939.62	0.135
939.79	0.136
939.97	0.136
940.14	0.137
940.31	0.137
940.49	0.138
940.66	0.138
940.83	0.139
941.01	0.140
941.18	0.141
941.35	0.141
941.53	0.142
941.70	0.142
941.87	0.142
942.05	0.143
942.22	0.144
942.39	0.145
942.57	0.146
942.74	0.147
942.91	0.146
943.08	0.147
943.26	0.147
943.43	0.148
943.60	0.149
943.78	0.150
943.95	0.151
944.12	0.151
944.29	0.152
944.47	0.153
944.64	0.153
944.81	0.155
944.99	0.156
945.16	0.156
945.33	0.157
945.50	0.158
945.68	0.159
945.85	0.159
946.02	0.161
946.20	0.162
946.37	0.163
946.54	0.163
946.71	0.164
946.89	0.165
947.06	0.165
947.23	0.166
947.40	0.167
947.58	0.167
947.75	0.169
947.92	0.169
948.09	0.169
948.27	0.171
948.44	0.172
948.61	0.173
948.78	0.174
948.96	0.176
949.13	0.176
949.30	0.177
949.47	0.178
949.65	0.179
949.82	0.181
949.99	0.181
950.16	0.183
950.33	0.184
950.51	0.185
950.68	0.186
950.85	0.187
951.02	0.189
951.20	0.189
951.37	0.191
951.54	0.191
951.71	0.193
951.88	0.194
952.06	0.196
952.23	0.196
952.40	0.198
952.57	0.199
952.74	0.200
952.92	0.201
953.09	0.203
953.26	0.204
953.43	0.205
953.60	0.206
953.77	0.207
953.95	0.208
954.12	0.210
954.29	0.211
954.46	0.213
954.63	0.214
954.81	0.215
954.98	0.215
955.15	0.217
955.32	0.219
955.49	0.219
955.66	0.220
955.84	0.222
956.01	0.222
956.18	0.224
956.35	0.226
956.52	0.226
956.69	0.228
956.87	0.228
957.04	0.229
957.21	0.231
957.38	0.231
957.55	0.232
957.72	0.233
957.89	0.234
958.07	0.233
958.24	0.236
958.41	0.237
958.58	0.237
958.75	0.238
958.92	0.239
959.09	0.240
959.26	0.241
959.44	0.241
959.61	0.243
959.78	0.243
959.95	0.245
960.12	0.245
960.29	0.247
960.46	0.246
960.63	0.247
960.81	0.247
960.98	0.248
961.15	0.248
961.32	0.249
961.49	0.248
961.66	0.250
961.83	0.250
962.00	0.250
962.17	0.252
962.34	0.251
962.52	0.252
962.69	0.253
962.86	0.252
963.03	0.253
963.20	0.253
963.37	0.252
963.54	0.253
963.71	0.253
963.88	0.253
964.05	0.253
964.22	0.255
964.39	0.253
964.56	0.254
964.74	0.255
964.91	0.254
965.08	0.255
965.25	0.255
965.42	0.256
965.59	0.257
965.76	0.256
965.93	0.258
966.10	0.256
966.27	0.257
966.44	0.256
966.61	0.258
966.78	0.257
966.95	0.257
967.12	0.258
967.29	0.261
967.46	0.260
967.63	0.259
967.80	0.260
967.97	0.259
968.14	0.259
968.32	0.260
968.49	0.260
968.66	0.259
968.83	0.259
969.00	0.259
969.17	0.259
969.34	0.261
969.51	0.262
969.68	0.261
969.85	0.262
970.02	0.262
970.19	0.262
970.36	0.263
970.53	0.263
970.70	0.262
970.87	0.262
971.04	0.262
971.21	0.262
971.38	0.261
971.55	0.261
971.72	0.261
971.89	0.262
972.06	0.261
972.23	0.261
972.40	0.261
972.57	0.260
972.74	0.260
972.91	0.260
973.07	0.261
973.24	0.261
973.41	0.261
973.58	0.259
973.75	0.272
973.92	0.260
974.09	0.260
974.26	0.260
974.43	0.259
974.60	0.259
974.77	0.260
974.94	0.259
975.11	0.260
975.28	0.261
975.45	0.259
975.62	0.260
975.79	0.261
975.96	0.260
976.13	0.259
976.30	0.261
976.47	0.260
976.64	0.260
976.80	0.260
976.97	0.259
977.14	0.259
977.31	0.259
977.48	0.259
977.65	0.259
977.82	0.258
977.99	0.259
978.16	0.259
978.33	0.258
978.50	0.258
978.67	0.258
978.83	0.258
979.00	0.258
979.17	0.257
979.34	0.257
979.51	0.257
979.68	0.257
979.85	0.257
980.02	0.258
980.19	0.256
980.36	0.258
980.52	0.259
980.69	0.257
980.86	0.258
981.03	0.257
981.20	0.256
981.37	0.257
981.54	0.257
981.71	0.255
981.88	0.256
982.04	0.255
982.21	0.254
982.38	0.256
982.55	0.255
982.72	0.254
982.89	0.255
983.06	0.253
983.22	0.253
983.39	0.253
983.56	0.253
983.73	0.252
983.90	0.252
984.07	0.253
984.24	0.251
984.40	0.251
984.57	0.249
984.74	0.252
984.91	0.253
985.08	0.250
985.25	0.248
985.41	0.249
985.58	0.250
985.75	0.251
985.92	0.249
986.09	0.249
986.26	0.249
986.42	0.248
986.59	0.246
986.76	0.247
986.93	0.247
987.10	0.247
987.27	0.245
987.43	0.244
987.60	0.246
987.77	0.246
987.94	0.245
988.11	0.246
988.27	0.246
988.44	0.245
988.61	0.243
988.78	0.242
988.95	0.243
989.11	0.244
989.28	0.242
989.45	0.241
989.62	0.241
989.79	0.241
989.95	0.240
990.12	0.241
990.29	0.241
990.46	0.240
990.62	0.238
990.79	0.238
990.96	0.239
991.13	0.239
991.30	0.238
991.46	0.237
991.63	0.236
991.80	0.235
991.97	0.235
992.13	0.236
992.30	0.237
992.47	0.235
992.64	0.235
992.80	0.235
992.97	0.236
993.14	0.233
993.31	0.231
993.47	0.234
993.64	0.231
993.81	0.230
993.98	0.231
994.14	0.229
994.31	0.229
994.48	0.230
994.64	0.230
994.81	0.228
994.98	0.229
995.15	0.227
995.31	0.227
995.48	0.227
995.65	0.230
995.82	0.227
995.98	0.226
996.15	0.228
996.32	0.229
996.48	0.227
996.65	0.227
996.82	0.225
996.99	0.225
997.15	0.225
997.32	0.226
997.49	0.224
997.65	0.225
997.82	0.224
997.99	0.222
998.15	0.223
998.32	0.224
998.49	0.223
998.65	0.223
998.82	0.222
998.99	0.220
999.15	0.220
999.32	0.219
999.49	0.219
999.65	0.219
999.82	0.217
999.99	0.217
1000.15	0.218
1000.32	0.217
1000.49	0.217
1000.65	0.215
1000.82	0.215
1000.99	0.215
1001.15	0.215
1001.32	0.214
1001.49	0.215
1001.65	0.214
1001.82	0.216
1001.99	0.213
1002.15	0.211
1002.32	0.211
1002.49	0.213
1002.65	0.211
1002.82	0.210
1002.99	0.209
1003.15	0.211
1003.32	0.210
1003.48	0.211
1003.65	0.211
1003.82	0.210
1003.98	0.208
1004.15	0.207
1004.32	0.207
1004.48	0.207
1004.65	0.208
1004.81	0.206
1004.98	0.204
1005.15	0.205
1005.31	0.204
1005.48	0.202
1005.64	0.202
1005.81	0.205
1005.98	0.202
1006.14	0.202
1006.31	0.201
1006.47	0.201
1006.64	0.200
1006.81	0.200
1006.97	0.200
1007.14	0.200
1007.30	0.201
1007.47	0.201
1007.63	0.198
1007.80	0.196
1007.97	0.196
1008.13	0.197
1008.30	0.196
1008.46	0.196
1008.63	0.194
1008.79	0.195
1008.96	0.194
1009.13	0.195
1009.29	0.192
1009.46	0.193
1009.62	0.193
1009.79	0.191
1009.95	0.191
1010.12	0.192
1010.28	0.192
1010.45	0.191
1010.62	0.191
1010.78	0.190
1010.95	0.188
1011.11	0.189
1011.28	0.189
1011.44	0.191
1011.61	0.188
1011.77	0.187
1011.94	0.187
1012.10	0.187
1012.27	0.187
1012.43	0.187
1012.60	0.184
1012.76	0.184
1012.93	0.183
1013.10	0.182
1013.26	0.179
1013.43	0.182
1013.59	0.189
1013.76	0.182
1013.92	0.180
1014.09	0.179
1014.25	0.179
1014.42	0.180
1014.58	0.181
1014.75	0.183
1014.91	0.182
1015.08	0.184
1015.24	0.180
1015.41	0.181
1015.57	0.181
1015.73	0.180
1015.90	0.177
1016.06	0.180
1016.23	0.178
1016.39	0.178
1016.56	0.179
1016.72	0.177
1016.89	0.177
1017.05	0.179
1017.22	0.176
1017.38	0.176
1017.55	0.175
1017.71	0.176
1017.88	0.175
1018.04	0.176
1018.21	0.174
1018.37	0.173
1018.53	0.173
1018.70	0.172
1018.86	0.171
1019.03	0.172
1019.19	0.170
1019.36	0.170
1019.52	0.172
1019.69	0.172
1019.85	0.171
1020.01	0.171
1020.18	0.169
1020.34	0.170
1020.51	0.169
1020.67	0.171
1020.84	0.170
1021.00	0.170
1021.16	0.168
1021.33	0.168
1021.49	0.167
1021.66	0.168
1021.82	0.165
1021.98	0.166
1022.15	0.166
1022.31	0.165
1022.48	0.163
1022.64	0.165
1022.80	0.164
1022.97	0.162
1023.13	0.161
1023.30	0.162
1023.46	0.162
1023.62	0.160
1023.79	0.162
1023.95	0.162
1024.12	0.161
1024.28	0.160
1024.44	0.160
1024.61	0.159
1024.77	0.159
1024.93	0.158
1025.10	0.159
1025.26	0.157
1025.43	0.157
1025.59	0.153
1025.75	0.156
1025.92	0.155
1026.08	0.154
1026.24	0.154
1026.41	0.155
1026.57	0.154
1026.73	0.152
1026.90	0.154
1027.06	0.152
1027.23	0.154
1027.39	0.154
1027.55	0.154
1027.72	0.153
1027.88	0.153
1028.04	0.152
1028.21	0.152
1028.37	0.146
1028.53	0.151
1028.70	0.149
1028.86	0.148
1029.02	0.148
1029.19	0.149
1029.35	0.146
1029.51	0.146
1029.67	0.145
1029.84	0.148
1030.00	0.143
1030.16	0.144
1030.33	0.147
1030.49	0.144
1030.65	0.142
1030.82	0.156
1030.98	0.143
1031.14	0.143
1031.31	0.144
1031.47	0.142
1031.63	0.144
1031.79	0.143
1031.96	0.144
1032.12	0.146
1032.28	0.145
1032.45	0.148
1032.61	0.146
1032.77	0.145
1032.93	0.143
1033.10	0.144
1033.26	0.146
1033.42	0.144
1033.58	0.145
1033.75	0.146
1033.91	0.144
1034.07	0.145
1034.24	0.143
1034.40	0.141
1034.56	0.140
1034.72	0.140
1034.89	0.140
1035.05	0.139
1035.21	0.140
1035.37	0.137
1035.54	0.140
1035.70	0.138
1035.86	0.137
1036.02	0.140
1036.19	0.138
1036.35	0.137
1036.51	0.141
1036.67	0.138
1036.83	0.137
1037.00	0.135
1037.16	0.135
1037.32	0.135
1037.48	0.135
1037.65	0.139
1037.81	0.134
1037.97	0.134
1038.13	0.134
1038.29	0.133
1038.46	0.130
1038.62	0.134
1038.78	0.132
1038.94	0.129
1039.10	0.135
1039.27	0.131
1039.43	0.132
1039.59	0.133
1039.75	0.133
1039.91	0.132
1040.08	0.131
1040.24	0.135
1040.40	0.137
1040.56	0.135
1040.72	0.129
1040.89	0.132
1041.05	0.133
1041.21	0.130
1041.37	0.127
1041.53	0.131
1041.69	0.129
1041.86	0.130
1042.02	0.126
1042.18	0.126
1042.34	0.128
1042.50	0.132
1042.66	0.128
1042.83	0.128
1042.99	0.131
1043.15	0.128
1043.31	0.129
1043.47	0.132
1043.63	0.128
1043.79	0.126
1043.96	0.127
1044.12	0.131
1044.28	0.128
1044.44	0.130
1044.60	0.125
1044.76	0.123
1044.92	0.124
1045.09	0.126
1045.25	0.124
1045.41	0.126
1045.57	0.122
1045.73	0.122
1045.89	0.122
1046.05	0.124
1046.21	0.120
1046.38	0.119
1046.54	0.133
1046.70	0.129
1046.86	0.123
>>>>>End Processed Spectral Data<<<<<
