SpectraSuite Data File
++++++++++++++++++++++++++++++++++++
Date: Mon May 20 12:11:30 CDT 2013
User: Students
Dark Spectrum Present: Yes
Reference Spectrum Present: Yes
Number of Sampled Component Spectra: 1
Spectrometers: USB4H00887
Integration Time (usec): 60000 (USB4H00887)
Spectra Averaged: 5 (USB4H00887)
Boxcar Smoothing: 5 (USB4H00887)
Correct for Electrical Dark: No (USB4H00887)
Strobe/Lamp Enabled: No (USB4H00887)
Correct for Detector Non-linearity: No (USB4H00887)
Correct for Stray Light: No (USB4H00887)
Number of Pixels in Processed Spectrum: 3648
>>>>>Begin Processed Spectral Data<<<<<
345.83	-0.006
346.05	-0.006
346.26	-0.006
346.48	-0.000
346.70	0.027
346.92	-0.004
347.14	0.023
347.35	0.031
347.57	0.219
347.79	-0.231
348.01	-0.196
348.23	-0.308
348.44	-0.000
348.66	0.263
348.88	-0.364
349.10	-0.196
349.32	0.094
349.53	-0.025
349.75	-0.014
349.97	0.032
350.19	0.090
350.41	0.152
350.62	-0.205
350.84	0.016
351.06	0.006
351.28	-0.008
351.50	-0.115
351.71	-0.113
351.93	-0.082
352.15	-0.021
352.37	-0.104
352.58	-0.032
352.80	-0.014
353.02	0.025
353.24	0.059
353.46	0.422
353.67	-0.147
353.89	0.070
354.11	0.056
354.33	0.067
354.54	0.116
354.76	0.167
354.98	0.363
355.20	0.263
355.41	0.098
355.63	0.146
355.85	0.066
356.07	0.791
356.28	0.059
356.50	0.130
356.72	0.047
356.94	0.121
357.15	0.200
357.37	-0.000
357.59	0.126
357.81	0.085
358.02	0.180
358.24	0.128
358.46	0.212
358.68	0.185
358.89	0.099
359.11	-0.000
359.33	0.101
359.55	-0.587
359.76	0.138
359.98	0.152
360.20	0.151
360.42	0.126
360.63	0.132
360.85	0.104
361.07	0.900
361.29	0.112
361.50	0.330
361.72	0.113
361.94	0.432
362.15	0.156
362.37	0.092
362.59	0.093
362.81	0.121
363.02	0.241
363.24	0.511
363.46	0.222
363.68	0.273
363.89	0.165
364.11	0.236
364.33	0.305
364.54	0.199
364.76	0.237
364.98	0.248
365.20	0.325
365.41	0.152
365.63	0.170
365.85	0.116
366.06	0.351
366.28	0.372
366.50	0.247
366.71	0.099
366.93	0.127
367.15	0.107
367.37	0.106
367.58	0.138
367.80	0.202
368.02	0.555
368.23	0.201
368.45	0.185
368.67	0.178
368.88	0.158
369.10	-0.000
369.32	0.167
369.53	0.099
369.75	0.149
369.97	0.365
370.19	0.194
370.40	0.076
370.62	0.156
370.84	0.073
371.05	0.306
371.27	0.103
371.49	0.138
371.70	0.136
371.92	0.178
372.14	0.083
372.35	0.100
372.57	0.117
372.79	0.311
373.00	0.078
373.22	0.135
373.44	0.146
373.65	0.108
373.87	0.140
374.09	0.545
374.30	0.118
374.52	0.158
374.74	0.106
374.95	0.372
375.17	0.108
375.39	-0.000
375.60	0.123
375.82	0.199
376.04	0.080
376.25	0.091
376.47	0.064
376.68	0.175
376.90	0.106
377.12	0.200
377.33	0.122
377.55	0.314
377.77	0.174
377.98	0.255
378.20	0.145
378.42	0.193
378.63	0.256
378.85	-0.000
379.07	0.150
379.28	0.473
379.50	0.306
379.71	0.162
379.93	0.113
380.15	0.153
380.36	0.230
380.58	0.163
380.80	0.421
381.01	0.147
381.23	0.136
381.44	0.155
381.66	0.193
381.88	0.240
382.09	-0.100
382.31	0.159
382.53	0.163
382.74	1.235
382.96	0.218
383.17	0.175
383.39	0.218
383.61	0.292
383.82	0.209
384.04	0.234
384.25	0.288
384.47	0.268
384.69	0.248
384.90	0.237
385.12	0.483
385.33	0.300
385.55	0.235
385.77	0.365
385.98	0.181
386.20	0.251
386.41	0.213
386.63	0.216
386.85	0.184
387.06	0.224
387.28	0.341
387.49	0.245
387.71	0.187
387.93	0.165
388.14	0.467
388.36	0.191
388.57	0.178
388.79	0.214
389.01	-0.000
389.22	0.317
389.44	0.282
389.65	0.220
389.87	0.221
390.08	0.264
390.30	0.198
390.52	0.422
390.73	0.418
390.95	0.284
391.16	0.278
391.38	-0.000
391.59	0.274
391.81	0.235
392.03	0.225
392.24	0.258
392.46	0.216
392.67	0.194
392.89	0.266
393.10	0.442
393.32	0.281
393.53	0.317
393.75	0.212
393.97	0.248
394.18	0.347
394.40	0.299
394.61	0.320
394.83	0.278
395.04	0.341
395.26	0.235
395.47	0.357
395.69	0.300
395.91	0.323
396.12	0.396
396.34	0.391
396.55	0.241
396.77	0.367
396.98	-0.000
397.20	0.458
397.41	0.507
397.63	0.330
397.84	0.291
398.06	0.272
398.27	0.259
398.49	0.295
398.71	0.225
398.92	0.273
399.14	0.360
399.35	0.466
399.57	0.467
399.78	0.305
400.00	0.298
400.21	0.371
400.43	0.304
400.64	0.332
400.86	0.892
401.07	0.424
401.29	0.368
401.50	0.389
401.72	0.551
401.93	0.322
402.15	0.399
402.36	0.348
402.58	0.291
402.79	0.328
403.01	0.553
403.22	0.417
403.44	0.289
403.65	0.464
403.87	0.506
404.08	0.406
404.30	0.703
404.51	0.367
404.73	0.454
404.94	0.396
405.16	0.399
405.37	0.314
405.59	0.601
405.80	0.347
406.02	0.423
406.23	0.446
406.45	0.498
406.66	0.537
406.88	0.328
407.09	0.515
407.31	0.391
407.52	0.485
407.74	0.385
407.95	0.455
408.17	0.432
408.38	0.449
408.60	0.286
408.81	0.475
409.03	0.351
409.24	0.367
409.45	0.433
409.67	0.417
409.88	0.377
410.10	0.499
410.31	0.407
410.53	0.387
410.74	0.579
410.96	0.568
411.17	0.600
411.39	0.451
411.60	0.408
411.82	0.480
412.03	0.464
412.24	0.441
412.46	0.661
412.67	0.531
412.89	0.515
413.10	0.498
413.32	0.445
413.53	0.519
413.75	0.519
413.96	0.391
414.17	0.529
414.39	0.525
414.60	0.430
414.82	0.575
415.03	0.441
415.25	0.491
415.46	0.340
415.68	0.480
415.89	0.925
416.10	0.748
416.32	0.391
416.53	0.453
416.75	0.434
416.96	0.519
417.18	0.435
417.39	0.419
417.60	0.427
417.82	0.631
418.03	0.551
418.25	0.453
418.46	0.465
418.67	0.435
418.89	0.469
419.10	0.488
419.32	0.676
419.53	0.615
419.75	0.509
419.96	0.445
420.17	0.543
420.39	0.508
420.60	0.525
420.82	0.664
421.03	0.524
421.24	0.439
421.46	0.499
421.67	0.535
421.89	0.462
422.10	0.496
422.31	0.484
422.53	0.716
422.74	0.522
422.96	0.422
423.17	0.473
423.38	0.579
423.60	0.486
423.81	0.599
424.03	0.511
424.24	0.567
424.45	0.572
424.67	0.577
424.88	0.506
425.09	0.550
425.31	0.507
425.52	0.542
425.74	0.627
425.95	0.690
426.16	0.521
426.38	0.619
426.59	0.568
426.80	0.662
427.02	0.690
427.23	0.528
427.45	0.719
427.66	0.679
427.87	0.516
428.09	0.545
428.30	0.612
428.51	0.593
428.73	0.657
428.94	0.576
429.15	0.560
429.37	0.536
429.58	0.568
429.79	0.516
430.01	0.635
430.22	0.631
430.44	0.651
430.65	0.580
430.86	0.635
431.08	0.617
431.29	0.562
431.50	0.673
431.72	0.927
431.93	0.721
432.14	0.542
432.36	0.595
432.57	0.605
432.78	0.624
433.00	0.570
433.21	0.561
433.42	0.697
433.64	0.608
433.85	0.704
434.06	0.566
434.28	0.609
434.49	0.615
434.70	0.629
434.92	0.638
435.13	0.690
435.34	0.699
435.56	0.661
435.77	0.651
435.98	0.848
436.20	0.695
436.41	0.596
436.62	0.577
436.83	0.667
437.05	0.760
437.26	0.668
437.47	0.591
437.69	0.649
437.90	0.595
438.11	0.587
438.33	0.641
438.54	0.658
438.75	0.836
438.97	0.823
439.18	0.603
439.39	0.633
439.60	0.679
439.82	0.631
440.03	0.586
440.24	0.869
440.46	0.648
440.67	0.627
440.88	0.674
441.10	0.637
441.31	0.636
441.52	0.697
441.73	0.796
441.95	0.704
442.16	0.653
442.37	1.072
442.58	0.629
442.80	0.613
443.01	0.808
443.22	0.736
443.44	0.621
443.65	0.741
443.86	0.732
444.07	0.780
444.29	0.666
444.50	0.854
444.71	0.642
444.92	0.600
445.14	0.771
445.35	0.825
445.56	0.643
445.78	0.756
445.99	0.749
446.20	0.645
446.41	0.728
446.63	0.731
446.84	0.681
447.05	0.686
447.26	0.834
447.48	0.703
447.69	0.663
447.90	0.752
448.11	0.667
448.33	0.701
448.54	0.720
448.75	0.750
448.96	0.756
449.18	0.817
449.39	0.727
449.60	0.704
449.81	0.853
450.03	0.732
450.24	0.793
450.45	0.755
450.66	0.735
450.87	0.770
451.09	0.718
451.30	0.702
451.51	0.788
451.72	0.799
451.94	0.824
452.15	0.914
452.36	0.749
452.57	0.772
452.78	0.763
453.00	0.796
453.21	0.745
453.42	0.719
453.63	0.827
453.85	0.779
454.06	0.771
454.27	0.921
454.48	0.810
454.69	0.725
454.91	0.804
455.12	0.695
455.33	0.782
455.54	0.804
455.75	0.771
455.97	0.794
456.18	0.778
456.39	0.782
456.60	0.804
456.81	0.735
457.03	0.749
457.24	0.752
457.45	0.848
457.66	0.798
457.87	0.752
458.09	0.775
458.30	0.684
458.51	0.823
458.72	0.852
458.93	0.867
459.15	0.759
459.36	0.826
459.57	0.845
459.78	0.892
459.99	0.789
460.20	0.747
460.42	0.834
460.63	0.783
460.84	0.762
461.05	0.786
461.26	0.847
461.47	0.756
461.69	0.814
461.90	0.861
462.11	0.820
462.32	0.883
462.53	0.813
462.74	0.915
462.96	0.791
463.17	0.784
463.38	0.829
463.59	0.949
463.80	0.784
464.01	0.810
464.23	0.902
464.44	0.853
464.65	0.860
464.86	0.883
465.07	0.893
465.28	0.850
465.49	0.873
465.71	0.816
465.92	0.864
466.13	0.922
466.34	0.841
466.55	0.897
466.76	0.858
466.97	0.886
467.19	0.875
467.40	0.912
467.61	0.919
467.82	0.832
468.03	0.815
468.24	0.885
468.45	0.912
468.66	0.899
468.88	0.908
469.09	0.909
469.30	0.952
469.51	0.874
469.72	0.916
469.93	0.882
470.14	0.860
470.35	0.962
470.57	0.910
470.78	0.854
470.99	0.996
471.20	0.927
471.41	0.881
471.62	0.940
471.83	0.910
472.04	0.948
472.25	1.003
472.47	0.906
472.68	0.909
472.89	0.914
473.10	0.957
473.31	0.904
473.52	0.971
473.73	0.995
473.94	0.909
474.15	0.931
474.36	0.930
474.57	0.956
474.79	0.921
475.00	0.923
475.21	0.910
475.42	1.012
475.63	0.905
475.84	0.943
476.05	0.949
476.26	0.913
476.47	0.948
476.68	1.000
476.89	0.922
477.10	0.983
477.32	0.967
477.53	1.032
477.74	0.939
477.95	0.984
478.16	0.925
478.37	0.974
478.58	0.981
478.79	0.999
479.00	1.000
479.21	0.953
479.42	0.996
479.63	0.997
479.84	0.951
480.05	0.952
480.26	0.982
480.47	1.003
480.69	1.005
480.90	0.971
481.11	0.969
481.32	1.034
481.53	0.966
481.74	1.024
481.95	0.986
482.16	1.003
482.37	1.010
482.58	0.972
482.79	0.992
483.00	1.024
483.21	0.960
483.42	0.933
483.63	1.021
483.84	1.051
484.05	1.040
484.26	1.008
484.47	1.008
484.68	0.967
484.89	0.974
485.10	1.028
485.31	1.003
485.52	1.009
485.73	1.010
485.94	1.052
486.15	0.996
486.37	1.010
486.58	0.971
486.79	0.987
487.00	1.042
487.21	1.033
487.42	1.026
487.63	1.032
487.84	1.051
488.05	1.042
488.26	1.000
488.47	1.002
488.68	1.036
488.89	1.011
489.10	1.000
489.31	1.010
489.52	1.047
489.73	1.013
489.94	1.052
490.15	1.005
490.36	1.049
490.57	0.996
490.78	0.978
490.99	1.019
491.20	1.106
491.41	1.058
491.62	0.992
491.83	1.023
492.04	1.020
492.25	1.029
492.45	1.032
492.66	1.061
492.87	1.051
493.08	1.041
493.29	1.027
493.50	1.015
493.71	1.022
493.92	1.019
494.13	1.036
494.34	1.059
494.55	1.064
494.76	1.093
494.97	1.083
495.18	1.040
495.39	1.057
495.60	1.000
495.81	1.001
496.02	1.024
496.23	1.020
496.44	1.058
496.65	1.047
496.86	1.052
497.07	1.081
497.28	1.074
497.49	1.021
497.70	1.021
497.91	1.044
498.12	1.026
498.32	1.073
498.53	1.056
498.74	1.044
498.95	1.071
499.16	1.022
499.37	1.029
499.58	1.043
499.79	1.073
500.00	1.072
500.21	1.104
500.42	1.041
500.63	1.045
500.84	1.067
501.05	1.038
501.26	1.066
501.46	1.113
501.67	1.067
501.88	1.068
502.09	1.040
502.30	1.048
502.51	1.101
502.72	1.051
502.93	1.065
503.14	1.089
503.35	1.058
503.56	1.054
503.77	1.088
503.97	1.064
504.18	1.063
504.39	1.104
504.60	1.069
504.81	1.103
505.02	1.090
505.23	1.092
505.44	1.071
505.65	1.081
505.86	1.063
506.07	1.138
506.27	1.091
506.48	1.096
506.69	1.077
506.90	1.099
507.11	1.094
507.32	1.068
507.53	1.076
507.74	1.069
507.95	1.083
508.15	1.086
508.36	1.090
508.57	1.103
508.78	1.086
508.99	1.087
509.20	1.058
509.41	1.085
509.62	1.068
509.82	1.067
510.03	1.077
510.24	1.079
510.45	1.105
510.66	1.093
510.87	1.089
511.08	1.042
511.29	1.088
511.49	1.061
511.70	1.113
511.91	1.045
512.12	1.041
512.33	1.078
512.54	1.093
512.75	1.075
512.95	1.106
513.16	1.096
513.37	1.070
513.58	1.110
513.79	1.071
514.00	1.079
514.20	1.093
514.41	1.081
514.62	1.045
514.83	1.090
515.04	1.080
515.25	1.057
515.46	1.070
515.66	1.076
515.87	1.092
516.08	1.059
516.29	1.085
516.50	1.066
516.71	1.060
516.91	1.071
517.12	1.091
517.33	1.072
517.54	1.058
517.75	1.063
517.95	1.078
518.16	1.088
518.37	1.049
518.58	1.056
518.79	1.027
519.00	1.059
519.20	1.070
519.41	1.041
519.62	1.064
519.83	1.073
520.04	1.031
520.24	1.029
520.45	1.041
520.66	1.068
520.87	1.026
521.08	1.022
521.28	1.030
521.49	1.049
521.70	1.020
521.91	1.034
522.12	1.015
522.32	1.040
522.53	1.019
522.74	1.007
522.95	1.017
523.16	1.020
523.36	1.032
523.57	1.009
523.78	1.001
523.99	1.003
524.20	0.997
524.40	1.009
524.61	1.016
524.82	0.986
525.03	0.993
525.23	0.995
525.44	0.978
525.65	0.976
525.86	1.003
526.06	0.972
526.27	0.975
526.48	0.986
526.69	0.965
526.90	0.970
527.10	1.009
527.31	0.957
527.52	0.951
527.73	0.943
527.93	0.956
528.14	0.961
528.35	0.950
528.56	0.949
528.76	0.941
528.97	0.931
529.18	0.922
529.39	0.922
529.59	0.926
529.80	0.959
530.01	0.927
530.22	0.925
530.42	0.893
530.63	0.911
530.84	0.887
531.05	0.903
531.25	0.907
531.46	0.896
531.67	0.873
531.88	0.892
532.08	0.886
532.29	0.882
532.50	0.875
532.70	0.867
532.91	0.857
533.12	0.860
533.33	0.884
533.53	0.853
533.74	0.854
533.95	0.861
534.15	0.849
534.36	0.848
534.57	0.830
534.78	0.831
534.98	0.842
535.19	0.811
535.40	0.813
535.60	0.832
535.81	0.810
536.02	0.813
536.23	0.804
536.43	0.807
536.64	0.794
536.85	0.802
537.05	0.812
537.26	0.789
537.47	0.792
537.67	0.781
537.88	0.776
538.09	0.784
538.30	0.772
538.50	0.762
538.71	0.774
538.92	0.759
539.12	0.755
539.33	0.749
539.54	0.748
539.74	0.752
539.95	0.743
540.16	0.740
540.36	0.730
540.57	0.729
540.78	0.721
540.98	0.720
541.19	0.717
541.40	0.705
541.60	0.715
541.81	0.710
542.02	0.710
542.22	0.699
542.43	0.694
542.64	0.689
542.84	0.689
543.05	0.680
543.26	0.680
543.46	0.684
543.67	0.681
543.88	0.677
544.08	0.666
544.29	0.661
544.50	0.661
544.70	0.662
544.91	0.654
545.12	0.655
545.32	0.650
545.53	0.654
545.74	0.642
545.94	0.639
546.15	0.636
546.35	0.632
546.56	0.629
546.77	0.627
546.97	0.623
547.18	0.613
547.39	0.614
547.59	0.612
547.80	0.607
548.01	0.611
548.21	0.606
548.42	0.598
548.62	0.598
548.83	0.595
549.04	0.591
549.24	0.584
549.45	0.584
549.65	0.578
549.86	0.574
550.07	0.574
550.27	0.571
550.48	0.579
550.69	0.564
550.89	0.563
551.10	0.559
551.30	0.557
551.51	0.556
551.72	0.546
551.92	0.547
552.13	0.546
552.33	0.546
552.54	0.541
552.75	0.534
552.95	0.535
553.16	0.530
553.36	0.528
553.57	0.525
553.78	0.523
553.98	0.523
554.19	0.515
554.39	0.512
554.60	0.515
554.80	0.514
555.01	0.507
555.22	0.508
555.42	0.505
555.63	0.497
555.83	0.501
556.04	0.495
556.25	0.497
556.45	0.488
556.66	0.485
556.86	0.488
557.07	0.486
557.27	0.484
557.48	0.478
557.68	0.476
557.89	0.477
558.10	0.473
558.30	0.470
558.51	0.468
558.71	0.465
558.92	0.460
559.12	0.462
559.33	0.466
559.54	0.460
559.74	0.457
559.95	0.455
560.15	0.454
560.36	0.452
560.56	0.446
560.77	0.447
560.97	0.446
561.18	0.441
561.38	0.440
561.59	0.442
561.79	0.437
562.00	0.435
562.21	0.431
562.41	0.430
562.62	0.429
562.82	0.427
563.03	0.423
563.23	0.422
563.44	0.422
563.64	0.419
563.85	0.420
564.05	0.413
564.26	0.413
564.46	0.412
564.67	0.412
564.87	0.407
565.08	0.404
565.28	0.404
565.49	0.405
565.69	0.401
565.90	0.398
566.10	0.401
566.31	0.394
566.51	0.395
566.72	0.396
566.92	0.390
567.13	0.390
567.33	0.390
567.54	0.388
567.74	0.387
567.95	0.383
568.15	0.384
568.36	0.384
568.56	0.382
568.77	0.377
568.97	0.375
569.18	0.375
569.38	0.373
569.59	0.374
569.79	0.371
570.00	0.368
570.20	0.366
570.41	0.365
570.61	0.363
570.82	0.363
571.02	0.360
571.23	0.362
571.43	0.358
571.64	0.356
571.84	0.355
572.05	0.354
572.25	0.353
572.45	0.352
572.66	0.349
572.86	0.348
573.07	0.346
573.27	0.346
573.48	0.345
573.68	0.341
573.89	0.340
574.09	0.340
574.30	0.338
574.50	0.337
574.70	0.337
574.91	0.335
575.11	0.335
575.32	0.334
575.52	0.331
575.73	0.330
575.93	0.330
576.14	0.329
576.34	0.327
576.54	0.326
576.75	0.324
576.95	0.323
577.16	0.321
577.36	0.320
577.57	0.319
577.77	0.318
577.97	0.314
578.18	0.315
578.38	0.313
578.59	0.311
578.79	0.310
579.00	0.311
579.20	0.309
579.40	0.308
579.61	0.307
579.81	0.306
580.02	0.303
580.22	0.303
580.42	0.302
580.63	0.301
580.83	0.300
581.04	0.297
581.24	0.297
581.45	0.295
581.65	0.295
581.85	0.293
582.06	0.291
582.26	0.291
582.47	0.290
582.67	0.289
582.87	0.288
583.08	0.287
583.28	0.287
583.48	0.285
583.69	0.282
583.89	0.282
584.10	0.283
584.30	0.281
584.50	0.280
584.71	0.279
584.91	0.279
585.12	0.277
585.32	0.278
585.52	0.275
585.73	0.274
585.93	0.273
586.13	0.273
586.34	0.272
586.54	0.271
586.75	0.270
586.95	0.269
587.15	0.269
587.36	0.267
587.56	0.267
587.76	0.266
587.97	0.266
588.17	0.264
588.37	0.263
588.58	0.263
588.78	0.260
588.98	0.261
589.19	0.259
589.39	0.257
589.60	0.259
589.80	0.255
590.00	0.254
590.21	0.254
590.41	0.252
590.61	0.251
590.82	0.251
591.02	0.250
591.22	0.248
591.43	0.249
591.63	0.247
591.83	0.247
592.04	0.246
592.24	0.247
592.44	0.245
592.65	0.244
592.85	0.244
593.05	0.244
593.26	0.242
593.46	0.242
593.66	0.242
593.86	0.241
594.07	0.239
594.27	0.238
594.47	0.237
594.68	0.236
594.88	0.237
595.08	0.236
595.29	0.237
595.49	0.235
595.69	0.234
595.90	0.233
596.10	0.234
596.30	0.233
596.50	0.232
596.71	0.232
596.91	0.230
597.11	0.230
597.32	0.229
597.52	0.228
597.72	0.227
597.93	0.227
598.13	0.225
598.33	0.225
598.53	0.224
598.74	0.223
598.94	0.223
599.14	0.222
599.35	0.222
599.55	0.221
599.75	0.220
599.95	0.220
600.16	0.220
600.36	0.218
600.56	0.218
600.76	0.218
600.97	0.217
601.17	0.217
601.37	0.217
601.58	0.215
601.78	0.215
601.98	0.215
602.18	0.213
602.39	0.213
602.59	0.213
602.79	0.212
602.99	0.211
603.20	0.210
603.40	0.210
603.60	0.210
603.80	0.209
604.01	0.209
604.21	0.208
604.41	0.207
604.61	0.207
604.82	0.206
605.02	0.206
605.22	0.206
605.42	0.205
605.62	0.206
605.83	0.204
606.03	0.204
606.23	0.204
606.43	0.203
606.64	0.203
606.84	0.203
607.04	0.202
607.24	0.202
607.45	0.202
607.65	0.200
607.85	0.201
608.05	0.200
608.25	0.199
608.46	0.199
608.66	0.198
608.86	0.198
609.06	0.197
609.26	0.196
609.47	0.197
609.67	0.195
609.87	0.196
610.07	0.195
610.28	0.194
610.48	0.194
610.68	0.194
610.88	0.193
611.08	0.193
611.29	0.192
611.49	0.191
611.69	0.192
611.89	0.190
612.09	0.190
612.29	0.190
612.50	0.189
612.70	0.188
612.90	0.187
613.10	0.187
613.30	0.186
613.51	0.186
613.71	0.186
613.91	0.190
614.11	0.185
614.31	0.185
614.51	0.185
614.72	0.184
614.92	0.184
615.12	0.184
615.32	0.184
615.52	0.184
615.72	0.184
615.93	0.183
616.13	0.183
616.33	0.183
616.53	0.182
616.73	0.182
616.93	0.181
617.14	0.181
617.34	0.181
617.54	0.181
617.74	0.181
617.94	0.180
618.14	0.180
618.34	0.179
618.55	0.179
618.75	0.179
618.95	0.179
619.15	0.179
619.35	0.178
619.55	0.178
619.75	0.178
619.96	0.177
620.16	0.178
620.36	0.177
620.56	0.177
620.76	0.177
620.96	0.176
621.16	0.176
621.36	0.176
621.57	0.176
621.77	0.176
621.97	0.175
622.17	0.174
622.37	0.174
622.57	0.174
622.77	0.174
622.97	0.172
623.18	0.172
623.38	0.173
623.58	0.172
623.78	0.171
623.98	0.171
624.18	0.170
624.38	0.170
624.58	0.169
624.78	0.170
624.98	0.170
625.19	0.170
625.39	0.169
625.59	0.169
625.79	0.169
625.99	0.168
626.19	0.169
626.39	0.169
626.59	0.169
626.79	0.169
626.99	0.168
627.19	0.168
627.40	0.168
627.60	0.168
627.80	0.167
628.00	0.168
628.20	0.167
628.40	0.167
628.60	0.166
628.80	0.165
629.00	0.165
629.20	0.164
629.40	0.165
629.60	0.163
629.80	0.164
630.00	0.164
630.20	0.163
630.41	0.163
630.61	0.163
630.81	0.163
631.01	0.163
631.21	0.162
631.41	0.162
631.61	0.163
631.81	0.162
632.01	0.162
632.21	0.162
632.41	0.161
632.61	0.160
632.81	0.160
633.01	0.161
633.21	0.160
633.41	0.161
633.61	0.159
633.81	0.159
634.01	0.159
634.21	0.158
634.41	0.158
634.61	0.158
634.81	0.158
635.01	0.157
635.22	0.157
635.42	0.157
635.62	0.157
635.82	0.157
636.02	0.156
636.22	0.156
636.42	0.156
636.62	0.156
636.82	0.156
637.02	0.155
637.22	0.156
637.42	0.155
637.62	0.154
637.82	0.154
638.02	0.154
638.22	0.154
638.42	0.154
638.62	0.153
638.82	0.153
639.02	0.153
639.22	0.153
639.42	0.152
639.62	0.152
639.82	0.151
640.02	0.151
640.22	0.151
640.42	0.151
640.62	0.151
640.82	0.151
641.02	0.151
641.22	0.151
641.42	0.150
641.61	0.150
641.81	0.151
642.01	0.150
642.21	0.150
642.41	0.150
642.61	0.150
642.81	0.149
643.01	0.149
643.21	0.148
643.41	0.149
643.61	0.148
643.81	0.147
644.01	0.146
644.21	0.146
644.41	0.147
644.61	0.146
644.81	0.146
645.01	0.146
645.21	0.146
645.41	0.146
645.61	0.146
645.81	0.145
646.01	0.145
646.21	0.146
646.40	0.145
646.60	0.145
646.80	0.146
647.00	0.145
647.20	0.143
647.40	0.143
647.60	0.143
647.80	0.143
648.00	0.143
648.20	0.143
648.40	0.143
648.60	0.142
648.80	0.142
649.00	0.142
649.20	0.143
649.39	0.142
649.59	0.142
649.79	0.142
649.99	0.142
650.19	0.141
650.39	0.141
650.59	0.141
650.79	0.141
650.99	0.140
651.19	0.139
651.39	0.139
651.58	0.139
651.78	0.139
651.98	0.139
652.18	0.139
652.38	0.138
652.58	0.138
652.78	0.138
652.98	0.137
653.18	0.138
653.38	0.138
653.57	0.138
653.77	0.138
653.97	0.137
654.17	0.137
654.37	0.136
654.57	0.136
654.77	0.136
654.97	0.136
655.16	0.136
655.36	0.136
655.56	0.135
655.76	0.135
655.96	0.135
656.16	0.134
656.36	0.134
656.56	0.134
656.75	0.134
656.95	0.133
657.15	0.133
657.35	0.133
657.55	0.132
657.75	0.133
657.95	0.133
658.14	0.133
658.34	0.133
658.54	0.133
658.74	0.132
658.94	0.132
659.14	0.132
659.34	0.132
659.53	0.131
659.73	0.131
659.93	0.130
660.13	0.130
660.33	0.130
660.53	0.130
660.72	0.130
660.92	0.130
661.12	0.129
661.32	0.129
661.52	0.129
661.72	0.129
661.91	0.129
662.11	0.129
662.31	0.128
662.51	0.128
662.71	0.128
662.90	0.128
663.10	0.128
663.30	0.127
663.50	0.127
663.70	0.127
663.90	0.126
664.09	0.126
664.29	0.126
664.49	0.126
664.69	0.125
664.89	0.126
665.08	0.125
665.28	0.125
665.48	0.125
665.68	0.124
665.88	0.124
666.07	0.124
666.27	0.124
666.47	0.124
666.67	0.123
666.87	0.123
667.06	0.123
667.26	0.122
667.46	0.122
667.66	0.122
667.85	0.122
668.05	0.122
668.25	0.122
668.45	0.122
668.65	0.122
668.84	0.122
669.04	0.122
669.24	0.121
669.44	0.121
669.63	0.121
669.83	0.121
670.03	0.120
670.23	0.119
670.42	0.119
670.62	0.118
670.82	0.118
671.02	0.118
671.22	0.117
671.41	0.117
671.61	0.117
671.81	0.118
672.01	0.117
672.20	0.117
672.40	0.117
672.60	0.117
672.80	0.117
672.99	0.116
673.19	0.116
673.39	0.116
673.58	0.116
673.78	0.116
673.98	0.115
674.18	0.115
674.37	0.115
674.57	0.114
674.77	0.115
674.97	0.114
675.16	0.115
675.36	0.114
675.56	0.114
675.75	0.113
675.95	0.113
676.15	0.113
676.35	0.113
676.54	0.113
676.74	0.113
676.94	0.113
677.13	0.113
677.33	0.112
677.53	0.112
677.73	0.113
677.92	0.112
678.12	0.112
678.32	0.111
678.51	0.111
678.71	0.111
678.91	0.111
679.11	0.110
679.30	0.111
679.50	0.110
679.70	0.110
679.89	0.110
680.09	0.110
680.29	0.109
680.48	0.109
680.68	0.109
680.88	0.109
681.07	0.109
681.27	0.109
681.47	0.109
681.66	0.109
681.86	0.109
682.06	0.108
682.25	0.108
682.45	0.108
682.65	0.108
682.84	0.107
683.04	0.107
683.24	0.106
683.43	0.106
683.63	0.106
683.83	0.106
684.02	0.105
684.22	0.105
684.42	0.105
684.61	0.105
684.81	0.105
685.01	0.105
685.20	0.105
685.40	0.105
685.60	0.105
685.79	0.105
685.99	0.105
686.19	0.105
686.38	0.105
686.58	0.105
686.77	0.105
686.97	0.104
687.17	0.104
687.36	0.104
687.56	0.104
687.76	0.103
687.95	0.103
688.15	0.103
688.34	0.103
688.54	0.102
688.74	0.102
688.93	0.101
689.13	0.101
689.33	0.101
689.52	0.101
689.72	0.101
689.91	0.101
690.11	0.100
690.31	0.100
690.50	0.101
690.70	0.101
690.89	0.100
691.09	0.100
691.29	0.100
691.48	0.100
691.68	0.099
691.87	0.099
692.07	0.099
692.27	0.099
692.46	0.098
692.66	0.098
692.85	0.098
693.05	0.098
693.25	0.098
693.44	0.097
693.64	0.097
693.83	0.097
694.03	0.097
694.22	0.096
694.42	0.096
694.62	0.097
694.81	0.097
695.01	0.097
695.20	0.097
695.40	0.097
695.59	0.097
695.79	0.096
695.99	0.097
696.18	0.097
696.38	0.097
696.57	0.096
696.77	0.096
696.96	0.096
697.16	0.096
697.36	0.096
697.55	0.096
697.75	0.096
697.94	0.095
698.14	0.096
698.33	0.096
698.53	0.096
698.72	0.096
698.92	0.096
699.11	0.096
699.31	0.095
699.51	0.095
699.70	0.095
699.90	0.095
700.09	0.095
700.29	0.094
700.48	0.094
700.68	0.094
700.87	0.094
701.07	0.093
701.26	0.093
701.46	0.093
701.65	0.093
701.85	0.092
702.04	0.092
702.24	0.092
702.43	0.092
702.63	0.092
702.82	0.091
703.02	0.091
703.21	0.091
703.41	0.091
703.60	0.091
703.80	0.091
703.99	0.090
704.19	0.091
704.38	0.091
704.58	0.090
704.77	0.091
704.97	0.090
705.16	0.091
705.36	0.091
705.55	0.091
705.75	0.090
705.94	0.091
706.14	0.091
706.33	0.091
706.53	0.091
706.72	0.091
706.92	0.090
707.11	0.090
707.31	0.090
707.50	0.090
707.70	0.090
707.89	0.090
708.09	0.089
708.28	0.089
708.48	0.089
708.67	0.088
708.86	0.088
709.06	0.088
709.25	0.088
709.45	0.088
709.64	0.088
709.84	0.088
710.03	0.088
710.23	0.088
710.42	0.088
710.62	0.088
710.81	0.088
711.00	0.088
711.20	0.088
711.39	0.088
711.59	0.088
711.78	0.088
711.98	0.087
712.17	0.087
712.37	0.087
712.56	0.087
712.75	0.088
712.95	0.088
713.14	0.088
713.34	0.088
713.53	0.088
713.73	0.088
713.92	0.088
714.11	0.088
714.31	0.088
714.50	0.088
714.70	0.088
714.89	0.088
715.08	0.088
715.28	0.088
715.47	0.087
715.67	0.088
715.86	0.087
716.06	0.088
716.25	0.087
716.44	0.087
716.64	0.086
716.83	0.086
717.03	0.086
717.22	0.085
717.41	0.085
717.61	0.085
717.80	0.086
717.99	0.085
718.19	0.086
718.38	0.086
718.58	0.085
718.77	0.085
718.96	0.085
719.16	0.085
719.35	0.085
719.55	0.084
719.74	0.084
719.93	0.084
720.13	0.084
720.32	0.083
720.51	0.084
720.71	0.084
720.90	0.084
721.10	0.084
721.29	0.084
721.48	0.084
721.68	0.084
721.87	0.084
722.06	0.084
722.26	0.084
722.45	0.084
722.64	0.084
722.84	0.084
723.03	0.084
723.22	0.085
723.42	0.085
723.61	0.085
723.80	0.085
724.00	0.085
724.19	0.084
724.38	0.085
724.58	0.085
724.77	0.085
724.96	0.085
725.16	0.085
725.35	0.085
725.54	0.085
725.74	0.085
725.93	0.085
726.12	0.085
726.32	0.085
726.51	0.085
726.70	0.085
726.90	0.085
727.09	0.085
727.28	0.084
727.48	0.084
727.67	0.084
727.86	0.084
728.06	0.085
728.25	0.085
728.44	0.085
728.64	0.085
728.83	0.085
729.02	0.084
729.21	0.085
729.41	0.085
729.60	0.084
729.79	0.085
729.99	0.084
730.18	0.084
730.37	0.084
730.56	0.084
730.76	0.084
730.95	0.084
731.14	0.084
731.34	0.084
731.53	0.084
731.72	0.084
731.91	0.084
732.11	0.084
732.30	0.084
732.49	0.084
732.69	0.085
732.88	0.085
733.07	0.084
733.26	0.085
733.46	0.084
733.65	0.084
733.84	0.084
734.03	0.084
734.23	0.084
734.42	0.084
734.61	0.084
734.80	0.084
735.00	0.084
735.19	0.084
735.38	0.085
735.57	0.085
735.77	0.085
735.96	0.085
736.15	0.085
736.34	0.085
736.54	0.085
736.73	0.085
736.92	0.085
737.11	0.085
737.31	0.085
737.50	0.085
737.69	0.085
737.88	0.085
738.07	0.085
738.27	0.084
738.46	0.084
738.65	0.084
738.84	0.084
739.04	0.085
739.23	0.085
739.42	0.084
739.61	0.084
739.80	0.084
740.00	0.084
740.19	0.084
740.38	0.084
740.57	0.084
740.76	0.084
740.96	0.084
741.15	0.084
741.34	0.084
741.53	0.084
741.72	0.084
741.92	0.084
742.11	0.083
742.30	0.083
742.49	0.084
742.68	0.084
742.88	0.084
743.07	0.084
743.26	0.084
743.45	0.084
743.64	0.083
743.84	0.083
744.03	0.083
744.22	0.084
744.41	0.083
744.60	0.083
744.79	0.083
744.99	0.082
745.18	0.082
745.37	0.082
745.56	0.082
745.75	0.082
745.94	0.082
746.14	0.082
746.33	0.082
746.52	0.083
746.71	0.082
746.90	0.082
747.09	0.083
747.28	0.082
747.48	0.082
747.67	0.082
747.86	0.082
748.05	0.082
748.24	0.081
748.43	0.081
748.62	0.081
748.82	0.081
749.01	0.081
749.20	0.081
749.39	0.081
749.58	0.081
749.77	0.081
749.96	0.081
750.16	0.081
750.35	0.081
750.54	0.081
750.73	0.081
750.92	0.081
751.11	0.081
751.30	0.081
751.49	0.081
751.68	0.081
751.88	0.081
752.07	0.080
752.26	0.080
752.45	0.080
752.64	0.079
752.83	0.080
753.02	0.079
753.21	0.079
753.40	0.079
753.60	0.079
753.79	0.079
753.98	0.079
754.17	0.079
754.36	0.079
754.55	0.079
754.74	0.079
754.93	0.079
755.12	0.079
755.31	0.080
755.50	0.080
755.70	0.079
755.89	0.079
756.08	0.079
756.27	0.079
756.46	0.079
756.65	0.079
756.84	0.079
757.03	0.079
757.22	0.078
757.41	0.078
757.60	0.078
757.79	0.078
757.98	0.079
758.17	0.079
758.36	0.079
758.56	0.078
758.75	0.078
758.94	0.078
759.13	0.078
759.32	0.078
759.51	0.078
759.70	0.078
759.89	0.078
760.08	0.078
760.27	0.078
760.46	0.078
760.65	0.078
760.84	0.078
761.03	0.078
761.22	0.078
761.41	0.078
761.60	0.078
761.79	0.078
761.98	0.078
762.17	0.077
762.36	0.077
762.55	0.077
762.74	0.077
762.93	0.077
763.12	0.077
763.31	0.077
763.50	0.077
763.69	0.077
763.88	0.077
764.07	0.077
764.26	0.077
764.45	0.077
764.64	0.077
764.83	0.076
765.02	0.077
765.21	0.077
765.40	0.077
765.59	0.077
765.78	0.077
765.97	0.077
766.16	0.077
766.35	0.077
766.54	0.077
766.73	0.077
766.92	0.077
767.11	0.077
767.30	0.077
767.49	0.077
767.68	0.077
767.87	0.077
768.06	0.077
768.25	0.077
768.44	0.077
768.63	0.076
768.82	0.076
769.01	0.076
769.20	0.076
769.39	0.076
769.58	0.076
769.77	0.076
769.96	0.076
770.15	0.076
770.34	0.076
770.53	0.076
770.72	0.076
770.91	0.075
771.10	0.076
771.29	0.075
771.47	0.075
771.66	0.075
771.85	0.075
772.04	0.075
772.23	0.075
772.42	0.075
772.61	0.075
772.80	0.075
772.99	0.075
773.18	0.075
773.37	0.075
773.56	0.075
773.75	0.075
773.94	0.075
774.13	0.075
774.31	0.075
774.50	0.075
774.69	0.075
774.88	0.075
775.07	0.076
775.26	0.075
775.45	0.074
775.64	0.075
775.83	0.075
776.02	0.074
776.21	0.074
776.40	0.075
776.58	0.074
776.77	0.074
776.96	0.074
777.15	0.074
777.34	0.075
777.53	0.075
777.72	0.075
777.91	0.075
778.10	0.075
778.28	0.075
778.47	0.075
778.66	0.074
778.85	0.074
779.04	0.074
779.23	0.074
779.42	0.073
779.61	0.073
779.79	0.073
779.98	0.073
780.17	0.073
780.36	0.073
780.55	0.073
780.74	0.073
780.93	0.073
781.12	0.073
781.30	0.073
781.49	0.073
781.68	0.073
781.87	0.073
782.06	0.073
782.25	0.073
782.44	0.073
782.62	0.073
782.81	0.073
783.00	0.073
783.19	0.073
783.38	0.073
783.57	0.073
783.75	0.073
783.94	0.073
784.13	0.073
784.32	0.073
784.51	0.073
784.70	0.073
784.88	0.073
785.07	0.072
785.26	0.072
785.45	0.073
785.64	0.072
785.83	0.072
786.01	0.072
786.20	0.072
786.39	0.072
786.58	0.072
786.77	0.072
786.95	0.072
787.14	0.072
787.33	0.072
787.52	0.071
787.71	0.071
787.90	0.071
788.08	0.071
788.27	0.071
788.46	0.071
788.65	0.071
788.84	0.071
789.02	0.071
789.21	0.071
789.40	0.071
789.59	0.071
789.77	0.071
789.96	0.071
790.15	0.072
790.34	0.072
790.53	0.072
790.71	0.071
790.90	0.071
791.09	0.071
791.28	0.071
791.46	0.071
791.65	0.071
791.84	0.071
792.03	0.071
792.22	0.071
792.40	0.071
792.59	0.071
792.78	0.071
792.97	0.071
793.15	0.071
793.34	0.071
793.53	0.071
793.72	0.071
793.90	0.070
794.09	0.071
794.28	0.070
794.47	0.070
794.65	0.070
794.84	0.070
795.03	0.070
795.22	0.070
795.40	0.070
795.59	0.070
795.78	0.070
795.97	0.070
796.15	0.071
796.34	0.071
796.53	0.071
796.71	0.071
796.90	0.071
797.09	0.071
797.28	0.071
797.46	0.071
797.65	0.071
797.84	0.070
798.02	0.070
798.21	0.070
798.40	0.070
798.59	0.070
798.77	0.070
798.96	0.069
799.15	0.069
799.33	0.069
799.52	0.069
799.71	0.069
799.90	0.069
800.08	0.069
800.27	0.069
800.46	0.068
800.64	0.068
800.83	0.069
801.02	0.069
801.20	0.069
801.39	0.069
801.58	0.069
801.76	0.069
801.95	0.069
802.14	0.069
802.32	0.069
802.51	0.069
802.70	0.069
802.88	0.069
803.07	0.069
803.26	0.069
803.44	0.068
803.63	0.069
803.82	0.068
804.00	0.068
804.19	0.069
804.38	0.069
804.56	0.069
804.75	0.069
804.94	0.069
805.12	0.069
805.31	0.069
805.50	0.069
805.68	0.069
805.87	0.069
806.06	0.069
806.24	0.069
806.43	0.069
806.62	0.069
806.80	0.069
806.99	0.069
807.17	0.069
807.36	0.069
807.55	0.069
807.73	0.069
807.92	0.069
808.11	0.069
808.29	0.069
808.48	0.069
808.66	0.069
808.85	0.069
809.04	0.069
809.22	0.068
809.41	0.069
809.59	0.068
809.78	0.068
809.97	0.068
810.15	0.068
810.34	0.069
810.53	0.068
810.71	0.068
810.90	0.068
811.08	0.068
811.27	0.068
811.45	0.068
811.64	0.068
811.83	0.068
812.01	0.068
812.20	0.068
812.38	0.068
812.57	0.068
812.76	0.068
812.94	0.068
813.13	0.068
813.31	0.068
813.50	0.068
813.68	0.068
813.87	0.068
814.06	0.068
814.24	0.068
814.43	0.068
814.61	0.068
814.80	0.068
814.98	0.068
815.17	0.067
815.36	0.067
815.54	0.068
815.73	0.067
815.91	0.067
816.10	0.067
816.28	0.067
816.47	0.067
816.65	0.067
816.84	0.067
817.03	0.068
817.21	0.068
817.40	0.068
817.58	0.068
817.77	0.068
817.95	0.068
818.14	0.068
818.32	0.068
818.51	0.069
818.69	0.069
818.88	0.069
819.06	0.069
819.25	0.069
819.43	0.069
819.62	0.069
819.80	0.069
819.99	0.069
820.18	0.069
820.36	0.069
820.55	0.069
820.73	0.069
820.92	0.069
821.10	0.069
821.29	0.069
821.47	0.069
821.66	0.069
821.84	0.069
822.03	0.069
822.21	0.069
822.40	0.068
822.58	0.068
822.77	0.068
822.95	0.069
823.14	0.069
823.32	0.069
823.50	0.069
823.69	0.069
823.87	0.069
824.06	0.069
824.24	0.070
824.43	0.070
824.61	0.070
824.80	0.070
824.98	0.070
825.17	0.070
825.35	0.070
825.54	0.070
825.72	0.070
825.91	0.070
826.09	0.070
826.28	0.070
826.46	0.070
826.64	0.070
826.83	0.070
827.01	0.070
827.20	0.070
827.38	0.070
827.57	0.071
827.75	0.070
827.94	0.071
828.12	0.071
828.31	0.071
828.49	0.071
828.67	0.072
828.86	0.072
829.04	0.071
829.23	0.072
829.41	0.072
829.60	0.072
829.78	0.072
829.96	0.072
830.15	0.072
830.33	0.072
830.52	0.072
830.70	0.072
830.88	0.072
831.07	0.073
831.25	0.073
831.44	0.073
831.62	0.073
831.81	0.073
831.99	0.073
832.17	0.073
832.36	0.073
832.54	0.073
832.73	0.073
832.91	0.073
833.09	0.073
833.28	0.074
833.46	0.074
833.65	0.074
833.83	0.074
834.01	0.074
834.20	0.074
834.38	0.074
834.56	0.074
834.75	0.074
834.93	0.074
835.12	0.074
835.30	0.074
835.48	0.075
835.67	0.074
835.85	0.074
836.03	0.074
836.22	0.074
836.40	0.074
836.59	0.075
836.77	0.075
836.95	0.075
837.14	0.075
837.32	0.074
837.50	0.074
837.69	0.074
837.87	0.075
838.05	0.075
838.24	0.075
838.42	0.075
838.60	0.075
838.79	0.076
838.97	0.075
839.15	0.075
839.34	0.075
839.52	0.075
839.70	0.075
839.89	0.076
840.07	0.075
840.25	0.076
840.44	0.076
840.62	0.075
840.80	0.076
840.99	0.076
841.17	0.076
841.35	0.076
841.54	0.076
841.72	0.076
841.90	0.076
842.09	0.076
842.27	0.076
842.45	0.076
842.64	0.076
842.82	0.076
843.00	0.076
843.19	0.076
843.37	0.076
843.55	0.076
843.73	0.075
843.92	0.075
844.10	0.075
844.28	0.075
844.47	0.075
844.65	0.075
844.83	0.076
845.01	0.076
845.20	0.076
845.38	0.076
845.56	0.076
845.75	0.077
845.93	0.077
846.11	0.077
846.29	0.077
846.48	0.077
846.66	0.077
846.84	0.077
847.02	0.077
847.21	0.077
847.39	0.077
847.57	0.077
847.76	0.077
847.94	0.076
848.12	0.076
848.30	0.076
848.49	0.076
848.67	0.076
848.85	0.076
849.03	0.077
849.22	0.077
849.40	0.077
849.58	0.077
849.76	0.077
849.95	0.077
850.13	0.078
850.31	0.078
850.49	0.078
850.67	0.078
850.86	0.078
851.04	0.078
851.22	0.077
851.40	0.077
851.59	0.077
851.77	0.077
851.95	0.077
852.13	0.077
852.31	0.077
852.50	0.077
852.68	0.077
852.86	0.077
853.04	0.077
853.23	0.077
853.41	0.077
853.59	0.077
853.77	0.077
853.95	0.077
854.14	0.077
854.32	0.077
854.50	0.077
854.68	0.076
854.86	0.077
855.04	0.076
855.23	0.077
855.41	0.077
855.59	0.077
855.77	0.077
855.95	0.077
856.14	0.077
856.32	0.077
856.50	0.077
856.68	0.077
856.86	0.078
857.04	0.077
857.23	0.077
857.41	0.077
857.59	0.077
857.77	0.077
857.95	0.077
858.13	0.077
858.32	0.077
858.50	0.078
858.68	0.077
858.86	0.077
859.04	0.078
859.22	0.077
859.41	0.077
859.59	0.077
859.77	0.077
859.95	0.077
860.13	0.077
860.31	0.077
860.49	0.077
860.68	0.077
860.86	0.077
861.04	0.076
861.22	0.077
861.40	0.077
861.58	0.077
861.76	0.077
861.94	0.077
862.13	0.077
862.31	0.077
862.49	0.078
862.67	0.078
862.85	0.078
863.03	0.078
863.21	0.078
863.39	0.078
863.57	0.079
863.76	0.079
863.94	0.079
864.12	0.079
864.30	0.078
864.48	0.078
864.66	0.078
864.84	0.079
865.02	0.079
865.20	0.079
865.38	0.078
865.57	0.078
865.75	0.079
865.93	0.079
866.11	0.078
866.29	0.078
866.47	0.079
866.65	0.079
866.83	0.079
867.01	0.078
867.19	0.078
867.37	0.078
867.55	0.078
867.73	0.078
867.92	0.078
868.10	0.078
868.28	0.078
868.46	0.078
868.64	0.078
868.82	0.078
869.00	0.079
869.18	0.079
869.36	0.079
869.54	0.079
869.72	0.079
869.90	0.079
870.08	0.078
870.26	0.079
870.44	0.079
870.62	0.079
870.80	0.079
870.98	0.079
871.16	0.079
871.34	0.079
871.53	0.079
871.71	0.079
871.89	0.079
872.07	0.080
872.25	0.079
872.43	0.080
872.61	0.080
872.79	0.080
872.97	0.080
873.15	0.080
873.33	0.081
873.51	0.081
873.69	0.081
873.87	0.080
874.05	0.081
874.23	0.081
874.41	0.081
874.59	0.081
874.77	0.081
874.95	0.081
875.13	0.081
875.31	0.081
875.49	0.081
875.67	0.081
875.85	0.081
876.03	0.081
876.21	0.081
876.39	0.081
876.57	0.081
876.75	0.081
876.93	0.081
877.11	0.081
877.29	0.081
877.47	0.080
877.65	0.081
877.82	0.081
878.00	0.081
878.18	0.081
878.36	0.081
878.54	0.081
878.72	0.081
878.90	0.081
879.08	0.081
879.26	0.081
879.44	0.081
879.62	0.081
879.80	0.081
879.98	0.081
880.16	0.080
880.34	0.080
880.52	0.080
880.70	0.080
880.88	0.080
881.06	0.081
881.24	0.081
881.42	0.081
881.59	0.081
881.77	0.080
881.95	0.080
882.13	0.081
882.31	0.081
882.49	0.081
882.67	0.082
882.85	0.081
883.03	0.081
883.21	0.082
883.39	0.082
883.57	0.082
883.75	0.082
883.92	0.082
884.10	0.082
884.28	0.082
884.46	0.082
884.64	0.082
884.82	0.082
885.00	0.082
885.18	0.082
885.36	0.083
885.54	0.083
885.71	0.083
885.89	0.083
886.07	0.083
886.25	0.083
886.43	0.083
886.61	0.083
886.79	0.083
886.97	0.083
887.15	0.083
887.32	0.083
887.50	0.083
887.68	0.083
887.86	0.083
888.04	0.083
888.22	0.083
888.40	0.083
888.57	0.083
888.75	0.083
888.93	0.083
889.11	0.083
889.29	0.083
889.47	0.084
889.65	0.084
889.82	0.084
890.00	0.084
890.18	0.084
890.36	0.084
890.54	0.084
890.72	0.084
890.90	0.085
891.07	0.085
891.25	0.084
891.43	0.084
891.61	0.084
891.79	0.084
891.97	0.084
892.14	0.084
892.32	0.084
892.50	0.084
892.68	0.084
892.86	0.084
893.03	0.084
893.21	0.085
893.39	0.085
893.57	0.085
893.75	0.085
893.93	0.085
894.10	0.085
894.28	0.085
894.46	0.085
894.64	0.085
894.82	0.085
894.99	0.085
895.17	0.085
895.35	0.085
895.53	0.085
895.71	0.084
895.88	0.085
896.06	0.085
896.24	0.086
896.42	0.085
896.59	0.085
896.77	0.086
896.95	0.086
897.13	0.086
897.31	0.086
897.48	0.086
897.66	0.086
897.84	0.086
898.02	0.085
898.19	0.085
898.37	0.085
898.55	0.085
898.73	0.086
898.91	0.085
899.08	0.085
899.26	0.085
899.44	0.085
899.62	0.086
899.79	0.086
899.97	0.086
900.15	0.086
900.33	0.086
900.50	0.086
900.68	0.086
900.86	0.086
901.04	0.086
901.21	0.086
901.39	0.086
901.57	0.086
901.74	0.086
901.92	0.086
902.10	0.086
902.28	0.086
902.45	0.086
902.63	0.086
902.81	0.086
902.99	0.086
903.16	0.086
903.34	0.086
903.52	0.087
903.69	0.087
903.87	0.087
904.05	0.087
904.22	0.088
904.40	0.088
904.58	0.088
904.76	0.088
904.93	0.088
905.11	0.088
905.29	0.089
905.46	0.088
905.64	0.089
905.82	0.089
905.99	0.089
906.17	0.089
906.35	0.089
906.53	0.089
906.70	0.089
906.88	0.089
907.06	0.089
907.23	0.089
907.41	0.089
907.59	0.089
907.76	0.089
907.94	0.089
908.12	0.089
908.29	0.089
908.47	0.089
908.65	0.089
908.82	0.089
909.00	0.089
909.18	0.089
909.35	0.089
909.53	0.089
909.71	0.089
909.88	0.089
910.06	0.089
910.23	0.089
910.41	0.090
910.59	0.089
910.76	0.089
910.94	0.089
911.12	0.089
911.29	0.090
911.47	0.090
911.65	0.090
911.82	0.090
912.00	0.090
912.17	0.090
912.35	0.091
912.53	0.091
912.70	0.091
912.88	0.091
913.06	0.092
913.23	0.092
913.41	0.092
913.58	0.092
913.76	0.092
913.94	0.092
914.11	0.092
914.29	0.093
914.46	0.093
914.64	0.093
914.82	0.093
914.99	0.093
915.17	0.093
915.34	0.093
915.52	0.093
915.70	0.093
915.87	0.093
916.05	0.094
916.22	0.093
916.40	0.093
916.57	0.094
916.75	0.094
916.93	0.094
917.10	0.094
917.28	0.094
917.45	0.094
917.63	0.094
917.80	0.094
917.98	0.094
918.16	0.094
918.33	0.094
918.51	0.094
918.68	0.094
918.86	0.094
919.03	0.094
919.21	0.095
919.39	0.096
919.56	0.096
919.74	0.096
919.91	0.096
920.09	0.096
920.26	0.096
920.44	0.096
920.61	0.096
920.79	0.097
920.96	0.096
921.14	0.097
921.31	0.097
921.49	0.097
921.67	0.097
921.84	0.098
922.02	0.098
922.19	0.098
922.37	0.098
922.54	0.098
922.72	0.099
922.89	0.099
923.07	0.099
923.24	0.100
923.42	0.100
923.59	0.100
923.77	0.101
923.94	0.101
924.12	0.102
924.29	0.102
924.47	0.102
924.64	0.103
924.82	0.103
924.99	0.103
925.17	0.104
925.34	0.104
925.52	0.104
925.69	0.104
925.87	0.104
926.04	0.105
926.22	0.105
926.39	0.105
926.57	0.106
926.74	0.106
926.91	0.106
927.09	0.107
927.26	0.106
927.44	0.107
927.61	0.107
927.79	0.107
927.96	0.108
928.14	0.109
928.31	0.109
928.49	0.109
928.66	0.109
928.84	0.110
929.01	0.110
929.18	0.111
929.36	0.111
929.53	0.111
929.71	0.112
929.88	0.112
930.06	0.112
930.23	0.113
930.41	0.113
930.58	0.114
930.75	0.114
930.93	0.114
931.10	0.115
931.28	0.115
931.45	0.116
931.63	0.117
931.80	0.117
931.97	0.117
932.15	0.118
932.32	0.119
932.50	0.119
932.67	0.120
932.84	0.121
933.02	0.121
933.19	0.121
933.37	0.122
933.54	0.122
933.71	0.122
933.89	0.123
934.06	0.123
934.24	0.124
934.41	0.124
934.58	0.124
934.76	0.124
934.93	0.125
935.11	0.125
935.28	0.125
935.45	0.126
935.63	0.126
935.80	0.127
935.98	0.127
936.15	0.127
936.32	0.128
936.50	0.128
936.67	0.129
936.84	0.129
937.02	0.130
937.19	0.131
937.36	0.131
937.54	0.131
937.71	0.133
937.89	0.133
938.06	0.134
938.23	0.134
938.41	0.135
938.58	0.136
938.75	0.136
938.93	0.137
939.10	0.137
939.27	0.137
939.45	0.138
939.62	0.138
939.79	0.139
939.97	0.139
940.14	0.140
940.31	0.141
940.49	0.141
940.66	0.142
940.83	0.142
941.01	0.143
941.18	0.143
941.35	0.144
941.53	0.145
941.70	0.146
941.87	0.146
942.05	0.147
942.22	0.147
942.39	0.149
942.57	0.149
942.74	0.150
942.91	0.150
943.08	0.151
943.26	0.152
943.43	0.152
943.60	0.153
943.78	0.153
943.95	0.154
944.12	0.154
944.29	0.155
944.47	0.155
944.64	0.156
944.81	0.158
944.99	0.159
945.16	0.159
945.33	0.160
945.50	0.161
945.68	0.162
945.85	0.162
946.02	0.164
946.20	0.164
946.37	0.166
946.54	0.166
946.71	0.167
946.89	0.167
947.06	0.168
947.23	0.169
947.40	0.170
947.58	0.170
947.75	0.172
947.92	0.172
948.09	0.172
948.27	0.173
948.44	0.175
948.61	0.176
948.78	0.176
948.96	0.178
949.13	0.178
949.30	0.179
949.47	0.180
949.65	0.181
949.82	0.183
949.99	0.183
950.16	0.185
950.33	0.186
950.51	0.187
950.68	0.189
950.85	0.190
951.02	0.192
951.20	0.193
951.37	0.194
951.54	0.195
951.71	0.196
951.88	0.197
952.06	0.199
952.23	0.200
952.40	0.201
952.57	0.202
952.74	0.204
952.92	0.205
953.09	0.206
953.26	0.207
953.43	0.208
953.60	0.209
953.77	0.210
953.95	0.210
954.12	0.212
954.29	0.212
954.46	0.215
954.63	0.216
954.81	0.217
954.98	0.217
955.15	0.219
955.32	0.221
955.49	0.221
955.66	0.223
955.84	0.225
956.01	0.225
956.18	0.227
956.35	0.229
956.52	0.229
956.69	0.231
956.87	0.231
957.04	0.232
957.21	0.235
957.38	0.234
957.55	0.236
957.72	0.236
957.89	0.237
958.07	0.237
958.24	0.240
958.41	0.241
958.58	0.241
958.75	0.241
958.92	0.242
959.09	0.242
959.26	0.243
959.44	0.244
959.61	0.245
959.78	0.246
959.95	0.247
960.12	0.247
960.29	0.249
960.46	0.248
960.63	0.249
960.81	0.249
960.98	0.250
961.15	0.250
961.32	0.251
961.49	0.250
961.66	0.251
961.83	0.252
962.00	0.252
962.17	0.253
962.34	0.253
962.52	0.254
962.69	0.255
962.86	0.254
963.03	0.255
963.20	0.256
963.37	0.256
963.54	0.256
963.71	0.256
963.88	0.256
964.05	0.257
964.22	0.258
964.39	0.257
964.56	0.257
964.74	0.259
964.91	0.259
965.08	0.259
965.25	0.259
965.42	0.260
965.59	0.261
965.76	0.261
965.93	0.262
966.10	0.260
966.27	0.261
966.44	0.260
966.61	0.261
966.78	0.260
966.95	0.259
967.12	0.260
967.29	0.262
967.46	0.261
967.63	0.260
967.80	0.261
967.97	0.261
968.14	0.261
968.32	0.262
968.49	0.262
968.66	0.261
968.83	0.262
969.00	0.263
969.17	0.262
969.34	0.264
969.51	0.264
969.68	0.263
969.85	0.263
970.02	0.263
970.19	0.263
970.36	0.264
970.53	0.264
970.70	0.263
970.87	0.263
971.04	0.262
971.21	0.263
971.38	0.263
971.55	0.264
971.72	0.264
971.89	0.265
972.06	0.264
972.23	0.264
972.40	0.264
972.57	0.264
972.74	0.264
972.91	0.265
973.07	0.265
973.24	0.264
973.41	0.264
973.58	0.262
973.75	0.275
973.92	0.263
974.09	0.262
974.26	0.262
974.43	0.261
974.60	0.262
974.77	0.262
974.94	0.262
975.11	0.263
975.28	0.263
975.45	0.262
975.62	0.264
975.79	0.265
975.96	0.264
976.13	0.263
976.30	0.265
976.47	0.263
976.64	0.264
976.80	0.265
976.97	0.265
977.14	0.264
977.31	0.264
977.48	0.264
977.65	0.263
977.82	0.262
977.99	0.263
978.16	0.263
978.33	0.263
978.50	0.261
978.67	0.261
978.83	0.261
979.00	0.262
979.17	0.261
979.34	0.261
979.51	0.260
979.68	0.261
979.85	0.261
980.02	0.261
980.19	0.259
980.36	0.261
980.52	0.263
980.69	0.261
980.86	0.261
981.03	0.260
981.20	0.259
981.37	0.260
981.54	0.260
981.71	0.258
981.88	0.259
982.04	0.259
982.21	0.258
982.38	0.258
982.55	0.257
982.72	0.256
982.89	0.258
983.06	0.256
983.22	0.257
983.39	0.257
983.56	0.257
983.73	0.256
983.90	0.256
984.07	0.257
984.24	0.256
984.40	0.256
984.57	0.254
984.74	0.256
984.91	0.257
985.08	0.255
985.25	0.252
985.41	0.253
985.58	0.253
985.75	0.254
985.92	0.253
986.09	0.252
986.26	0.251
986.42	0.250
986.59	0.249
986.76	0.251
986.93	0.251
987.10	0.251
987.27	0.249
987.43	0.247
987.60	0.249
987.77	0.249
987.94	0.248
988.11	0.249
988.27	0.249
988.44	0.248
988.61	0.246
988.78	0.245
988.95	0.245
989.11	0.247
989.28	0.245
989.45	0.244
989.62	0.244
989.79	0.244
989.95	0.243
990.12	0.244
990.29	0.245
990.46	0.243
990.62	0.242
990.79	0.242
990.96	0.242
991.13	0.243
991.30	0.242
991.46	0.241
991.63	0.239
991.80	0.238
991.97	0.238
992.13	0.239
992.30	0.240
992.47	0.239
992.64	0.238
992.80	0.238
992.97	0.239
993.14	0.236
993.31	0.233
993.47	0.236
993.64	0.234
993.81	0.234
993.98	0.235
994.14	0.233
994.31	0.232
994.48	0.233
994.64	0.233
994.81	0.232
994.98	0.233
995.15	0.231
995.31	0.231
995.48	0.230
995.65	0.232
995.82	0.228
995.98	0.228
996.15	0.230
996.32	0.231
996.48	0.229
996.65	0.229
996.82	0.227
996.99	0.227
997.15	0.227
997.32	0.228
997.49	0.226
997.65	0.228
997.82	0.227
997.99	0.225
998.15	0.225
998.32	0.226
998.49	0.225
998.65	0.225
998.82	0.224
998.99	0.222
999.15	0.222
999.32	0.222
999.49	0.221
999.65	0.221
999.82	0.218
999.99	0.218
1000.15	0.219
1000.32	0.219
1000.49	0.219
1000.65	0.217
1000.82	0.216
1000.99	0.218
1001.15	0.217
1001.32	0.217
1001.49	0.216
1001.65	0.216
1001.82	0.218
1001.99	0.215
1002.15	0.215
1002.32	0.215
1002.49	0.217
1002.65	0.215
1002.82	0.214
1002.99	0.213
1003.15	0.215
1003.32	0.214
1003.48	0.214
1003.65	0.215
1003.82	0.213
1003.98	0.210
1004.15	0.210
1004.32	0.210
1004.48	0.210
1004.65	0.211
1004.81	0.209
1004.98	0.207
1005.15	0.208
1005.31	0.208
1005.48	0.206
1005.64	0.206
1005.81	0.209
1005.98	0.205
1006.14	0.205
1006.31	0.205
1006.47	0.204
1006.64	0.203
1006.81	0.203
1006.97	0.203
1007.14	0.203
1007.30	0.204
1007.47	0.203
1007.63	0.201
1007.80	0.200
1007.97	0.199
1008.13	0.200
1008.30	0.199
1008.46	0.199
1008.63	0.197
1008.79	0.197
1008.96	0.198
1009.13	0.198
1009.29	0.195
1009.46	0.196
1009.62	0.196
1009.79	0.194
1009.95	0.194
1010.12	0.194
1010.28	0.194
1010.45	0.193
1010.62	0.193
1010.78	0.191
1010.95	0.190
1011.11	0.191
1011.28	0.190
1011.44	0.192
1011.61	0.191
1011.77	0.190
1011.94	0.190
1012.10	0.189
1012.27	0.189
1012.43	0.189
1012.60	0.187
1012.76	0.187
1012.93	0.186
1013.10	0.185
1013.26	0.182
1013.43	0.183
1013.59	0.191
1013.76	0.183
1013.92	0.183
1014.09	0.182
1014.25	0.182
1014.42	0.183
1014.58	0.183
1014.75	0.184
1014.91	0.183
1015.08	0.185
1015.24	0.181
1015.41	0.183
1015.57	0.183
1015.73	0.182
1015.90	0.180
1016.06	0.182
1016.23	0.180
1016.39	0.180
1016.56	0.182
1016.72	0.181
1016.89	0.182
1017.05	0.184
1017.22	0.180
1017.38	0.180
1017.55	0.179
1017.71	0.180
1017.88	0.179
1018.04	0.180
1018.21	0.178
1018.37	0.177
1018.53	0.177
1018.70	0.175
1018.86	0.175
1019.03	0.176
1019.19	0.174
1019.36	0.173
1019.52	0.174
1019.69	0.175
1019.85	0.174
1020.01	0.174
1020.18	0.172
1020.34	0.172
1020.51	0.171
1020.67	0.172
1020.84	0.171
1021.00	0.172
1021.16	0.169
1021.33	0.170
1021.49	0.169
1021.66	0.170
1021.82	0.168
1021.98	0.168
1022.15	0.167
1022.31	0.167
1022.48	0.166
1022.64	0.167
1022.80	0.166
1022.97	0.165
1023.13	0.165
1023.30	0.164
1023.46	0.165
1023.62	0.162
1023.79	0.165
1023.95	0.165
1024.12	0.165
1024.28	0.164
1024.44	0.164
1024.61	0.163
1024.77	0.162
1024.93	0.162
1025.10	0.163
1025.26	0.161
1025.43	0.162
1025.59	0.157
1025.75	0.160
1025.92	0.158
1026.08	0.157
1026.24	0.157
1026.41	0.158
1026.57	0.156
1026.73	0.154
1026.90	0.156
1027.06	0.154
1027.23	0.155
1027.39	0.155
1027.55	0.156
1027.72	0.154
1027.88	0.154
1028.04	0.154
1028.21	0.154
1028.37	0.149
1028.53	0.154
1028.70	0.152
1028.86	0.151
1029.02	0.151
1029.19	0.152
1029.35	0.150
1029.51	0.151
1029.67	0.149
1029.84	0.151
1030.00	0.147
1030.16	0.147
1030.33	0.150
1030.49	0.147
1030.65	0.144
1030.82	0.160
1030.98	0.146
1031.14	0.146
1031.31	0.146
1031.47	0.145
1031.63	0.147
1031.79	0.145
1031.96	0.147
1032.12	0.147
1032.28	0.146
1032.45	0.150
1032.61	0.149
1032.77	0.148
1032.93	0.146
1033.10	0.146
1033.26	0.148
1033.42	0.145
1033.58	0.146
1033.75	0.147
1033.91	0.145
1034.07	0.146
1034.24	0.144
1034.40	0.143
1034.56	0.143
1034.72	0.144
1034.89	0.143
1035.05	0.142
1035.21	0.142
1035.37	0.140
1035.54	0.143
1035.70	0.141
1035.86	0.141
1036.02	0.142
1036.19	0.140
1036.35	0.138
1036.51	0.142
1036.67	0.141
1036.83	0.140
1037.00	0.139
1037.16	0.139
1037.32	0.139
1037.48	0.137
1037.65	0.140
1037.81	0.136
1037.97	0.136
1038.13	0.135
1038.29	0.133
1038.46	0.130
1038.62	0.134
1038.78	0.131
1038.94	0.130
1039.10	0.134
1039.27	0.130
1039.43	0.133
1039.59	0.133
1039.75	0.134
1039.91	0.132
1040.08	0.131
1040.24	0.134
1040.40	0.134
1040.56	0.134
1040.72	0.129
1040.89	0.132
1041.05	0.134
1041.21	0.134
1041.37	0.132
1041.53	0.138
1041.69	0.135
1041.86	0.134
1042.02	0.131
1042.18	0.131
1042.34	0.132
1042.50	0.136
1042.66	0.131
1042.83	0.131
1042.99	0.132
1043.15	0.127
1043.31	0.127
1043.47	0.132
1043.63	0.130
1043.79	0.130
1043.96	0.132
1044.12	0.135
1044.28	0.131
1044.44	0.133
1044.60	0.127
1044.76	0.125
1044.92	0.128
1045.09	0.130
1045.25	0.126
1045.41	0.127
1045.57	0.123
1045.73	0.124
1045.89	0.126
1046.05	0.128
1046.21	0.129
1046.38	0.131
1046.54	0.143
1046.70	0.134
1046.86	0.121
>>>>>End Processed Spectral Data<<<<<
