SpectraSuite Data File
++++++++++++++++++++++++++++++++++++
Date: Mon May 20 12:11:15 CDT 2013
User: Students
Dark Spectrum Present: Yes
Reference Spectrum Present: Yes
Number of Sampled Component Spectra: 1
Spectrometers: USB4H00887
Integration Time (usec): 60000 (USB4H00887)
Spectra Averaged: 5 (USB4H00887)
Boxcar Smoothing: 5 (USB4H00887)
Correct for Electrical Dark: No (USB4H00887)
Strobe/Lamp Enabled: No (USB4H00887)
Correct for Detector Non-linearity: No (USB4H00887)
Correct for Stray Light: No (USB4H00887)
Number of Pixels in Processed Spectrum: 3648
>>>>>Begin Processed Spectral Data<<<<<
345.83	-0.146
346.05	-0.146
346.26	-0.146
346.48	-0.000
346.70	-0.000
346.92	0.066
347.14	0.048
347.35	0.031
347.57	0.108
347.79	-0.150
348.01	-0.142
348.23	-0.297
348.44	-0.000
348.66	0.233
348.88	-0.288
349.10	-0.064
349.32	-0.016
349.53	0.032
349.75	0.044
349.97	0.030
350.19	0.069
350.41	0.065
350.62	-0.258
350.84	0.028
351.06	0.034
351.28	0.016
351.50	-0.090
351.71	-0.117
351.93	-0.099
352.15	-0.020
352.37	-0.117
352.58	-0.035
352.80	-0.028
353.02	-0.033
353.24	-0.034
353.46	-0.125
353.67	0.238
353.89	-0.030
354.11	-0.015
354.33	0.005
354.54	-0.011
354.76	0.013
354.98	0.015
355.20	0.070
355.41	0.047
355.63	0.067
355.85	0.055
356.07	0.447
356.28	0.059
356.50	0.108
356.72	0.026
356.94	0.089
357.15	0.112
357.37	-0.000
357.59	0.052
357.81	0.014
358.02	0.060
358.24	0.057
358.46	0.168
358.68	0.165
358.89	0.088
359.11	-0.000
359.33	0.098
359.55	-0.584
359.76	0.128
359.98	0.136
360.20	0.166
360.42	0.124
360.63	0.124
360.85	0.073
361.07	0.392
361.29	0.055
361.50	0.139
361.72	0.062
361.94	0.257
362.15	0.095
362.37	0.063
362.59	0.059
362.81	0.095
363.02	0.170
363.24	0.255
363.46	0.135
363.68	0.192
363.89	0.135
364.11	0.210
364.33	0.245
364.54	0.170
364.76	0.197
364.98	0.226
365.20	0.271
365.41	0.158
365.63	0.174
365.85	0.127
366.06	0.379
366.28	0.352
366.50	0.174
366.71	0.081
366.93	0.110
367.15	0.121
367.37	0.106
367.58	0.125
367.80	0.126
368.02	0.346
368.23	0.124
368.45	0.129
368.67	0.112
368.88	0.126
369.10	-0.000
369.32	0.121
369.53	0.062
369.75	0.085
369.97	0.178
370.19	0.120
370.40	0.054
370.62	0.137
370.84	0.061
371.05	0.304
371.27	0.091
371.49	0.101
371.70	0.097
371.92	0.139
372.14	0.069
372.35	0.098
372.57	0.109
372.79	0.250
373.00	0.057
373.22	0.081
373.44	0.094
373.65	0.076
373.87	0.143
374.09	0.788
374.30	0.140
374.52	0.161
374.74	0.101
374.95	0.482
375.17	0.137
375.39	-0.000
375.60	0.172
375.82	0.306
376.04	0.146
376.25	0.150
376.47	0.095
376.68	0.230
376.90	0.138
377.12	0.318
377.33	0.179
377.55	0.436
377.77	0.194
377.98	0.304
378.20	0.155
378.42	0.167
378.63	0.223
378.85	-0.000
379.07	0.154
379.28	0.580
379.50	0.322
379.71	0.156
379.93	0.114
380.15	0.175
380.36	0.241
380.58	0.171
380.80	0.568
381.01	0.176
381.23	0.155
381.44	0.170
381.66	0.203
381.88	0.251
382.09	-0.102
382.31	0.160
382.53	0.159
382.74	-0.000
382.96	0.247
383.17	0.196
383.39	0.241
383.61	0.289
383.82	0.207
384.04	0.241
384.25	0.305
384.47	0.293
384.69	0.287
384.90	0.261
385.12	0.548
385.33	0.318
385.55	0.225
385.77	0.353
385.98	0.183
386.20	0.240
386.41	0.202
386.63	0.221
386.85	0.173
387.06	0.208
387.28	0.323
387.49	0.208
387.71	0.155
387.93	0.142
388.14	0.409
388.36	0.184
388.57	0.178
388.79	0.196
389.01	1.684
389.22	0.276
389.44	0.233
389.65	0.192
389.87	0.197
390.08	0.249
390.30	0.192
390.52	0.371
390.73	0.364
390.95	0.240
391.16	0.239
391.38	-0.000
391.59	0.259
391.81	0.217
392.03	0.214
392.24	0.256
392.46	0.202
392.67	0.183
392.89	0.250
393.10	0.370
393.32	0.263
393.53	0.282
393.75	0.182
393.97	0.211
394.18	0.285
394.40	0.242
394.61	0.239
394.83	0.217
395.04	0.248
395.26	0.162
395.47	0.243
395.69	0.200
395.91	0.231
396.12	0.285
396.34	0.273
396.55	0.185
396.77	0.280
396.98	0.966
397.20	0.328
397.41	0.372
397.63	0.285
397.84	0.260
398.06	0.240
398.27	0.239
398.49	0.254
398.71	0.203
398.92	0.243
399.14	0.297
399.35	0.362
399.57	0.363
399.78	0.249
400.00	0.245
400.21	0.305
400.43	0.254
400.64	0.258
400.86	0.601
401.07	0.319
401.29	0.273
401.50	0.285
401.72	0.410
401.93	0.257
402.15	0.303
402.36	0.265
402.58	0.226
402.79	0.259
403.01	0.425
403.22	0.324
403.44	0.224
403.65	0.359
403.87	0.382
404.08	0.311
404.30	0.502
404.51	0.291
404.73	0.345
404.94	0.302
405.16	0.304
405.37	0.244
405.59	0.425
405.80	0.281
406.02	0.333
406.23	0.340
406.45	0.379
406.66	0.389
406.88	0.266
407.09	0.411
407.31	0.331
407.52	0.393
407.74	0.330
407.95	0.391
408.17	0.363
408.38	0.379
408.60	0.257
408.81	0.407
409.03	0.319
409.24	0.319
409.45	0.372
409.67	0.356
409.88	0.324
410.10	0.399
410.31	0.336
410.53	0.329
410.74	0.450
410.96	0.448
411.17	0.479
411.39	0.371
411.60	0.352
411.82	0.394
412.03	0.375
412.24	0.367
412.46	0.552
412.67	0.448
412.89	0.442
413.10	0.452
413.32	0.414
413.53	0.470
413.75	0.481
413.96	0.355
414.17	0.467
414.39	0.469
414.60	0.381
414.82	0.472
415.03	0.368
415.25	0.394
415.46	0.281
415.68	0.383
415.89	0.649
416.10	0.549
416.32	0.328
416.53	0.401
416.75	0.388
416.96	0.463
417.18	0.401
417.39	0.384
417.60	0.388
417.82	0.546
418.03	0.475
418.25	0.403
418.46	0.413
418.67	0.374
418.89	0.397
419.10	0.410
419.32	0.529
419.53	0.491
419.75	0.431
419.96	0.386
420.17	0.474
420.39	0.444
420.60	0.464
420.82	0.576
421.03	0.471
421.24	0.391
421.46	0.428
421.67	0.475
421.89	0.417
422.10	0.451
422.31	0.441
422.53	0.605
422.74	0.463
422.96	0.368
423.17	0.409
423.38	0.498
423.60	0.431
423.81	0.525
424.03	0.449
424.24	0.486
424.45	0.478
424.67	0.486
424.88	0.432
425.09	0.465
425.31	0.431
425.52	0.443
425.74	0.487
425.95	0.527
426.16	0.424
426.38	0.484
426.59	0.447
426.80	0.511
427.02	0.527
427.23	0.430
427.45	0.546
427.66	0.536
427.87	0.432
428.09	0.465
428.30	0.512
428.51	0.503
428.73	0.544
428.94	0.491
429.15	0.480
429.37	0.456
429.58	0.469
429.79	0.435
430.01	0.510
430.22	0.503
430.44	0.513
430.65	0.465
430.86	0.493
431.08	0.483
431.29	0.443
431.50	0.502
431.72	0.644
431.93	0.546
432.14	0.427
432.36	0.471
432.57	0.479
432.78	0.496
433.00	0.457
433.21	0.453
433.42	0.552
433.64	0.498
433.85	0.565
434.06	0.470
434.28	0.492
434.49	0.505
434.70	0.511
434.92	0.519
435.13	0.545
435.34	0.550
435.56	0.514
435.77	0.513
435.98	0.625
436.20	0.538
436.41	0.471
436.62	0.466
436.83	0.521
437.05	0.575
437.26	0.513
437.47	0.465
437.69	0.500
437.90	0.474
438.11	0.470
438.33	0.508
438.54	0.527
438.75	0.648
438.97	0.638
439.18	0.499
439.39	0.520
439.60	0.553
439.82	0.529
440.03	0.497
440.24	0.686
440.46	0.537
440.67	0.517
440.88	0.542
441.10	0.513
441.31	0.509
441.52	0.548
441.73	0.614
441.95	0.557
442.16	0.513
442.37	0.740
442.58	0.502
442.80	0.489
443.01	0.620
443.22	0.579
443.44	0.498
443.65	0.584
443.86	0.575
444.07	0.604
444.29	0.543
444.50	0.670
444.71	0.533
444.92	0.501
445.14	0.620
445.35	0.645
445.56	0.523
445.78	0.601
445.99	0.595
446.20	0.526
446.41	0.582
446.63	0.575
446.84	0.550
447.05	0.552
447.26	0.645
447.48	0.563
447.69	0.537
447.90	0.602
448.11	0.546
448.33	0.564
448.54	0.583
448.75	0.602
448.96	0.617
449.18	0.645
449.39	0.583
449.60	0.568
449.81	0.667
450.03	0.594
450.24	0.633
450.45	0.605
450.66	0.597
450.87	0.616
451.09	0.583
451.30	0.561
451.51	0.609
451.72	0.623
451.94	0.631
452.15	0.672
452.36	0.575
452.57	0.589
452.78	0.589
453.00	0.604
453.21	0.575
453.42	0.554
453.63	0.616
453.85	0.600
454.06	0.596
454.27	0.688
454.48	0.630
454.69	0.585
454.91	0.637
455.12	0.569
455.33	0.632
455.54	0.646
455.75	0.629
455.97	0.651
456.18	0.639
456.39	0.641
456.60	0.658
456.81	0.619
457.03	0.625
457.24	0.624
457.45	0.687
457.66	0.651
457.87	0.618
458.09	0.630
458.30	0.569
458.51	0.655
458.72	0.674
458.93	0.678
459.15	0.605
459.36	0.648
459.57	0.660
459.78	0.689
459.99	0.630
460.20	0.605
460.42	0.662
460.63	0.630
460.84	0.620
461.05	0.630
461.26	0.675
461.47	0.619
461.69	0.658
461.90	0.686
462.11	0.656
462.32	0.692
462.53	0.649
462.74	0.713
462.96	0.638
463.17	0.633
463.38	0.661
463.59	0.729
463.80	0.630
464.01	0.646
464.23	0.702
464.44	0.682
464.65	0.685
464.86	0.702
465.07	0.710
465.28	0.686
465.49	0.705
465.71	0.676
465.92	0.705
466.13	0.740
466.34	0.695
466.55	0.734
466.76	0.701
466.97	0.720
467.19	0.713
467.40	0.738
467.61	0.735
467.82	0.680
468.03	0.667
468.24	0.719
468.45	0.742
468.66	0.725
468.88	0.731
469.09	0.734
469.30	0.763
469.51	0.712
469.72	0.739
469.93	0.720
470.14	0.700
470.35	0.759
470.57	0.721
470.78	0.679
470.99	0.768
471.20	0.725
471.41	0.700
471.62	0.736
471.83	0.717
472.04	0.736
472.25	0.765
472.47	0.713
472.68	0.717
472.89	0.726
473.10	0.756
473.31	0.717
473.52	0.757
473.73	0.771
473.94	0.721
474.15	0.739
474.36	0.742
474.57	0.758
474.79	0.741
475.00	0.740
475.21	0.728
475.42	0.787
475.63	0.731
475.84	0.755
476.05	0.757
476.26	0.736
476.47	0.755
476.68	0.786
476.89	0.742
477.10	0.776
477.32	0.770
477.53	0.805
477.74	0.751
477.95	0.779
478.16	0.745
478.37	0.780
478.58	0.782
478.79	0.794
479.00	0.788
479.21	0.760
479.42	0.788
479.63	0.792
479.84	0.767
480.05	0.766
480.26	0.782
480.47	0.792
480.69	0.790
480.90	0.768
481.11	0.763
481.32	0.805
481.53	0.767
481.74	0.801
481.95	0.778
482.16	0.791
482.37	0.796
482.58	0.775
482.79	0.787
483.00	0.808
483.21	0.773
483.42	0.759
483.63	0.811
483.84	0.828
484.05	0.818
484.26	0.798
484.47	0.798
484.68	0.773
484.89	0.780
485.10	0.813
485.31	0.798
485.52	0.802
485.73	0.802
485.94	0.826
486.15	0.791
486.37	0.802
486.58	0.779
486.79	0.787
487.00	0.819
487.21	0.813
487.42	0.809
487.63	0.812
487.84	0.824
488.05	0.820
488.26	0.796
488.47	0.802
488.68	0.821
488.89	0.807
489.10	0.804
489.31	0.810
489.52	0.830
489.73	0.811
489.94	0.832
490.15	0.804
490.36	0.831
490.57	0.801
490.78	0.791
490.99	0.817
491.20	0.866
491.41	0.838
491.62	0.802
491.83	0.821
492.04	0.818
492.25	0.823
492.45	0.823
492.66	0.840
492.87	0.830
493.08	0.824
493.29	0.816
493.50	0.811
493.71	0.818
493.92	0.817
494.13	0.828
494.34	0.838
494.55	0.842
494.76	0.862
494.97	0.855
495.18	0.833
495.39	0.842
495.60	0.808
495.81	0.808
496.02	0.821
496.23	0.817
496.44	0.837
496.65	0.832
496.86	0.837
497.07	0.855
497.28	0.855
497.49	0.825
497.70	0.826
497.91	0.839
498.12	0.828
498.32	0.855
498.53	0.845
498.74	0.836
498.95	0.853
499.16	0.824
499.37	0.826
499.58	0.830
499.79	0.848
500.00	0.845
500.21	0.863
500.42	0.830
500.63	0.830
500.84	0.841
501.05	0.829
501.26	0.846
501.46	0.870
501.67	0.846
501.88	0.848
502.09	0.831
502.30	0.835
502.51	0.867
502.72	0.838
502.93	0.848
503.14	0.863
503.35	0.846
503.56	0.844
503.77	0.864
503.97	0.850
504.18	0.850
504.39	0.875
504.60	0.857
504.81	0.875
505.02	0.870
505.23	0.872
505.44	0.860
505.65	0.864
505.86	0.852
506.07	0.894
506.27	0.868
506.48	0.871
506.69	0.861
506.90	0.873
507.11	0.870
507.32	0.855
507.53	0.859
507.74	0.855
507.95	0.863
508.15	0.866
508.36	0.869
508.57	0.876
508.78	0.865
508.99	0.866
509.20	0.849
509.41	0.864
509.62	0.855
509.82	0.854
510.03	0.859
510.24	0.860
510.45	0.875
510.66	0.868
510.87	0.866
511.08	0.841
511.29	0.866
511.49	0.853
511.70	0.883
511.91	0.841
512.12	0.839
512.33	0.860
512.54	0.871
512.75	0.859
512.95	0.876
513.16	0.869
513.37	0.853
513.58	0.877
513.79	0.854
514.00	0.856
514.20	0.869
514.41	0.862
514.62	0.842
514.83	0.867
515.04	0.861
515.25	0.847
515.46	0.855
515.66	0.856
515.87	0.862
516.08	0.842
516.29	0.858
516.50	0.846
516.71	0.841
516.91	0.845
517.12	0.854
517.33	0.845
517.54	0.838
517.75	0.840
517.95	0.850
518.16	0.860
518.37	0.840
518.58	0.842
518.79	0.825
519.00	0.845
519.20	0.852
519.41	0.835
519.62	0.848
519.83	0.854
520.04	0.830
520.24	0.828
520.45	0.831
520.66	0.846
520.87	0.822
521.08	0.820
521.28	0.823
521.49	0.833
521.70	0.814
521.91	0.823
522.12	0.810
522.32	0.824
522.53	0.812
522.74	0.805
522.95	0.811
523.16	0.813
523.36	0.820
523.57	0.808
523.78	0.805
523.99	0.808
524.20	0.803
524.40	0.812
524.61	0.815
524.82	0.799
525.03	0.803
525.23	0.802
525.44	0.790
525.65	0.788
525.86	0.801
526.06	0.782
526.27	0.783
526.48	0.789
526.69	0.776
526.90	0.779
527.10	0.800
527.31	0.770
527.52	0.765
527.73	0.760
527.93	0.767
528.14	0.771
528.35	0.763
528.56	0.762
528.76	0.757
528.97	0.750
529.18	0.744
529.39	0.744
529.59	0.746
529.80	0.765
530.01	0.747
530.22	0.746
530.42	0.726
530.63	0.738
530.84	0.723
531.05	0.731
531.25	0.734
531.46	0.728
531.67	0.713
531.88	0.725
532.08	0.721
532.29	0.717
532.50	0.711
532.70	0.706
532.91	0.699
533.12	0.700
533.33	0.717
533.53	0.696
533.74	0.694
533.95	0.698
534.15	0.691
534.36	0.690
534.57	0.678
534.78	0.679
534.98	0.686
535.19	0.665
535.40	0.667
535.60	0.679
535.81	0.665
536.02	0.667
536.23	0.662
536.43	0.663
536.64	0.655
536.85	0.660
537.05	0.666
537.26	0.650
537.47	0.652
537.67	0.644
537.88	0.640
538.09	0.645
538.30	0.637
538.50	0.630
538.71	0.637
538.92	0.628
539.12	0.624
539.33	0.621
539.54	0.621
539.74	0.623
539.95	0.617
540.16	0.615
540.36	0.608
540.57	0.608
540.78	0.603
540.98	0.601
541.19	0.599
541.40	0.591
541.60	0.598
541.81	0.594
542.02	0.594
542.22	0.587
542.43	0.583
542.64	0.580
542.84	0.580
543.05	0.573
543.26	0.574
543.46	0.576
543.67	0.575
543.88	0.572
544.08	0.564
544.29	0.560
544.50	0.560
544.70	0.560
544.91	0.552
545.12	0.553
545.32	0.550
545.53	0.553
545.74	0.543
545.94	0.541
546.15	0.539
546.35	0.537
546.56	0.534
546.77	0.532
546.97	0.530
547.18	0.524
547.39	0.524
547.59	0.523
547.80	0.520
548.01	0.523
548.21	0.520
548.42	0.513
548.62	0.512
548.83	0.510
549.04	0.507
549.24	0.501
549.45	0.501
549.65	0.499
549.86	0.496
550.07	0.495
550.27	0.493
550.48	0.500
550.69	0.489
550.89	0.490
551.10	0.487
551.30	0.485
551.51	0.485
551.72	0.477
551.92	0.478
552.13	0.478
552.33	0.479
552.54	0.475
552.75	0.469
552.95	0.470
553.16	0.467
553.36	0.465
553.57	0.464
553.78	0.462
553.98	0.462
554.19	0.454
554.39	0.452
554.60	0.455
554.80	0.454
555.01	0.448
555.22	0.449
555.42	0.447
555.63	0.442
555.83	0.445
556.04	0.440
556.25	0.442
556.45	0.435
556.66	0.433
556.86	0.436
557.07	0.434
557.27	0.433
557.48	0.428
557.68	0.426
557.89	0.427
558.10	0.424
558.30	0.422
558.51	0.421
558.71	0.420
558.92	0.416
559.12	0.418
559.33	0.421
559.54	0.416
559.74	0.413
559.95	0.412
560.15	0.412
560.36	0.411
560.56	0.406
560.77	0.406
560.97	0.406
561.18	0.401
561.38	0.401
561.59	0.403
561.79	0.400
562.00	0.398
562.21	0.395
562.41	0.394
562.62	0.393
562.82	0.391
563.03	0.388
563.23	0.388
563.44	0.388
563.64	0.385
563.85	0.386
564.05	0.380
564.26	0.380
564.46	0.379
564.67	0.380
564.87	0.376
565.08	0.374
565.28	0.374
565.49	0.374
565.69	0.372
565.90	0.369
566.10	0.372
566.31	0.367
566.51	0.369
566.72	0.370
566.92	0.365
567.13	0.365
567.33	0.364
567.54	0.363
567.74	0.362
567.95	0.358
568.15	0.359
568.36	0.358
568.56	0.358
568.77	0.352
568.97	0.351
569.18	0.350
569.38	0.349
569.59	0.350
569.79	0.348
570.00	0.346
570.20	0.344
570.41	0.343
570.61	0.342
570.82	0.343
571.02	0.339
571.23	0.341
571.43	0.338
571.64	0.337
571.84	0.336
572.05	0.335
572.25	0.335
572.45	0.334
572.66	0.331
572.86	0.330
573.07	0.329
573.27	0.329
573.48	0.328
573.68	0.325
573.89	0.324
574.09	0.324
574.30	0.323
574.50	0.321
574.70	0.321
574.91	0.319
575.11	0.319
575.32	0.319
575.52	0.316
575.73	0.316
575.93	0.316
576.14	0.315
576.34	0.314
576.54	0.313
576.75	0.311
576.95	0.311
577.16	0.309
577.36	0.308
577.57	0.308
577.77	0.307
577.97	0.304
578.18	0.306
578.38	0.303
578.59	0.301
578.79	0.300
579.00	0.301
579.20	0.299
579.40	0.298
579.61	0.298
579.81	0.296
580.02	0.294
580.22	0.294
580.42	0.293
580.63	0.294
580.83	0.293
581.04	0.291
581.24	0.291
581.45	0.290
581.65	0.290
581.85	0.289
582.06	0.287
582.26	0.287
582.47	0.286
582.67	0.286
582.87	0.285
583.08	0.283
583.28	0.283
583.48	0.281
583.69	0.279
583.89	0.279
584.10	0.281
584.30	0.279
584.50	0.277
584.71	0.277
584.91	0.276
585.12	0.274
585.32	0.275
585.52	0.273
585.73	0.272
585.93	0.272
586.13	0.271
586.34	0.270
586.54	0.270
586.75	0.268
586.95	0.267
587.15	0.268
587.36	0.267
587.56	0.266
587.76	0.265
587.97	0.265
588.17	0.263
588.37	0.263
588.58	0.263
588.78	0.260
588.98	0.261
589.19	0.260
589.39	0.258
589.60	0.260
589.80	0.257
590.00	0.257
590.21	0.257
590.41	0.255
590.61	0.255
590.82	0.255
591.02	0.254
591.22	0.253
591.43	0.254
591.63	0.252
591.83	0.252
592.04	0.250
592.24	0.251
592.44	0.248
592.65	0.247
592.85	0.247
593.05	0.247
593.26	0.245
593.46	0.245
593.66	0.245
593.86	0.244
594.07	0.243
594.27	0.243
594.47	0.241
594.68	0.241
594.88	0.242
595.08	0.241
595.29	0.242
595.49	0.240
595.69	0.239
595.90	0.239
596.10	0.239
596.30	0.238
596.50	0.237
596.71	0.238
596.91	0.237
597.11	0.236
597.32	0.236
597.52	0.235
597.72	0.235
597.93	0.235
598.13	0.233
598.33	0.233
598.53	0.232
598.74	0.232
598.94	0.231
599.14	0.230
599.35	0.231
599.55	0.230
599.75	0.229
599.95	0.228
600.16	0.229
600.36	0.227
600.56	0.227
600.76	0.226
600.97	0.225
601.17	0.225
601.37	0.225
601.58	0.224
601.78	0.224
601.98	0.223
602.18	0.222
602.39	0.222
602.59	0.222
602.79	0.221
602.99	0.221
603.20	0.220
603.40	0.220
603.60	0.220
603.80	0.219
604.01	0.219
604.21	0.218
604.41	0.218
604.61	0.217
604.82	0.216
605.02	0.216
605.22	0.216
605.42	0.216
605.62	0.215
605.83	0.214
606.03	0.213
606.23	0.214
606.43	0.213
606.64	0.213
606.84	0.212
607.04	0.212
607.24	0.212
607.45	0.212
607.65	0.211
607.85	0.212
608.05	0.210
608.25	0.209
608.46	0.209
608.66	0.209
608.86	0.209
609.06	0.208
609.26	0.207
609.47	0.208
609.67	0.207
609.87	0.208
610.07	0.207
610.28	0.206
610.48	0.206
610.68	0.206
610.88	0.205
611.08	0.206
611.29	0.204
611.49	0.204
611.69	0.204
611.89	0.202
612.09	0.202
612.29	0.202
612.50	0.201
612.70	0.202
612.90	0.201
613.10	0.200
613.30	0.199
613.51	0.200
613.71	0.199
613.91	0.203
614.11	0.198
614.31	0.198
614.51	0.197
614.72	0.197
614.92	0.196
615.12	0.196
615.32	0.197
615.52	0.196
615.72	0.197
615.93	0.196
616.13	0.195
616.33	0.195
616.53	0.195
616.73	0.195
616.93	0.194
617.14	0.195
617.34	0.194
617.54	0.194
617.74	0.194
617.94	0.193
618.14	0.193
618.34	0.193
618.55	0.192
618.75	0.193
618.95	0.193
619.15	0.193
619.35	0.191
619.55	0.191
619.75	0.192
619.96	0.190
620.16	0.191
620.36	0.190
620.56	0.189
620.76	0.189
620.96	0.189
621.16	0.189
621.36	0.188
621.57	0.188
621.77	0.188
621.97	0.187
622.17	0.187
622.37	0.187
622.57	0.187
622.77	0.187
622.97	0.186
623.18	0.186
623.38	0.186
623.58	0.186
623.78	0.186
623.98	0.185
624.18	0.184
624.38	0.184
624.58	0.184
624.78	0.184
624.98	0.184
625.19	0.184
625.39	0.183
625.59	0.182
625.79	0.182
625.99	0.181
626.19	0.181
626.39	0.181
626.59	0.181
626.79	0.181
626.99	0.182
627.19	0.182
627.40	0.182
627.60	0.182
627.80	0.182
628.00	0.182
628.20	0.181
628.40	0.181
628.60	0.180
628.80	0.179
629.00	0.179
629.20	0.178
629.40	0.178
629.60	0.177
629.80	0.177
630.00	0.177
630.20	0.177
630.41	0.176
630.61	0.176
630.81	0.177
631.01	0.177
631.21	0.176
631.41	0.177
631.61	0.177
631.81	0.177
632.01	0.176
632.21	0.176
632.41	0.174
632.61	0.174
632.81	0.174
633.01	0.174
633.21	0.174
633.41	0.174
633.61	0.173
633.81	0.173
634.01	0.172
634.21	0.172
634.41	0.171
634.61	0.172
634.81	0.171
635.01	0.171
635.22	0.171
635.42	0.170
635.62	0.170
635.82	0.170
636.02	0.170
636.22	0.169
636.42	0.169
636.62	0.170
636.82	0.170
637.02	0.169
637.22	0.170
637.42	0.169
637.62	0.168
637.82	0.169
638.02	0.167
638.22	0.167
638.42	0.167
638.62	0.166
638.82	0.166
639.02	0.166
639.22	0.166
639.42	0.165
639.62	0.165
639.82	0.164
640.02	0.164
640.22	0.165
640.42	0.164
640.62	0.164
640.82	0.164
641.02	0.163
641.22	0.164
641.42	0.163
641.61	0.164
641.81	0.163
642.01	0.163
642.21	0.163
642.41	0.163
642.61	0.163
642.81	0.162
643.01	0.162
643.21	0.162
643.41	0.162
643.61	0.161
643.81	0.161
644.01	0.160
644.21	0.160
644.41	0.160
644.61	0.160
644.81	0.160
645.01	0.159
645.21	0.159
645.41	0.159
645.61	0.159
645.81	0.158
646.01	0.158
646.21	0.159
646.40	0.158
646.60	0.158
646.80	0.158
647.00	0.158
647.20	0.157
647.40	0.157
647.60	0.157
647.80	0.156
648.00	0.156
648.20	0.156
648.40	0.156
648.60	0.155
648.80	0.155
649.00	0.155
649.20	0.156
649.39	0.155
649.59	0.154
649.79	0.154
649.99	0.154
650.19	0.154
650.39	0.153
650.59	0.153
650.79	0.153
650.99	0.152
651.19	0.151
651.39	0.151
651.58	0.151
651.78	0.151
651.98	0.150
652.18	0.151
652.38	0.150
652.58	0.151
652.78	0.150
652.98	0.150
653.18	0.150
653.38	0.150
653.57	0.150
653.77	0.150
653.97	0.150
654.17	0.149
654.37	0.148
654.57	0.149
654.77	0.148
654.97	0.148
655.16	0.148
655.36	0.148
655.56	0.147
655.76	0.146
655.96	0.147
656.16	0.146
656.36	0.146
656.56	0.145
656.75	0.146
656.95	0.145
657.15	0.145
657.35	0.144
657.55	0.144
657.75	0.144
657.95	0.144
658.14	0.143
658.34	0.144
658.54	0.143
658.74	0.143
658.94	0.142
659.14	0.142
659.34	0.142
659.53	0.141
659.73	0.141
659.93	0.141
660.13	0.141
660.33	0.141
660.53	0.141
660.72	0.141
660.92	0.141
661.12	0.141
661.32	0.141
661.52	0.140
661.72	0.140
661.91	0.140
662.11	0.140
662.31	0.140
662.51	0.140
662.71	0.139
662.90	0.138
663.10	0.138
663.30	0.138
663.50	0.138
663.70	0.137
663.90	0.137
664.09	0.137
664.29	0.136
664.49	0.136
664.69	0.136
664.89	0.136
665.08	0.136
665.28	0.135
665.48	0.135
665.68	0.134
665.88	0.134
666.07	0.134
666.27	0.134
666.47	0.134
666.67	0.134
666.87	0.134
667.06	0.133
667.26	0.133
667.46	0.132
667.66	0.132
667.85	0.132
668.05	0.132
668.25	0.132
668.45	0.132
668.65	0.132
668.84	0.132
669.04	0.131
669.24	0.131
669.44	0.130
669.63	0.130
669.83	0.131
670.03	0.130
670.23	0.129
670.42	0.129
670.62	0.129
670.82	0.128
671.02	0.128
671.22	0.128
671.41	0.128
671.61	0.128
671.81	0.128
672.01	0.128
672.20	0.128
672.40	0.127
672.60	0.127
672.80	0.127
672.99	0.126
673.19	0.126
673.39	0.125
673.58	0.125
673.78	0.125
673.98	0.124
674.18	0.124
674.37	0.124
674.57	0.123
674.77	0.124
674.97	0.124
675.16	0.124
675.36	0.123
675.56	0.123
675.75	0.123
675.95	0.122
676.15	0.123
676.35	0.123
676.54	0.123
676.74	0.122
676.94	0.123
677.13	0.122
677.33	0.121
677.53	0.121
677.73	0.121
677.92	0.120
678.12	0.120
678.32	0.120
678.51	0.120
678.71	0.120
678.91	0.119
679.11	0.119
679.30	0.119
679.50	0.119
679.70	0.119
679.89	0.119
680.09	0.119
680.29	0.118
680.48	0.118
680.68	0.117
680.88	0.117
681.07	0.118
681.27	0.117
681.47	0.116
681.66	0.117
681.86	0.116
682.06	0.116
682.25	0.116
682.45	0.116
682.65	0.116
682.84	0.115
683.04	0.115
683.24	0.115
683.43	0.115
683.63	0.115
683.83	0.115
684.02	0.114
684.22	0.114
684.42	0.114
684.61	0.114
684.81	0.113
685.01	0.114
685.20	0.113
685.40	0.113
685.60	0.112
685.79	0.112
685.99	0.113
686.19	0.112
686.38	0.112
686.58	0.112
686.77	0.112
686.97	0.112
687.17	0.111
687.36	0.111
687.56	0.111
687.76	0.111
687.95	0.111
688.15	0.111
688.34	0.111
688.54	0.110
688.74	0.110
688.93	0.110
689.13	0.110
689.33	0.110
689.52	0.110
689.72	0.110
689.91	0.109
690.11	0.109
690.31	0.108
690.50	0.108
690.70	0.108
690.89	0.108
691.09	0.108
691.29	0.108
691.48	0.107
691.68	0.107
691.87	0.107
692.07	0.107
692.27	0.107
692.46	0.107
692.66	0.106
692.85	0.106
693.05	0.106
693.25	0.106
693.44	0.105
693.64	0.105
693.83	0.105
694.03	0.105
694.22	0.104
694.42	0.104
694.62	0.104
694.81	0.105
695.01	0.105
695.20	0.104
695.40	0.104
695.59	0.104
695.79	0.103
695.99	0.103
696.18	0.103
696.38	0.103
696.57	0.103
696.77	0.103
696.96	0.103
697.16	0.102
697.36	0.102
697.55	0.102
697.75	0.102
697.94	0.102
698.14	0.102
698.33	0.101
698.53	0.101
698.72	0.101
698.92	0.101
699.11	0.101
699.31	0.101
699.51	0.101
699.70	0.100
699.90	0.100
700.09	0.100
700.29	0.100
700.48	0.100
700.68	0.099
700.87	0.099
701.07	0.099
701.26	0.098
701.46	0.098
701.65	0.099
701.85	0.098
702.04	0.098
702.24	0.098
702.43	0.098
702.63	0.098
702.82	0.098
703.02	0.098
703.21	0.098
703.41	0.098
703.60	0.098
703.80	0.098
703.99	0.097
704.19	0.098
704.38	0.097
704.58	0.096
704.77	0.096
704.97	0.096
705.16	0.096
705.36	0.096
705.55	0.096
705.75	0.095
705.94	0.095
706.14	0.095
706.33	0.095
706.53	0.096
706.72	0.096
706.92	0.095
707.11	0.095
707.31	0.095
707.50	0.095
707.70	0.095
707.89	0.095
708.09	0.095
708.28	0.095
708.48	0.095
708.67	0.094
708.86	0.095
709.06	0.095
709.25	0.095
709.45	0.094
709.64	0.094
709.84	0.094
710.03	0.094
710.23	0.094
710.42	0.093
710.62	0.093
710.81	0.093
711.00	0.093
711.20	0.092
711.39	0.092
711.59	0.092
711.78	0.092
711.98	0.092
712.17	0.092
712.37	0.092
712.56	0.092
712.75	0.092
712.95	0.093
713.14	0.093
713.34	0.093
713.53	0.093
713.73	0.093
713.92	0.093
714.11	0.093
714.31	0.093
714.50	0.093
714.70	0.093
714.89	0.092
715.08	0.092
715.28	0.092
715.47	0.091
715.67	0.091
715.86	0.091
716.06	0.091
716.25	0.091
716.44	0.091
716.64	0.091
716.83	0.090
717.03	0.090
717.22	0.090
717.41	0.090
717.61	0.089
717.80	0.090
717.99	0.090
718.19	0.090
718.38	0.090
718.58	0.089
718.77	0.089
718.96	0.089
719.16	0.089
719.35	0.089
719.55	0.088
719.74	0.089
719.93	0.088
720.13	0.088
720.32	0.088
720.51	0.088
720.71	0.088
720.90	0.088
721.10	0.088
721.29	0.087
721.48	0.087
721.68	0.088
721.87	0.088
722.06	0.087
722.26	0.088
722.45	0.088
722.64	0.088
722.84	0.088
723.03	0.088
723.22	0.088
723.42	0.088
723.61	0.088
723.80	0.088
724.00	0.088
724.19	0.088
724.38	0.088
724.58	0.088
724.77	0.088
724.96	0.088
725.16	0.088
725.35	0.088
725.54	0.088
725.74	0.088
725.93	0.088
726.12	0.088
726.32	0.088
726.51	0.088
726.70	0.088
726.90	0.088
727.09	0.088
727.28	0.088
727.48	0.088
727.67	0.088
727.86	0.088
728.06	0.088
728.25	0.088
728.44	0.088
728.64	0.088
728.83	0.088
729.02	0.088
729.21	0.088
729.41	0.087
729.60	0.087
729.79	0.087
729.99	0.087
730.18	0.087
730.37	0.087
730.56	0.087
730.76	0.086
730.95	0.086
731.14	0.086
731.34	0.086
731.53	0.086
731.72	0.086
731.91	0.087
732.11	0.087
732.30	0.087
732.49	0.087
732.69	0.087
732.88	0.087
733.07	0.087
733.26	0.087
733.46	0.086
733.65	0.087
733.84	0.086
734.03	0.086
734.23	0.086
734.42	0.086
734.61	0.086
734.80	0.086
735.00	0.086
735.19	0.086
735.38	0.086
735.57	0.087
735.77	0.087
735.96	0.087
736.15	0.087
736.34	0.087
736.54	0.087
736.73	0.087
736.92	0.087
737.11	0.087
737.31	0.086
737.50	0.087
737.69	0.087
737.88	0.086
738.07	0.086
738.27	0.086
738.46	0.086
738.65	0.086
738.84	0.086
739.04	0.086
739.23	0.086
739.42	0.086
739.61	0.086
739.80	0.086
740.00	0.086
740.19	0.086
740.38	0.086
740.57	0.085
740.76	0.085
740.96	0.085
741.15	0.085
741.34	0.085
741.53	0.085
741.72	0.085
741.92	0.085
742.11	0.085
742.30	0.085
742.49	0.085
742.68	0.085
742.88	0.085
743.07	0.085
743.26	0.085
743.45	0.085
743.64	0.085
743.84	0.084
744.03	0.085
744.22	0.085
744.41	0.084
744.60	0.084
744.79	0.084
744.99	0.084
745.18	0.084
745.37	0.084
745.56	0.084
745.75	0.084
745.94	0.083
746.14	0.083
746.33	0.083
746.52	0.083
746.71	0.083
746.90	0.082
747.09	0.083
747.28	0.082
747.48	0.082
747.67	0.082
747.86	0.082
748.05	0.082
748.24	0.082
748.43	0.082
748.62	0.082
748.82	0.082
749.01	0.082
749.20	0.082
749.39	0.082
749.58	0.082
749.77	0.082
749.96	0.082
750.16	0.082
750.35	0.082
750.54	0.082
750.73	0.082
750.92	0.082
751.11	0.082
751.30	0.082
751.49	0.082
751.68	0.082
751.88	0.082
752.07	0.082
752.26	0.082
752.45	0.082
752.64	0.082
752.83	0.082
753.02	0.081
753.21	0.081
753.40	0.081
753.60	0.081
753.79	0.081
753.98	0.081
754.17	0.081
754.36	0.080
754.55	0.081
754.74	0.081
754.93	0.081
755.12	0.081
755.31	0.081
755.50	0.081
755.70	0.080
755.89	0.080
756.08	0.080
756.27	0.080
756.46	0.080
756.65	0.079
756.84	0.079
757.03	0.079
757.22	0.078
757.41	0.078
757.60	0.078
757.79	0.079
757.98	0.079
758.17	0.078
758.36	0.078
758.56	0.078
758.75	0.078
758.94	0.078
759.13	0.078
759.32	0.079
759.51	0.079
759.70	0.079
759.89	0.079
760.08	0.079
760.27	0.079
760.46	0.079
760.65	0.079
760.84	0.079
761.03	0.079
761.22	0.079
761.41	0.079
761.60	0.078
761.79	0.078
761.98	0.078
762.17	0.078
762.36	0.077
762.55	0.077
762.74	0.077
762.93	0.077
763.12	0.077
763.31	0.077
763.50	0.077
763.69	0.077
763.88	0.077
764.07	0.077
764.26	0.077
764.45	0.077
764.64	0.077
764.83	0.077
765.02	0.077
765.21	0.077
765.40	0.077
765.59	0.077
765.78	0.077
765.97	0.077
766.16	0.077
766.35	0.077
766.54	0.077
766.73	0.078
766.92	0.077
767.11	0.077
767.30	0.078
767.49	0.078
767.68	0.078
767.87	0.077
768.06	0.078
768.25	0.077
768.44	0.077
768.63	0.077
768.82	0.076
769.01	0.076
769.20	0.076
769.39	0.076
769.58	0.076
769.77	0.076
769.96	0.075
770.15	0.075
770.34	0.075
770.53	0.074
770.72	0.074
770.91	0.074
771.10	0.075
771.29	0.075
771.47	0.074
771.66	0.074
771.85	0.074
772.04	0.074
772.23	0.074
772.42	0.074
772.61	0.074
772.80	0.074
772.99	0.074
773.18	0.074
773.37	0.075
773.56	0.075
773.75	0.075
773.94	0.075
774.13	0.074
774.31	0.074
774.50	0.074
774.69	0.074
774.88	0.075
775.07	0.075
775.26	0.074
775.45	0.074
775.64	0.074
775.83	0.074
776.02	0.073
776.21	0.074
776.40	0.074
776.58	0.074
776.77	0.074
776.96	0.074
777.15	0.074
777.34	0.074
777.53	0.075
777.72	0.074
777.91	0.074
778.10	0.074
778.28	0.074
778.47	0.075
778.66	0.074
778.85	0.074
779.04	0.074
779.23	0.074
779.42	0.073
779.61	0.073
779.79	0.073
779.98	0.073
780.17	0.073
780.36	0.072
780.55	0.072
780.74	0.072
780.93	0.072
781.12	0.072
781.30	0.072
781.49	0.072
781.68	0.072
781.87	0.072
782.06	0.072
782.25	0.072
782.44	0.072
782.62	0.072
782.81	0.072
783.00	0.072
783.19	0.073
783.38	0.072
783.57	0.072
783.75	0.072
783.94	0.072
784.13	0.072
784.32	0.072
784.51	0.071
784.70	0.072
784.88	0.071
785.07	0.071
785.26	0.071
785.45	0.071
785.64	0.071
785.83	0.071
786.01	0.071
786.20	0.071
786.39	0.071
786.58	0.071
786.77	0.071
786.95	0.071
787.14	0.071
787.33	0.071
787.52	0.071
787.71	0.071
787.90	0.071
788.08	0.070
788.27	0.070
788.46	0.070
788.65	0.071
788.84	0.071
789.02	0.071
789.21	0.071
789.40	0.071
789.59	0.070
789.77	0.071
789.96	0.071
790.15	0.071
790.34	0.071
790.53	0.071
790.71	0.070
790.90	0.070
791.09	0.070
791.28	0.070
791.46	0.070
791.65	0.070
791.84	0.070
792.03	0.070
792.22	0.070
792.40	0.070
792.59	0.070
792.78	0.070
792.97	0.070
793.15	0.070
793.34	0.070
793.53	0.070
793.72	0.069
793.90	0.069
794.09	0.069
794.28	0.069
794.47	0.070
794.65	0.069
794.84	0.069
795.03	0.070
795.22	0.070
795.40	0.070
795.59	0.070
795.78	0.070
795.97	0.070
796.15	0.070
796.34	0.070
796.53	0.070
796.71	0.070
796.90	0.070
797.09	0.070
797.28	0.069
797.46	0.069
797.65	0.069
797.84	0.069
798.02	0.069
798.21	0.069
798.40	0.068
798.59	0.068
798.77	0.068
798.96	0.068
799.15	0.068
799.33	0.068
799.52	0.068
799.71	0.068
799.90	0.068
800.08	0.068
800.27	0.067
800.46	0.067
800.64	0.068
800.83	0.068
801.02	0.068
801.20	0.068
801.39	0.067
801.58	0.067
801.76	0.067
801.95	0.068
802.14	0.068
802.32	0.068
802.51	0.068
802.70	0.068
802.88	0.067
803.07	0.068
803.26	0.067
803.44	0.067
803.63	0.067
803.82	0.067
804.00	0.067
804.19	0.067
804.38	0.068
804.56	0.068
804.75	0.068
804.94	0.068
805.12	0.068
805.31	0.068
805.50	0.068
805.68	0.068
805.87	0.068
806.06	0.068
806.24	0.068
806.43	0.067
806.62	0.067
806.80	0.068
806.99	0.068
807.17	0.068
807.36	0.068
807.55	0.068
807.73	0.068
807.92	0.068
808.11	0.068
808.29	0.067
808.48	0.067
808.66	0.067
808.85	0.067
809.04	0.067
809.22	0.066
809.41	0.066
809.59	0.066
809.78	0.066
809.97	0.066
810.15	0.066
810.34	0.066
810.53	0.066
810.71	0.066
810.90	0.066
811.08	0.066
811.27	0.066
811.45	0.066
811.64	0.066
811.83	0.066
812.01	0.066
812.20	0.067
812.38	0.067
812.57	0.067
812.76	0.067
812.94	0.067
813.13	0.067
813.31	0.067
813.50	0.067
813.68	0.067
813.87	0.067
814.06	0.067
814.24	0.067
814.43	0.067
814.61	0.067
814.80	0.066
814.98	0.067
815.17	0.066
815.36	0.066
815.54	0.066
815.73	0.066
815.91	0.066
816.10	0.066
816.28	0.066
816.47	0.066
816.65	0.066
816.84	0.066
817.03	0.066
817.21	0.066
817.40	0.066
817.58	0.066
817.77	0.066
817.95	0.066
818.14	0.066
818.32	0.067
818.51	0.067
818.69	0.067
818.88	0.066
819.06	0.066
819.25	0.066
819.43	0.066
819.62	0.067
819.80	0.067
819.99	0.067
820.18	0.067
820.36	0.067
820.55	0.067
820.73	0.067
820.92	0.067
821.10	0.067
821.29	0.067
821.47	0.067
821.66	0.067
821.84	0.067
822.03	0.067
822.21	0.066
822.40	0.066
822.58	0.067
822.77	0.067
822.95	0.067
823.14	0.067
823.32	0.067
823.50	0.068
823.69	0.068
823.87	0.068
824.06	0.068
824.24	0.068
824.43	0.068
824.61	0.068
824.80	0.068
824.98	0.068
825.17	0.068
825.35	0.068
825.54	0.068
825.72	0.068
825.91	0.068
826.09	0.068
826.28	0.068
826.46	0.069
826.64	0.069
826.83	0.068
827.01	0.068
827.20	0.068
827.38	0.068
827.57	0.069
827.75	0.069
827.94	0.069
828.12	0.070
828.31	0.069
828.49	0.069
828.67	0.069
828.86	0.069
829.04	0.069
829.23	0.069
829.41	0.070
829.60	0.069
829.78	0.070
829.96	0.070
830.15	0.070
830.33	0.071
830.52	0.071
830.70	0.071
830.88	0.071
831.07	0.071
831.25	0.071
831.44	0.071
831.62	0.071
831.81	0.071
831.99	0.071
832.17	0.071
832.36	0.071
832.54	0.072
832.73	0.072
832.91	0.072
833.09	0.072
833.28	0.072
833.46	0.072
833.65	0.072
833.83	0.072
834.01	0.073
834.20	0.072
834.38	0.072
834.56	0.072
834.75	0.072
834.93	0.072
835.12	0.072
835.30	0.073
835.48	0.073
835.67	0.072
835.85	0.073
836.03	0.072
836.22	0.072
836.40	0.073
836.59	0.073
836.77	0.073
836.95	0.073
837.14	0.073
837.32	0.073
837.50	0.073
837.69	0.073
837.87	0.073
838.05	0.073
838.24	0.073
838.42	0.073
838.60	0.073
838.79	0.074
838.97	0.073
839.15	0.074
839.34	0.074
839.52	0.074
839.70	0.074
839.89	0.074
840.07	0.074
840.25	0.075
840.44	0.074
840.62	0.074
840.80	0.074
840.99	0.075
841.17	0.074
841.35	0.074
841.54	0.074
841.72	0.074
841.90	0.074
842.09	0.074
842.27	0.074
842.45	0.074
842.64	0.074
842.82	0.074
843.00	0.074
843.19	0.074
843.37	0.073
843.55	0.073
843.73	0.073
843.92	0.073
844.10	0.073
844.28	0.073
844.47	0.073
844.65	0.073
844.83	0.074
845.01	0.074
845.20	0.074
845.38	0.074
845.56	0.075
845.75	0.074
845.93	0.074
846.11	0.074
846.29	0.075
846.48	0.075
846.66	0.075
846.84	0.074
847.02	0.074
847.21	0.073
847.39	0.074
847.57	0.074
847.76	0.074
847.94	0.074
848.12	0.074
848.30	0.074
848.49	0.074
848.67	0.074
848.85	0.074
849.03	0.075
849.22	0.075
849.40	0.075
849.58	0.075
849.76	0.075
849.95	0.075
850.13	0.075
850.31	0.075
850.49	0.075
850.67	0.075
850.86	0.075
851.04	0.075
851.22	0.074
851.40	0.075
851.59	0.074
851.77	0.075
851.95	0.075
852.13	0.075
852.31	0.075
852.50	0.075
852.68	0.075
852.86	0.075
853.04	0.075
853.23	0.075
853.41	0.075
853.59	0.075
853.77	0.074
853.95	0.075
854.14	0.075
854.32	0.074
854.50	0.074
854.68	0.074
854.86	0.074
855.04	0.074
855.23	0.074
855.41	0.075
855.59	0.075
855.77	0.075
855.95	0.076
856.14	0.075
856.32	0.075
856.50	0.076
856.68	0.076
856.86	0.076
857.04	0.075
857.23	0.075
857.41	0.075
857.59	0.075
857.77	0.075
857.95	0.074
858.13	0.074
858.32	0.075
858.50	0.075
858.68	0.074
858.86	0.074
859.04	0.075
859.22	0.074
859.41	0.074
859.59	0.074
859.77	0.075
859.95	0.075
860.13	0.075
860.31	0.075
860.49	0.075
860.68	0.075
860.86	0.075
861.04	0.075
861.22	0.075
861.40	0.076
861.58	0.076
861.76	0.076
861.94	0.076
862.13	0.076
862.31	0.075
862.49	0.076
862.67	0.076
862.85	0.076
863.03	0.077
863.21	0.077
863.39	0.077
863.57	0.077
863.76	0.077
863.94	0.077
864.12	0.077
864.30	0.077
864.48	0.077
864.66	0.077
864.84	0.077
865.02	0.077
865.20	0.077
865.38	0.077
865.57	0.077
865.75	0.077
865.93	0.077
866.11	0.077
866.29	0.077
866.47	0.077
866.65	0.077
866.83	0.077
867.01	0.077
867.19	0.077
867.37	0.077
867.55	0.077
867.73	0.077
867.92	0.076
868.10	0.077
868.28	0.077
868.46	0.077
868.64	0.076
868.82	0.076
869.00	0.077
869.18	0.077
869.36	0.077
869.54	0.077
869.72	0.077
869.90	0.077
870.08	0.077
870.26	0.077
870.44	0.077
870.62	0.077
870.80	0.077
870.98	0.077
871.16	0.077
871.34	0.077
871.53	0.077
871.71	0.076
871.89	0.076
872.07	0.077
872.25	0.076
872.43	0.077
872.61	0.077
872.79	0.077
872.97	0.078
873.15	0.078
873.33	0.078
873.51	0.079
873.69	0.079
873.87	0.079
874.05	0.079
874.23	0.079
874.41	0.079
874.59	0.079
874.77	0.078
874.95	0.078
875.13	0.078
875.31	0.078
875.49	0.078
875.67	0.078
875.85	0.078
876.03	0.078
876.21	0.079
876.39	0.078
876.57	0.078
876.75	0.079
876.93	0.079
877.11	0.079
877.29	0.078
877.47	0.078
877.65	0.079
877.82	0.079
878.00	0.079
878.18	0.079
878.36	0.079
878.54	0.079
878.72	0.079
878.90	0.079
879.08	0.079
879.26	0.079
879.44	0.080
879.62	0.079
879.80	0.079
879.98	0.079
880.16	0.079
880.34	0.079
880.52	0.080
880.70	0.080
880.88	0.080
881.06	0.080
881.24	0.079
881.42	0.079
881.59	0.079
881.77	0.079
881.95	0.079
882.13	0.079
882.31	0.079
882.49	0.079
882.67	0.080
882.85	0.080
883.03	0.080
883.21	0.080
883.39	0.079
883.57	0.080
883.75	0.080
883.92	0.080
884.10	0.080
884.28	0.080
884.46	0.080
884.64	0.080
884.82	0.080
885.00	0.080
885.18	0.080
885.36	0.081
885.54	0.081
885.71	0.081
885.89	0.081
886.07	0.081
886.25	0.081
886.43	0.081
886.61	0.081
886.79	0.081
886.97	0.081
887.15	0.081
887.32	0.081
887.50	0.082
887.68	0.081
887.86	0.081
888.04	0.082
888.22	0.082
888.40	0.082
888.57	0.082
888.75	0.082
888.93	0.082
889.11	0.081
889.29	0.081
889.47	0.082
889.65	0.081
889.82	0.082
890.00	0.082
890.18	0.082
890.36	0.082
890.54	0.082
890.72	0.082
890.90	0.082
891.07	0.082
891.25	0.082
891.43	0.082
891.61	0.082
891.79	0.082
891.97	0.082
892.14	0.082
892.32	0.082
892.50	0.082
892.68	0.082
892.86	0.082
893.03	0.082
893.21	0.082
893.39	0.083
893.57	0.083
893.75	0.082
893.93	0.083
894.10	0.083
894.28	0.083
894.46	0.083
894.64	0.083
894.82	0.083
894.99	0.083
895.17	0.083
895.35	0.083
895.53	0.083
895.71	0.083
895.88	0.083
896.06	0.083
896.24	0.083
896.42	0.083
896.59	0.083
896.77	0.083
896.95	0.083
897.13	0.083
897.31	0.083
897.48	0.083
897.66	0.083
897.84	0.083
898.02	0.083
898.19	0.083
898.37	0.083
898.55	0.083
898.73	0.083
898.91	0.083
899.08	0.083
899.26	0.083
899.44	0.084
899.62	0.084
899.79	0.084
899.97	0.084
900.15	0.084
900.33	0.084
900.50	0.084
900.68	0.084
900.86	0.084
901.04	0.084
901.21	0.084
901.39	0.084
901.57	0.084
901.74	0.084
901.92	0.084
902.10	0.085
902.28	0.085
902.45	0.085
902.63	0.085
902.81	0.085
902.99	0.085
903.16	0.085
903.34	0.085
903.52	0.085
903.69	0.085
903.87	0.085
904.05	0.085
904.22	0.086
904.40	0.086
904.58	0.086
904.76	0.086
904.93	0.086
905.11	0.086
905.29	0.086
905.46	0.086
905.64	0.086
905.82	0.086
905.99	0.086
906.17	0.086
906.35	0.086
906.53	0.086
906.70	0.086
906.88	0.086
907.06	0.086
907.23	0.086
907.41	0.086
907.59	0.086
907.76	0.086
907.94	0.086
908.12	0.086
908.29	0.087
908.47	0.087
908.65	0.087
908.82	0.087
909.00	0.087
909.18	0.088
909.35	0.088
909.53	0.087
909.71	0.088
909.88	0.088
910.06	0.087
910.23	0.087
910.41	0.088
910.59	0.087
910.76	0.087
910.94	0.087
911.12	0.087
911.29	0.087
911.47	0.088
911.65	0.088
911.82	0.088
912.00	0.088
912.17	0.088
912.35	0.088
912.53	0.089
912.70	0.089
912.88	0.089
913.06	0.089
913.23	0.089
913.41	0.089
913.58	0.089
913.76	0.090
913.94	0.090
914.11	0.090
914.29	0.090
914.46	0.090
914.64	0.090
914.82	0.091
914.99	0.091
915.17	0.090
915.34	0.091
915.52	0.091
915.70	0.091
915.87	0.091
916.05	0.091
916.22	0.091
916.40	0.091
916.57	0.091
916.75	0.091
916.93	0.091
917.10	0.091
917.28	0.091
917.45	0.091
917.63	0.091
917.80	0.091
917.98	0.092
918.16	0.092
918.33	0.092
918.51	0.093
918.68	0.093
918.86	0.093
919.03	0.093
919.21	0.094
919.39	0.094
919.56	0.095
919.74	0.095
919.91	0.095
920.09	0.095
920.26	0.095
920.44	0.095
920.61	0.095
920.79	0.096
920.96	0.095
921.14	0.096
921.31	0.096
921.49	0.096
921.67	0.096
921.84	0.096
922.02	0.096
922.19	0.096
922.37	0.096
922.54	0.097
922.72	0.097
922.89	0.097
923.07	0.097
923.24	0.097
923.42	0.097
923.59	0.098
923.77	0.098
923.94	0.099
924.12	0.099
924.29	0.100
924.47	0.100
924.64	0.100
924.82	0.101
924.99	0.101
925.17	0.102
925.34	0.102
925.52	0.102
925.69	0.102
925.87	0.103
926.04	0.103
926.22	0.103
926.39	0.103
926.57	0.104
926.74	0.104
926.91	0.104
927.09	0.105
927.26	0.104
927.44	0.105
927.61	0.106
927.79	0.106
927.96	0.106
928.14	0.106
928.31	0.106
928.49	0.107
928.66	0.108
928.84	0.108
929.01	0.108
929.18	0.109
929.36	0.109
929.53	0.110
929.71	0.110
929.88	0.111
930.06	0.111
930.23	0.112
930.41	0.112
930.58	0.112
930.75	0.112
930.93	0.113
931.10	0.113
931.28	0.113
931.45	0.114
931.63	0.114
931.80	0.114
931.97	0.115
932.15	0.116
932.32	0.116
932.50	0.116
932.67	0.117
932.84	0.117
933.02	0.118
933.19	0.118
933.37	0.119
933.54	0.120
933.71	0.120
933.89	0.121
934.06	0.121
934.24	0.122
934.41	0.122
934.58	0.123
934.76	0.123
934.93	0.123
935.11	0.123
935.28	0.124
935.45	0.124
935.63	0.124
935.80	0.125
935.98	0.125
936.15	0.125
936.32	0.126
936.50	0.126
936.67	0.127
936.84	0.127
937.02	0.128
937.19	0.129
937.36	0.129
937.54	0.130
937.71	0.131
937.89	0.131
938.06	0.132
938.23	0.132
938.41	0.133
938.58	0.133
938.75	0.134
938.93	0.134
939.10	0.134
939.27	0.135
939.45	0.136
939.62	0.136
939.79	0.136
939.97	0.137
940.14	0.138
940.31	0.138
940.49	0.139
940.66	0.140
940.83	0.140
941.01	0.141
941.18	0.143
941.35	0.143
941.53	0.144
941.70	0.144
941.87	0.145
942.05	0.145
942.22	0.146
942.39	0.147
942.57	0.147
942.74	0.148
942.91	0.148
943.08	0.149
943.26	0.149
943.43	0.150
943.60	0.151
943.78	0.151
943.95	0.152
944.12	0.152
944.29	0.153
944.47	0.154
944.64	0.155
944.81	0.156
944.99	0.156
945.16	0.157
945.33	0.157
945.50	0.158
945.68	0.159
945.85	0.159
946.02	0.161
946.20	0.162
946.37	0.163
946.54	0.163
946.71	0.164
946.89	0.165
947.06	0.166
947.23	0.167
947.40	0.168
947.58	0.168
947.75	0.170
947.92	0.170
948.09	0.171
948.27	0.172
948.44	0.174
948.61	0.175
948.78	0.176
948.96	0.177
949.13	0.178
949.30	0.179
949.47	0.180
949.65	0.181
949.82	0.183
949.99	0.183
950.16	0.185
950.33	0.185
950.51	0.186
950.68	0.187
950.85	0.188
951.02	0.190
951.20	0.191
951.37	0.192
951.54	0.193
951.71	0.194
951.88	0.195
952.06	0.197
952.23	0.197
952.40	0.199
952.57	0.201
952.74	0.202
952.92	0.202
953.09	0.204
953.26	0.205
953.43	0.206
953.60	0.207
953.77	0.208
953.95	0.209
954.12	0.211
954.29	0.211
954.46	0.214
954.63	0.215
954.81	0.216
954.98	0.217
955.15	0.219
955.32	0.220
955.49	0.220
955.66	0.222
955.84	0.223
956.01	0.224
956.18	0.226
956.35	0.227
956.52	0.227
956.69	0.229
956.87	0.229
957.04	0.230
957.21	0.232
957.38	0.232
957.55	0.234
957.72	0.235
957.89	0.236
958.07	0.235
958.24	0.238
958.41	0.239
958.58	0.239
958.75	0.240
958.92	0.241
959.09	0.241
959.26	0.242
959.44	0.242
959.61	0.243
959.78	0.244
959.95	0.246
960.12	0.246
960.29	0.248
960.46	0.247
960.63	0.248
960.81	0.248
960.98	0.249
961.15	0.249
961.32	0.250
961.49	0.250
961.66	0.251
961.83	0.251
962.00	0.251
962.17	0.252
962.34	0.251
962.52	0.252
962.69	0.253
962.86	0.253
963.03	0.253
963.20	0.254
963.37	0.253
963.54	0.254
963.71	0.254
963.88	0.254
964.05	0.254
964.22	0.256
964.39	0.254
964.56	0.255
964.74	0.256
964.91	0.256
965.08	0.256
965.25	0.256
965.42	0.257
965.59	0.258
965.76	0.258
965.93	0.259
966.10	0.258
966.27	0.259
966.44	0.259
966.61	0.260
966.78	0.259
966.95	0.259
967.12	0.260
967.29	0.262
967.46	0.261
967.63	0.261
967.80	0.261
967.97	0.261
968.14	0.260
968.32	0.261
968.49	0.261
968.66	0.261
968.83	0.261
969.00	0.261
969.17	0.261
969.34	0.262
969.51	0.263
969.68	0.261
969.85	0.261
970.02	0.262
970.19	0.261
970.36	0.262
970.53	0.262
970.70	0.261
970.87	0.262
971.04	0.261
971.21	0.262
971.38	0.262
971.55	0.263
971.72	0.264
971.89	0.264
972.06	0.264
972.23	0.264
972.40	0.264
972.57	0.263
972.74	0.262
972.91	0.263
973.07	0.263
973.24	0.263
973.41	0.263
973.58	0.261
973.75	0.273
973.92	0.261
974.09	0.261
974.26	0.261
974.43	0.259
974.60	0.261
974.77	0.261
974.94	0.260
975.11	0.261
975.28	0.262
975.45	0.261
975.62	0.262
975.79	0.264
975.96	0.262
976.13	0.261
976.30	0.264
976.47	0.262
976.64	0.262
976.80	0.263
976.97	0.263
977.14	0.262
977.31	0.262
977.48	0.263
977.65	0.262
977.82	0.260
977.99	0.262
978.16	0.261
978.33	0.261
978.50	0.261
978.67	0.260
978.83	0.260
979.00	0.260
979.17	0.260
979.34	0.259
979.51	0.259
979.68	0.260
979.85	0.259
980.02	0.259
980.19	0.257
980.36	0.258
980.52	0.260
980.69	0.258
980.86	0.258
981.03	0.258
981.20	0.256
981.37	0.257
981.54	0.257
981.71	0.256
981.88	0.257
982.04	0.257
982.21	0.256
982.38	0.257
982.55	0.256
982.72	0.255
982.89	0.257
983.06	0.255
983.22	0.255
983.39	0.256
983.56	0.255
983.73	0.254
983.90	0.253
984.07	0.255
984.24	0.253
984.40	0.253
984.57	0.252
984.74	0.254
984.91	0.254
985.08	0.252
985.25	0.249
985.41	0.251
985.58	0.251
985.75	0.252
985.92	0.251
986.09	0.249
986.26	0.249
986.42	0.248
986.59	0.247
986.76	0.248
986.93	0.249
987.10	0.249
987.27	0.247
987.43	0.246
987.60	0.248
987.77	0.248
987.94	0.247
988.11	0.247
988.27	0.247
988.44	0.246
988.61	0.245
988.78	0.243
988.95	0.244
989.11	0.246
989.28	0.244
989.45	0.243
989.62	0.243
989.79	0.243
989.95	0.242
990.12	0.244
990.29	0.245
990.46	0.243
990.62	0.242
990.79	0.242
990.96	0.242
991.13	0.242
991.30	0.241
991.46	0.240
991.63	0.238
991.80	0.237
991.97	0.237
992.13	0.237
992.30	0.238
992.47	0.236
992.64	0.236
992.80	0.235
992.97	0.236
993.14	0.233
993.31	0.231
993.47	0.234
993.64	0.232
993.81	0.232
993.98	0.233
994.14	0.231
994.31	0.231
994.48	0.232
994.64	0.232
994.81	0.231
994.98	0.231
995.15	0.229
995.31	0.229
995.48	0.228
995.65	0.230
995.82	0.227
995.98	0.227
996.15	0.228
996.32	0.230
996.48	0.228
996.65	0.227
996.82	0.225
996.99	0.225
997.15	0.225
997.32	0.226
997.49	0.224
997.65	0.225
997.82	0.224
997.99	0.222
998.15	0.222
998.32	0.223
998.49	0.222
998.65	0.223
998.82	0.222
998.99	0.220
999.15	0.220
999.32	0.220
999.49	0.219
999.65	0.220
999.82	0.218
999.99	0.218
1000.15	0.218
1000.32	0.218
1000.49	0.218
1000.65	0.217
1000.82	0.216
1000.99	0.218
1001.15	0.217
1001.32	0.216
1001.49	0.216
1001.65	0.216
1001.82	0.218
1001.99	0.214
1002.15	0.213
1002.32	0.214
1002.49	0.215
1002.65	0.213
1002.82	0.211
1002.99	0.210
1003.15	0.213
1003.32	0.212
1003.48	0.212
1003.65	0.211
1003.82	0.210
1003.98	0.207
1004.15	0.207
1004.32	0.207
1004.48	0.207
1004.65	0.208
1004.81	0.206
1004.98	0.205
1005.15	0.206
1005.31	0.206
1005.48	0.204
1005.64	0.205
1005.81	0.208
1005.98	0.205
1006.14	0.204
1006.31	0.204
1006.47	0.203
1006.64	0.202
1006.81	0.201
1006.97	0.200
1007.14	0.199
1007.30	0.200
1007.47	0.200
1007.63	0.197
1007.80	0.195
1007.97	0.196
1008.13	0.197
1008.30	0.196
1008.46	0.196
1008.63	0.194
1008.79	0.195
1008.96	0.195
1009.13	0.196
1009.29	0.193
1009.46	0.193
1009.62	0.193
1009.79	0.191
1009.95	0.191
1010.12	0.192
1010.28	0.193
1010.45	0.191
1010.62	0.190
1010.78	0.188
1010.95	0.187
1011.11	0.188
1011.28	0.187
1011.44	0.189
1011.61	0.187
1011.77	0.186
1011.94	0.187
1012.10	0.187
1012.27	0.187
1012.43	0.187
1012.60	0.186
1012.76	0.187
1012.93	0.186
1013.10	0.185
1013.26	0.182
1013.43	0.184
1013.59	0.191
1013.76	0.183
1013.92	0.181
1014.09	0.180
1014.25	0.181
1014.42	0.182
1014.58	0.182
1014.75	0.184
1014.91	0.182
1015.08	0.184
1015.24	0.181
1015.41	0.183
1015.57	0.183
1015.73	0.182
1015.90	0.180
1016.06	0.182
1016.23	0.181
1016.39	0.181
1016.56	0.181
1016.72	0.180
1016.89	0.179
1017.05	0.181
1017.22	0.177
1017.38	0.178
1017.55	0.177
1017.71	0.178
1017.88	0.176
1018.04	0.177
1018.21	0.175
1018.37	0.175
1018.53	0.174
1018.70	0.173
1018.86	0.172
1019.03	0.175
1019.19	0.172
1019.36	0.171
1019.52	0.173
1019.69	0.174
1019.85	0.173
1020.01	0.173
1020.18	0.171
1020.34	0.172
1020.51	0.171
1020.67	0.172
1020.84	0.170
1021.00	0.171
1021.16	0.169
1021.33	0.168
1021.49	0.167
1021.66	0.167
1021.82	0.165
1021.98	0.166
1022.15	0.165
1022.31	0.164
1022.48	0.163
1022.64	0.164
1022.80	0.163
1022.97	0.161
1023.13	0.161
1023.30	0.162
1023.46	0.163
1023.62	0.161
1023.79	0.162
1023.95	0.162
1024.12	0.161
1024.28	0.160
1024.44	0.161
1024.61	0.160
1024.77	0.160
1024.93	0.160
1025.10	0.161
1025.26	0.158
1025.43	0.158
1025.59	0.154
1025.75	0.157
1025.92	0.157
1026.08	0.157
1026.24	0.156
1026.41	0.157
1026.57	0.156
1026.73	0.153
1026.90	0.155
1027.06	0.154
1027.23	0.156
1027.39	0.156
1027.55	0.155
1027.72	0.153
1027.88	0.152
1028.04	0.152
1028.21	0.152
1028.37	0.147
1028.53	0.152
1028.70	0.150
1028.86	0.148
1029.02	0.148
1029.19	0.149
1029.35	0.147
1029.51	0.147
1029.67	0.147
1029.84	0.149
1030.00	0.144
1030.16	0.144
1030.33	0.147
1030.49	0.145
1030.65	0.143
1030.82	0.159
1030.98	0.146
1031.14	0.148
1031.31	0.148
1031.47	0.145
1031.63	0.148
1031.79	0.146
1031.96	0.148
1032.12	0.149
1032.28	0.146
1032.45	0.150
1032.61	0.148
1032.77	0.146
1032.93	0.144
1033.10	0.144
1033.26	0.147
1033.42	0.145
1033.58	0.147
1033.75	0.146
1033.91	0.143
1034.07	0.145
1034.24	0.143
1034.40	0.141
1034.56	0.140
1034.72	0.141
1034.89	0.141
1035.05	0.138
1035.21	0.138
1035.37	0.136
1035.54	0.139
1035.70	0.137
1035.86	0.137
1036.02	0.138
1036.19	0.136
1036.35	0.134
1036.51	0.138
1036.67	0.136
1036.83	0.136
1037.00	0.135
1037.16	0.136
1037.32	0.135
1037.48	0.135
1037.65	0.140
1037.81	0.136
1037.97	0.136
1038.13	0.136
1038.29	0.134
1038.46	0.131
1038.62	0.136
1038.78	0.133
1038.94	0.131
1039.10	0.136
1039.27	0.132
1039.43	0.133
1039.59	0.132
1039.75	0.133
1039.91	0.132
1040.08	0.131
1040.24	0.133
1040.40	0.134
1040.56	0.132
1040.72	0.125
1040.89	0.127
1041.05	0.129
1041.21	0.128
1041.37	0.127
1041.53	0.132
1041.69	0.129
1041.86	0.129
1042.02	0.126
1042.18	0.126
1042.34	0.128
1042.50	0.133
1042.66	0.130
1042.83	0.129
1042.99	0.131
1043.15	0.126
1043.31	0.126
1043.47	0.131
1043.63	0.128
1043.79	0.128
1043.96	0.129
1044.12	0.134
1044.28	0.131
1044.44	0.132
1044.60	0.127
1044.76	0.126
1044.92	0.130
1045.09	0.132
1045.25	0.126
1045.41	0.128
1045.57	0.123
1045.73	0.122
1045.89	0.121
1046.05	0.123
1046.21	0.131
1046.38	0.120
1046.54	0.119
1046.70	0.121
1046.86	0.124
>>>>>End Processed Spectral Data<<<<<
