SpectraSuite Data File
++++++++++++++++++++++++++++++++++++
Date: Mon May 20 12:13:21 CDT 2013
User: Students
Dark Spectrum Present: Yes
Reference Spectrum Present: Yes
Number of Sampled Component Spectra: 1
Spectrometers: USB4H00887
Integration Time (usec): 60000 (USB4H00887)
Spectra Averaged: 5 (USB4H00887)
Boxcar Smoothing: 5 (USB4H00887)
Correct for Electrical Dark: No (USB4H00887)
Strobe/Lamp Enabled: No (USB4H00887)
Correct for Detector Non-linearity: No (USB4H00887)
Correct for Stray Light: No (USB4H00887)
Number of Pixels in Processed Spectrum: 3648
>>>>>Begin Processed Spectral Data<<<<<
345.83	0.262
346.05	0.262
346.26	0.262
346.48	-0.000
346.70	-0.110
346.92	0.090
347.14	0.086
347.35	0.080
347.57	0.921
347.79	-0.322
348.01	-0.211
348.23	-0.310
348.44	-0.000
348.66	0.195
348.88	-0.228
349.10	-0.044
349.32	0.010
349.53	0.049
349.75	0.083
349.97	0.066
350.19	0.102
350.41	0.107
350.62	-0.306
350.84	0.037
351.06	0.038
351.28	0.032
351.50	0.027
351.71	0.010
351.93	-0.027
352.15	-0.003
352.37	-0.013
352.58	0.017
352.80	0.029
353.02	0.008
353.24	0.028
353.46	0.108
353.67	-0.078
353.89	0.051
354.11	0.054
354.33	0.063
354.54	0.126
354.76	0.258
354.98	0.320
355.20	0.253
355.41	0.125
355.63	0.249
355.85	0.110
356.07	-0.000
356.28	0.089
356.50	0.179
356.72	0.061
356.94	0.123
357.15	0.142
357.37	-0.000
357.59	0.072
357.81	0.018
358.02	0.050
358.24	0.048
358.46	0.026
358.68	0.001
358.89	-0.005
359.11	-0.584
359.33	-0.004
359.55	0.081
359.76	0.009
359.98	0.030
360.20	0.063
360.42	0.056
360.63	0.060
360.85	0.110
361.07	0.601
361.29	0.101
361.50	0.341
361.72	0.120
361.94	0.490
362.15	0.165
362.37	0.084
362.59	0.088
362.81	0.120
363.02	0.168
363.24	0.231
363.46	0.129
363.68	0.163
363.89	0.115
364.11	0.145
364.33	0.189
364.54	0.133
364.76	0.169
364.98	0.186
365.20	0.203
365.41	0.146
365.63	0.206
365.85	0.146
366.06	0.509
366.28	0.513
366.50	0.300
366.71	0.111
366.93	0.159
367.15	0.142
367.37	0.128
367.58	0.195
367.80	0.211
368.02	0.527
368.23	0.147
368.45	0.145
368.67	0.114
368.88	0.130
369.10	-0.000
369.32	0.117
369.53	0.075
369.75	0.100
369.97	0.146
370.19	0.099
370.40	0.050
370.62	0.095
370.84	0.037
371.05	0.225
371.27	0.064
371.49	0.099
371.70	0.123
371.92	0.170
372.14	0.076
372.35	0.098
372.57	0.098
372.79	0.305
373.00	0.093
373.22	0.161
373.44	0.145
373.65	0.114
373.87	0.157
374.09	0.559
374.30	0.118
374.52	0.161
374.74	0.106
374.95	0.485
375.17	0.115
375.39	-0.000
375.60	0.106
375.82	0.182
376.04	0.082
376.25	0.086
376.47	0.055
376.68	0.142
376.90	0.084
377.12	0.227
377.33	0.121
377.55	0.286
377.77	0.151
377.98	0.269
378.20	0.160
378.42	0.176
378.63	0.249
378.85	-0.000
379.07	0.149
379.28	0.474
379.50	0.257
379.71	0.147
379.93	0.097
380.15	0.138
380.36	0.194
380.58	0.128
380.80	0.345
381.01	0.114
381.23	0.108
381.44	0.118
381.66	0.144
381.88	0.172
382.09	-0.080
382.31	0.133
382.53	0.136
382.74	0.636
382.96	0.177
383.17	0.148
383.39	0.208
383.61	0.252
383.82	0.199
384.04	0.243
384.25	0.327
384.47	0.301
384.69	0.280
384.90	0.254
385.12	0.589
385.33	0.354
385.55	0.274
385.77	0.395
385.98	0.200
386.20	0.272
386.41	0.231
386.63	0.244
386.85	0.207
387.06	0.253
387.28	0.419
387.49	0.275
387.71	0.199
387.93	0.179
388.14	0.591
388.36	0.236
388.57	0.215
388.79	0.246
389.01	-0.000
389.22	0.333
389.44	0.265
389.65	0.223
389.87	0.217
390.08	0.263
390.30	0.197
390.52	0.421
390.73	0.396
390.95	0.279
391.16	0.263
391.38	-0.000
391.59	0.286
391.81	0.261
392.03	0.242
392.24	0.279
392.46	0.230
392.67	0.209
392.89	0.277
393.10	0.418
393.32	0.281
393.53	0.327
393.75	0.208
393.97	0.242
394.18	0.325
394.40	0.272
394.61	0.292
394.83	0.244
395.04	0.270
395.26	0.180
395.47	0.294
395.69	0.241
395.91	0.260
396.12	0.324
396.34	0.323
396.55	0.210
396.77	0.310
396.98	1.305
397.20	0.385
397.41	0.468
397.63	0.327
397.84	0.281
398.06	0.271
398.27	0.272
398.49	0.306
398.71	0.216
398.92	0.274
399.14	0.373
399.35	0.488
399.57	0.457
399.78	0.296
400.00	0.290
400.21	0.361
400.43	0.272
400.64	0.293
400.86	0.643
401.07	0.375
401.29	0.327
401.50	0.353
401.72	0.509
401.93	0.319
402.15	0.400
402.36	0.379
402.58	0.313
402.79	0.366
403.01	0.646
403.22	0.479
403.44	0.313
403.65	0.506
403.87	0.546
404.08	0.418
404.30	0.757
404.51	0.376
404.73	0.460
404.94	0.389
405.16	0.405
405.37	0.314
405.59	0.615
405.80	0.352
406.02	0.435
406.23	0.436
406.45	0.489
406.66	0.513
406.88	0.310
407.09	0.460
407.31	0.364
407.52	0.458
407.74	0.374
407.95	0.449
408.17	0.432
408.38	0.453
408.60	0.293
408.81	0.512
409.03	0.377
409.24	0.400
409.45	0.475
409.67	0.457
409.88	0.387
410.10	0.496
410.31	0.405
410.53	0.372
410.74	0.517
410.96	0.505
411.17	0.524
411.39	0.400
411.60	0.365
411.82	0.422
412.03	0.405
412.24	0.397
412.46	0.581
412.67	0.481
412.89	0.477
413.10	0.474
413.32	0.435
413.53	0.486
413.75	0.509
413.96	0.385
414.17	0.512
414.39	0.524
414.60	0.430
414.82	0.579
415.03	0.442
415.25	0.506
415.46	0.352
415.68	0.515
415.89	1.163
416.10	0.843
416.32	0.424
416.53	0.514
416.75	0.476
416.96	0.574
417.18	0.479
417.39	0.441
417.60	0.436
417.82	0.625
418.03	0.528
418.25	0.435
418.46	0.445
418.67	0.409
418.89	0.433
419.10	0.456
419.32	0.610
419.53	0.555
419.75	0.482
419.96	0.431
420.17	0.537
420.39	0.508
420.60	0.529
420.82	0.653
421.03	0.518
421.24	0.436
421.46	0.484
421.67	0.533
421.89	0.464
422.10	0.503
422.31	0.503
422.53	0.721
422.74	0.523
422.96	0.415
423.17	0.470
423.38	0.592
423.60	0.494
423.81	0.628
424.03	0.544
424.24	0.603
424.45	0.600
424.67	0.588
424.88	0.522
425.09	0.575
425.31	0.525
425.52	0.558
425.74	0.637
425.95	0.706
426.16	0.536
426.38	0.613
426.59	0.569
426.80	0.659
427.02	0.708
427.23	0.534
427.45	0.709
427.66	0.699
427.87	0.525
428.09	0.555
428.30	0.617
428.51	0.596
428.73	0.660
428.94	0.575
429.15	0.555
429.37	0.520
429.58	0.562
429.79	0.515
430.01	0.627
430.22	0.629
430.44	0.644
430.65	0.570
430.86	0.621
431.08	0.615
431.29	0.555
431.50	0.665
431.72	0.931
431.93	0.725
432.14	0.533
432.36	0.582
432.57	0.591
432.78	0.611
433.00	0.562
433.21	0.550
433.42	0.679
433.64	0.594
433.85	0.678
434.06	0.545
434.28	0.568
434.49	0.591
434.70	0.599
434.92	0.611
435.13	0.661
435.34	0.670
435.56	0.630
435.77	0.624
435.98	0.814
436.20	0.670
436.41	0.573
436.62	0.565
436.83	0.643
437.05	0.729
437.26	0.640
437.47	0.567
437.69	0.630
437.90	0.580
438.11	0.573
438.33	0.632
438.54	0.658
438.75	0.857
438.97	0.833
439.18	0.616
439.39	0.652
439.60	0.713
439.82	0.667
440.03	0.605
440.24	0.908
440.46	0.664
440.67	0.627
440.88	0.680
441.10	0.632
441.31	0.637
441.52	0.692
441.73	0.780
441.95	0.680
442.16	0.624
442.37	1.016
442.58	0.615
442.80	0.599
443.01	0.809
443.22	0.725
443.44	0.613
443.65	0.729
443.86	0.735
444.07	0.783
444.29	0.670
444.50	0.859
444.71	0.648
444.92	0.607
445.14	0.777
445.35	0.801
445.56	0.624
445.78	0.735
445.99	0.738
446.20	0.629
446.41	0.716
446.63	0.723
446.84	0.687
447.05	0.688
447.26	0.828
447.48	0.710
447.69	0.676
447.90	0.775
448.11	0.681
448.33	0.699
448.54	0.716
448.75	0.748
448.96	0.758
449.18	0.800
449.39	0.711
449.60	0.694
449.81	0.833
450.03	0.724
450.24	0.796
450.45	0.756
450.66	0.744
450.87	0.783
451.09	0.723
451.30	0.695
451.51	0.778
451.72	0.788
451.94	0.805
452.15	0.888
452.36	0.731
452.57	0.750
452.78	0.745
453.00	0.776
453.21	0.734
453.42	0.711
453.63	0.820
453.85	0.780
454.06	0.775
454.27	0.924
454.48	0.811
454.69	0.727
454.91	0.804
455.12	0.703
455.33	0.798
455.54	0.805
455.75	0.773
455.97	0.803
456.18	0.788
456.39	0.794
456.60	0.825
456.81	0.755
457.03	0.770
457.24	0.763
457.45	0.850
457.66	0.791
457.87	0.752
458.09	0.773
458.30	0.682
458.51	0.815
458.72	0.842
458.93	0.858
459.15	0.747
459.36	0.812
459.57	0.840
459.78	0.892
459.99	0.790
460.20	0.749
460.42	0.838
460.63	0.787
460.84	0.771
461.05	0.791
461.26	0.852
461.47	0.773
461.69	0.828
461.90	0.870
462.11	0.825
462.32	0.895
462.53	0.817
462.74	0.925
462.96	0.797
463.17	0.785
463.38	0.828
463.59	0.946
463.80	0.779
464.01	0.799
464.23	0.889
464.44	0.846
464.65	0.849
464.86	0.881
465.07	0.884
465.28	0.845
465.49	0.870
465.71	0.817
465.92	0.863
466.13	0.912
466.34	0.846
466.55	0.916
466.76	0.877
466.97	0.904
467.19	0.887
467.40	0.932
467.61	0.938
467.82	0.842
468.03	0.822
468.24	0.893
468.45	0.929
468.66	0.907
468.88	0.907
469.09	0.903
469.30	0.955
469.51	0.873
469.72	0.910
469.93	0.876
470.14	0.851
470.35	0.946
470.57	0.901
470.78	0.840
470.99	0.976
471.20	0.909
471.41	0.868
471.62	0.927
471.83	0.895
472.04	0.926
472.25	0.979
472.47	0.891
472.68	0.900
472.89	0.897
473.10	0.942
473.31	0.891
473.52	0.958
473.73	0.979
473.94	0.892
474.15	0.923
474.36	0.930
474.57	0.952
474.79	0.925
475.00	0.926
475.21	0.920
475.42	1.021
475.63	0.912
475.84	0.947
476.05	0.958
476.26	0.922
476.47	0.959
476.68	1.007
476.89	0.931
477.10	0.986
477.32	0.968
477.53	1.025
477.74	0.932
477.95	0.976
478.16	0.922
478.37	0.970
478.58	0.973
478.79	0.993
479.00	0.993
479.21	0.946
479.42	0.986
479.63	0.994
479.84	0.949
480.05	0.952
480.26	0.985
480.47	1.003
480.69	1.000
480.90	0.961
481.11	0.958
481.32	1.027
481.53	0.962
481.74	1.022
481.95	0.981
482.16	1.005
482.37	1.014
482.58	0.975
482.79	0.997
483.00	1.031
483.21	0.970
483.42	0.933
483.63	1.017
483.84	1.043
484.05	1.036
484.26	1.004
484.47	0.997
484.68	0.958
484.89	0.967
485.10	1.020
485.31	0.997
485.52	1.005
485.73	1.011
485.94	1.054
486.15	0.995
486.37	1.006
486.58	0.969
486.79	0.986
487.00	1.044
487.21	1.033
487.42	1.026
487.63	1.028
487.84	1.047
488.05	1.038
488.26	0.996
488.47	1.001
488.68	1.035
488.89	1.009
489.10	1.000
489.31	1.007
489.52	1.042
489.73	1.006
489.94	1.047
490.15	1.001
490.36	1.049
490.57	0.997
490.78	0.982
490.99	1.023
491.20	1.110
491.41	1.062
491.62	0.998
491.83	1.030
492.04	1.024
492.25	1.035
492.45	1.037
492.66	1.064
492.87	1.050
493.08	1.034
493.29	1.019
493.50	1.007
493.71	1.014
493.92	1.010
494.13	1.030
494.34	1.052
494.55	1.058
494.76	1.089
494.97	1.082
495.18	1.044
495.39	1.062
495.60	1.007
495.81	1.008
496.02	1.031
496.23	1.023
496.44	1.055
496.65	1.046
496.86	1.050
497.07	1.078
497.28	1.070
497.49	1.015
497.70	1.016
497.91	1.037
498.12	1.018
498.32	1.064
498.53	1.050
498.74	1.041
498.95	1.070
499.16	1.022
499.37	1.025
499.58	1.036
499.79	1.067
500.00	1.061
500.21	1.090
500.42	1.030
500.63	1.033
500.84	1.054
501.05	1.031
501.26	1.058
501.46	1.100
501.67	1.060
501.88	1.062
502.09	1.036
502.30	1.045
502.51	1.102
502.72	1.053
502.93	1.068
503.14	1.094
503.35	1.060
503.56	1.054
503.77	1.088
503.97	1.062
504.18	1.061
504.39	1.100
504.60	1.068
504.81	1.099
505.02	1.085
505.23	1.088
505.44	1.064
505.65	1.070
505.86	1.049
506.07	1.120
506.27	1.076
506.48	1.081
506.69	1.063
506.90	1.087
507.11	1.082
507.32	1.056
507.53	1.063
507.74	1.054
507.95	1.070
508.15	1.078
508.36	1.084
508.57	1.094
508.78	1.075
508.99	1.075
509.20	1.047
509.41	1.076
509.62	1.063
509.82	1.064
510.03	1.077
510.24	1.078
510.45	1.105
510.66	1.095
510.87	1.091
511.08	1.047
511.29	1.092
511.49	1.067
511.70	1.115
511.91	1.043
512.12	1.039
512.33	1.074
512.54	1.090
512.75	1.071
512.95	1.099
513.16	1.087
513.37	1.062
513.58	1.105
513.79	1.065
514.00	1.071
514.20	1.091
514.41	1.078
514.62	1.041
514.83	1.089
515.04	1.076
515.25	1.054
515.46	1.070
515.66	1.072
515.87	1.084
516.08	1.050
516.29	1.076
516.50	1.053
516.71	1.045
516.91	1.056
517.12	1.071
517.33	1.055
517.54	1.042
517.75	1.042
517.95	1.057
518.16	1.070
518.37	1.036
518.58	1.043
518.79	1.016
519.00	1.050
519.20	1.063
519.41	1.035
519.62	1.058
519.83	1.070
520.04	1.032
520.24	1.031
520.45	1.039
520.66	1.063
520.87	1.024
521.08	1.019
521.28	1.026
521.49	1.041
521.70	1.006
521.91	1.020
522.12	1.000
522.32	1.023
522.53	1.001
522.74	0.989
522.95	0.999
523.16	1.002
523.36	1.012
523.57	0.990
523.78	0.988
523.99	0.997
524.20	0.989
524.40	1.004
524.61	1.012
524.82	0.986
525.03	0.992
525.23	0.994
525.44	0.977
525.65	0.977
525.86	1.001
526.06	0.968
526.27	0.967
526.48	0.978
526.69	0.957
526.90	0.960
527.10	0.999
527.31	0.951
527.52	0.944
527.73	0.935
527.93	0.948
528.14	0.955
528.35	0.943
528.56	0.946
528.76	0.939
528.97	0.929
529.18	0.920
529.39	0.920
529.59	0.923
529.80	0.955
530.01	0.926
530.22	0.925
530.42	0.892
530.63	0.910
530.84	0.884
531.05	0.898
531.25	0.902
531.46	0.894
531.67	0.871
531.88	0.890
532.08	0.883
532.29	0.878
532.50	0.869
532.70	0.862
532.91	0.853
533.12	0.858
533.33	0.885
533.53	0.852
533.74	0.852
533.95	0.858
534.15	0.848
534.36	0.849
534.57	0.831
534.78	0.832
534.98	0.843
535.19	0.812
535.40	0.813
535.60	0.830
535.81	0.809
536.02	0.812
536.23	0.802
536.43	0.803
536.64	0.788
536.85	0.796
537.05	0.805
537.26	0.783
537.47	0.785
537.67	0.774
537.88	0.770
538.09	0.779
538.30	0.768
538.50	0.759
538.71	0.772
538.92	0.759
539.12	0.756
539.33	0.751
539.54	0.750
539.74	0.756
539.95	0.744
540.16	0.741
540.36	0.732
540.57	0.732
540.78	0.723
540.98	0.722
541.19	0.720
541.40	0.706
541.60	0.717
541.81	0.712
542.02	0.712
542.22	0.702
542.43	0.696
542.64	0.691
542.84	0.690
543.05	0.681
543.26	0.681
543.46	0.684
543.67	0.682
543.88	0.677
544.08	0.666
544.29	0.661
544.50	0.661
544.70	0.662
544.91	0.652
545.12	0.654
545.32	0.649
545.53	0.654
545.74	0.640
545.94	0.636
546.15	0.634
546.35	0.631
546.56	0.627
546.77	0.625
546.97	0.622
547.18	0.613
547.39	0.614
547.59	0.612
547.80	0.607
548.01	0.612
548.21	0.608
548.42	0.600
548.62	0.599
548.83	0.596
549.04	0.592
549.24	0.584
549.45	0.584
549.65	0.581
549.86	0.576
550.07	0.576
550.27	0.573
550.48	0.581
550.69	0.567
550.89	0.566
551.10	0.563
551.30	0.561
551.51	0.561
551.72	0.549
551.92	0.551
552.13	0.551
552.33	0.551
552.54	0.545
552.75	0.539
552.95	0.540
553.16	0.534
553.36	0.532
553.57	0.530
553.78	0.528
553.98	0.529
554.19	0.519
554.39	0.516
554.60	0.517
554.80	0.517
555.01	0.510
555.22	0.511
555.42	0.508
555.63	0.501
555.83	0.505
556.04	0.499
556.25	0.501
556.45	0.492
556.66	0.489
556.86	0.494
557.07	0.492
557.27	0.490
557.48	0.484
557.68	0.481
557.89	0.482
558.10	0.479
558.30	0.475
558.51	0.473
558.71	0.471
558.92	0.467
559.12	0.468
559.33	0.471
559.54	0.465
559.74	0.461
559.95	0.460
560.15	0.459
560.36	0.457
560.56	0.452
560.77	0.453
560.97	0.452
561.18	0.446
561.38	0.446
561.59	0.448
561.79	0.444
562.00	0.442
562.21	0.438
562.41	0.436
562.62	0.435
562.82	0.432
563.03	0.428
563.23	0.427
563.44	0.427
563.64	0.423
563.85	0.424
564.05	0.418
564.26	0.417
564.46	0.416
564.67	0.417
564.87	0.412
565.08	0.409
565.28	0.409
565.49	0.410
565.69	0.408
565.90	0.404
566.10	0.407
566.31	0.400
566.51	0.402
566.72	0.403
566.92	0.396
567.13	0.395
567.33	0.394
567.54	0.392
567.74	0.391
567.95	0.387
568.15	0.388
568.36	0.387
568.56	0.386
568.77	0.381
568.97	0.380
569.18	0.380
569.38	0.378
569.59	0.379
569.79	0.376
570.00	0.374
570.20	0.373
570.41	0.370
570.61	0.369
570.82	0.370
571.02	0.366
571.23	0.367
571.43	0.363
571.64	0.361
571.84	0.360
572.05	0.358
572.25	0.357
572.45	0.355
572.66	0.352
572.86	0.351
573.07	0.350
573.27	0.350
573.48	0.348
573.68	0.344
573.89	0.344
574.09	0.345
574.30	0.343
574.50	0.342
574.70	0.342
574.91	0.339
575.11	0.340
575.32	0.338
575.52	0.334
575.73	0.334
575.93	0.334
576.14	0.332
576.34	0.331
576.54	0.330
576.75	0.328
576.95	0.327
577.16	0.325
577.36	0.323
577.57	0.323
577.77	0.321
577.97	0.318
578.18	0.320
578.38	0.316
578.59	0.314
578.79	0.313
579.00	0.313
579.20	0.312
579.40	0.311
579.61	0.310
579.81	0.309
580.02	0.307
580.22	0.307
580.42	0.306
580.63	0.306
580.83	0.305
581.04	0.302
581.24	0.301
581.45	0.300
581.65	0.300
581.85	0.299
582.06	0.297
582.26	0.296
582.47	0.294
582.67	0.293
582.87	0.292
583.08	0.290
583.28	0.290
583.48	0.289
583.69	0.286
583.89	0.286
584.10	0.287
584.30	0.284
584.50	0.283
584.71	0.282
584.91	0.282
585.12	0.280
585.32	0.281
585.52	0.278
585.73	0.277
585.93	0.276
586.13	0.276
586.34	0.275
586.54	0.274
586.75	0.272
586.95	0.271
587.15	0.270
587.36	0.269
587.56	0.268
587.76	0.267
587.97	0.266
588.17	0.265
588.37	0.265
588.58	0.265
588.78	0.262
588.98	0.263
589.19	0.261
589.39	0.260
589.60	0.261
589.80	0.259
590.00	0.258
590.21	0.258
590.41	0.256
590.61	0.256
590.82	0.256
591.02	0.255
591.22	0.253
591.43	0.254
591.63	0.252
591.83	0.251
592.04	0.250
592.24	0.250
592.44	0.248
592.65	0.246
592.85	0.246
593.05	0.246
593.26	0.245
593.46	0.244
593.66	0.244
593.86	0.243
594.07	0.241
594.27	0.241
594.47	0.240
594.68	0.239
594.88	0.240
595.08	0.239
595.29	0.240
595.49	0.238
595.69	0.237
595.90	0.236
596.10	0.237
596.30	0.236
596.50	0.235
596.71	0.234
596.91	0.233
597.11	0.232
597.32	0.231
597.52	0.230
597.72	0.230
597.93	0.229
598.13	0.227
598.33	0.227
598.53	0.226
598.74	0.225
598.94	0.224
599.14	0.224
599.35	0.224
599.55	0.224
599.75	0.222
599.95	0.221
600.16	0.221
600.36	0.220
600.56	0.220
600.76	0.219
600.97	0.218
601.17	0.217
601.37	0.217
601.58	0.216
601.78	0.217
601.98	0.216
602.18	0.215
602.39	0.215
602.59	0.215
602.79	0.214
602.99	0.213
603.20	0.212
603.40	0.212
603.60	0.212
603.80	0.211
604.01	0.210
604.21	0.210
604.41	0.209
604.61	0.208
604.82	0.207
605.02	0.208
605.22	0.208
605.42	0.207
605.62	0.207
605.83	0.205
606.03	0.205
606.23	0.205
606.43	0.204
606.64	0.204
606.84	0.203
607.04	0.203
607.24	0.203
607.45	0.203
607.65	0.201
607.85	0.202
608.05	0.200
608.25	0.200
608.46	0.199
608.66	0.199
608.86	0.199
609.06	0.197
609.26	0.196
609.47	0.196
609.67	0.195
609.87	0.196
610.07	0.195
610.28	0.194
610.48	0.194
610.68	0.194
610.88	0.192
611.08	0.193
611.29	0.192
611.49	0.191
611.69	0.192
611.89	0.191
612.09	0.190
612.29	0.190
612.50	0.190
612.70	0.190
612.90	0.189
613.10	0.188
613.30	0.188
613.51	0.188
613.71	0.187
613.91	0.191
614.11	0.186
614.31	0.186
614.51	0.185
614.72	0.185
614.92	0.184
615.12	0.184
615.32	0.185
615.52	0.184
615.72	0.184
615.93	0.184
616.13	0.183
616.33	0.183
616.53	0.183
616.73	0.183
616.93	0.182
617.14	0.182
617.34	0.182
617.54	0.182
617.74	0.182
617.94	0.181
618.14	0.181
618.34	0.180
618.55	0.180
618.75	0.180
618.95	0.180
619.15	0.180
619.35	0.179
619.55	0.178
619.75	0.178
619.96	0.177
620.16	0.178
620.36	0.177
620.56	0.177
620.76	0.177
620.96	0.176
621.16	0.176
621.36	0.175
621.57	0.175
621.77	0.176
621.97	0.175
622.17	0.174
622.37	0.174
622.57	0.174
622.77	0.174
622.97	0.173
623.18	0.173
623.38	0.173
623.58	0.173
623.78	0.172
623.98	0.172
624.18	0.171
624.38	0.171
624.58	0.171
624.78	0.171
624.98	0.171
625.19	0.170
625.39	0.170
625.59	0.170
625.79	0.170
625.99	0.169
626.19	0.169
626.39	0.169
626.59	0.168
626.79	0.168
626.99	0.169
627.19	0.168
627.40	0.168
627.60	0.168
627.80	0.167
628.00	0.167
628.20	0.167
628.40	0.167
628.60	0.166
628.80	0.166
629.00	0.166
629.20	0.165
629.40	0.165
629.60	0.164
629.80	0.164
630.00	0.164
630.20	0.164
630.41	0.163
630.61	0.163
630.81	0.163
631.01	0.163
631.21	0.162
631.41	0.162
631.61	0.162
631.81	0.162
632.01	0.162
632.21	0.162
632.41	0.160
632.61	0.160
632.81	0.160
633.01	0.160
633.21	0.160
633.41	0.160
633.61	0.159
633.81	0.159
634.01	0.158
634.21	0.159
634.41	0.158
634.61	0.158
634.81	0.158
635.01	0.158
635.22	0.158
635.42	0.158
635.62	0.158
635.82	0.159
636.02	0.158
636.22	0.158
636.42	0.157
636.62	0.157
636.82	0.157
637.02	0.156
637.22	0.157
637.42	0.156
637.62	0.155
637.82	0.155
638.02	0.154
638.22	0.154
638.42	0.154
638.62	0.153
638.82	0.154
639.02	0.154
639.22	0.153
639.42	0.152
639.62	0.152
639.82	0.152
640.02	0.152
640.22	0.152
640.42	0.152
640.62	0.152
640.82	0.151
641.02	0.151
641.22	0.151
641.42	0.150
641.61	0.150
641.81	0.150
642.01	0.150
642.21	0.150
642.41	0.150
642.61	0.149
642.81	0.149
643.01	0.149
643.21	0.149
643.41	0.149
643.61	0.149
643.81	0.149
644.01	0.148
644.21	0.147
644.41	0.148
644.61	0.147
644.81	0.147
645.01	0.147
645.21	0.146
645.41	0.146
645.61	0.146
645.81	0.146
646.01	0.145
646.21	0.146
646.40	0.146
646.60	0.146
646.80	0.146
647.00	0.146
647.20	0.144
647.40	0.145
647.60	0.144
647.80	0.144
648.00	0.144
648.20	0.144
648.40	0.143
648.60	0.143
648.80	0.143
649.00	0.142
649.20	0.143
649.39	0.142
649.59	0.142
649.79	0.141
649.99	0.141
650.19	0.141
650.39	0.141
650.59	0.141
650.79	0.140
650.99	0.140
651.19	0.139
651.39	0.139
651.58	0.139
651.78	0.139
651.98	0.139
652.18	0.139
652.38	0.138
652.58	0.139
652.78	0.138
652.98	0.138
653.18	0.139
653.38	0.139
653.57	0.138
653.77	0.138
653.97	0.137
654.17	0.137
654.37	0.137
654.57	0.137
654.77	0.136
654.97	0.136
655.16	0.136
655.36	0.136
655.56	0.135
655.76	0.135
655.96	0.136
656.16	0.135
656.36	0.135
656.56	0.134
656.75	0.134
656.95	0.134
657.15	0.134
657.35	0.133
657.55	0.133
657.75	0.133
657.95	0.133
658.14	0.133
658.34	0.133
658.54	0.133
658.74	0.132
658.94	0.132
659.14	0.132
659.34	0.132
659.53	0.131
659.73	0.131
659.93	0.131
660.13	0.130
660.33	0.130
660.53	0.130
660.72	0.131
660.92	0.131
661.12	0.130
661.32	0.130
661.52	0.129
661.72	0.129
661.91	0.129
662.11	0.129
662.31	0.128
662.51	0.128
662.71	0.128
662.90	0.127
663.10	0.126
663.30	0.126
663.50	0.127
663.70	0.127
663.90	0.127
664.09	0.126
664.29	0.126
664.49	0.126
664.69	0.126
664.89	0.125
665.08	0.126
665.28	0.125
665.48	0.126
665.68	0.125
665.88	0.124
666.07	0.124
666.27	0.124
666.47	0.124
666.67	0.124
666.87	0.124
667.06	0.123
667.26	0.123
667.46	0.122
667.66	0.122
667.85	0.122
668.05	0.122
668.25	0.123
668.45	0.122
668.65	0.122
668.84	0.123
669.04	0.122
669.24	0.122
669.44	0.121
669.63	0.121
669.83	0.121
670.03	0.120
670.23	0.120
670.42	0.119
670.62	0.119
670.82	0.118
671.02	0.118
671.22	0.117
671.41	0.117
671.61	0.117
671.81	0.118
672.01	0.118
672.20	0.117
672.40	0.117
672.60	0.117
672.80	0.117
672.99	0.118
673.19	0.117
673.39	0.118
673.58	0.117
673.78	0.117
673.98	0.117
674.18	0.116
674.37	0.116
674.57	0.116
674.77	0.116
674.97	0.116
675.16	0.116
675.36	0.115
675.56	0.115
675.75	0.115
675.95	0.114
676.15	0.114
676.35	0.114
676.54	0.114
676.74	0.114
676.94	0.114
677.13	0.114
677.33	0.113
677.53	0.113
677.73	0.113
677.92	0.112
678.12	0.113
678.32	0.112
678.51	0.112
678.71	0.111
678.91	0.111
679.11	0.110
679.30	0.110
679.50	0.110
679.70	0.110
679.89	0.110
680.09	0.111
680.29	0.110
680.48	0.110
680.68	0.110
680.88	0.110
681.07	0.110
681.27	0.110
681.47	0.109
681.66	0.109
681.86	0.109
682.06	0.109
682.25	0.108
682.45	0.108
682.65	0.108
682.84	0.108
683.04	0.108
683.24	0.107
683.43	0.108
683.63	0.107
683.83	0.107
684.02	0.107
684.22	0.107
684.42	0.107
684.61	0.107
684.81	0.106
685.01	0.106
685.20	0.105
685.40	0.106
685.60	0.106
685.79	0.106
685.99	0.106
686.19	0.105
686.38	0.105
686.58	0.105
686.77	0.105
686.97	0.105
687.17	0.105
687.36	0.104
687.56	0.104
687.76	0.103
687.95	0.103
688.15	0.103
688.34	0.103
688.54	0.103
688.74	0.102
688.93	0.102
689.13	0.102
689.33	0.102
689.52	0.102
689.72	0.102
689.91	0.101
690.11	0.101
690.31	0.101
690.50	0.101
690.70	0.101
690.89	0.101
691.09	0.101
691.29	0.101
691.48	0.101
691.68	0.100
691.87	0.100
692.07	0.101
692.27	0.100
692.46	0.100
692.66	0.100
692.85	0.100
693.05	0.100
693.25	0.100
693.44	0.099
693.64	0.099
693.83	0.099
694.03	0.098
694.22	0.097
694.42	0.097
694.62	0.098
694.81	0.097
695.01	0.098
695.20	0.097
695.40	0.096
695.59	0.096
695.79	0.096
695.99	0.097
696.18	0.097
696.38	0.097
696.57	0.097
696.77	0.096
696.96	0.097
697.16	0.096
697.36	0.096
697.55	0.096
697.75	0.096
697.94	0.096
698.14	0.096
698.33	0.096
698.53	0.095
698.72	0.095
698.92	0.095
699.11	0.095
699.31	0.095
699.51	0.095
699.70	0.095
699.90	0.095
700.09	0.095
700.29	0.095
700.48	0.095
700.68	0.094
700.87	0.094
701.07	0.094
701.26	0.093
701.46	0.093
701.65	0.093
701.85	0.093
702.04	0.093
702.24	0.093
702.43	0.093
702.63	0.093
702.82	0.093
703.02	0.093
703.21	0.093
703.41	0.092
703.60	0.092
703.80	0.092
703.99	0.092
704.19	0.092
704.38	0.092
704.58	0.091
704.77	0.091
704.97	0.091
705.16	0.091
705.36	0.092
705.55	0.092
705.75	0.092
705.94	0.092
706.14	0.091
706.33	0.091
706.53	0.091
706.72	0.091
706.92	0.091
707.11	0.091
707.31	0.091
707.50	0.091
707.70	0.091
707.89	0.090
708.09	0.090
708.28	0.090
708.48	0.090
708.67	0.090
708.86	0.090
709.06	0.090
709.25	0.090
709.45	0.090
709.64	0.090
709.84	0.090
710.03	0.089
710.23	0.089
710.42	0.089
710.62	0.089
710.81	0.089
711.00	0.089
711.20	0.089
711.39	0.088
711.59	0.088
711.78	0.088
711.98	0.088
712.17	0.089
712.37	0.089
712.56	0.089
712.75	0.089
712.95	0.089
713.14	0.089
713.34	0.089
713.53	0.089
713.73	0.089
713.92	0.089
714.11	0.089
714.31	0.089
714.50	0.088
714.70	0.088
714.89	0.088
715.08	0.088
715.28	0.088
715.47	0.088
715.67	0.088
715.86	0.087
716.06	0.088
716.25	0.088
716.44	0.087
716.64	0.088
716.83	0.087
717.03	0.087
717.22	0.087
717.41	0.087
717.61	0.087
717.80	0.088
717.99	0.088
718.19	0.087
718.38	0.087
718.58	0.087
718.77	0.087
718.96	0.087
719.16	0.087
719.35	0.087
719.55	0.086
719.74	0.086
719.93	0.086
720.13	0.086
720.32	0.085
720.51	0.085
720.71	0.085
720.90	0.085
721.10	0.085
721.29	0.085
721.48	0.085
721.68	0.085
721.87	0.085
722.06	0.085
722.26	0.086
722.45	0.086
722.64	0.086
722.84	0.085
723.03	0.086
723.22	0.086
723.42	0.086
723.61	0.086
723.80	0.086
724.00	0.086
724.19	0.086
724.38	0.086
724.58	0.086
724.77	0.086
724.96	0.086
725.16	0.086
725.35	0.086
725.54	0.086
725.74	0.086
725.93	0.086
726.12	0.086
726.32	0.086
726.51	0.086
726.70	0.086
726.90	0.086
727.09	0.086
727.28	0.085
727.48	0.085
727.67	0.085
727.86	0.085
728.06	0.085
728.25	0.085
728.44	0.085
728.64	0.085
728.83	0.085
729.02	0.084
729.21	0.085
729.41	0.085
729.60	0.084
729.79	0.085
729.99	0.085
730.18	0.085
730.37	0.085
730.56	0.085
730.76	0.085
730.95	0.085
731.14	0.085
731.34	0.085
731.53	0.085
731.72	0.085
731.91	0.085
732.11	0.085
732.30	0.085
732.49	0.085
732.69	0.086
732.88	0.086
733.07	0.086
733.26	0.086
733.46	0.086
733.65	0.086
733.84	0.086
734.03	0.086
734.23	0.086
734.42	0.086
734.61	0.086
734.80	0.085
735.00	0.085
735.19	0.085
735.38	0.085
735.57	0.085
735.77	0.085
735.96	0.085
736.15	0.085
736.34	0.085
736.54	0.086
736.73	0.086
736.92	0.086
737.11	0.086
737.31	0.085
737.50	0.086
737.69	0.086
737.88	0.086
738.07	0.086
738.27	0.086
738.46	0.086
738.65	0.085
738.84	0.085
739.04	0.085
739.23	0.085
739.42	0.085
739.61	0.085
739.80	0.084
740.00	0.084
740.19	0.084
740.38	0.084
740.57	0.084
740.76	0.084
740.96	0.084
741.15	0.084
741.34	0.084
741.53	0.084
741.72	0.084
741.92	0.084
742.11	0.084
742.30	0.084
742.49	0.084
742.68	0.084
742.88	0.085
743.07	0.084
743.26	0.084
743.45	0.085
743.64	0.084
743.84	0.084
744.03	0.084
744.22	0.084
744.41	0.083
744.60	0.083
744.79	0.083
744.99	0.083
745.18	0.083
745.37	0.082
745.56	0.082
745.75	0.082
745.94	0.082
746.14	0.082
746.33	0.082
746.52	0.082
746.71	0.082
746.90	0.082
747.09	0.083
747.28	0.082
747.48	0.083
747.67	0.082
747.86	0.082
748.05	0.083
748.24	0.082
748.43	0.082
748.62	0.082
748.82	0.082
749.01	0.081
749.20	0.081
749.39	0.081
749.58	0.081
749.77	0.081
749.96	0.081
750.16	0.082
750.35	0.081
750.54	0.081
750.73	0.082
750.92	0.082
751.11	0.082
751.30	0.082
751.49	0.082
751.68	0.082
751.88	0.082
752.07	0.082
752.26	0.082
752.45	0.082
752.64	0.082
752.83	0.082
753.02	0.082
753.21	0.082
753.40	0.081
753.60	0.081
753.79	0.081
753.98	0.081
754.17	0.082
754.36	0.081
754.55	0.081
754.74	0.081
754.93	0.081
755.12	0.081
755.31	0.081
755.50	0.081
755.70	0.081
755.89	0.081
756.08	0.081
756.27	0.080
756.46	0.081
756.65	0.081
756.84	0.080
757.03	0.080
757.22	0.079
757.41	0.080
757.60	0.079
757.79	0.080
757.98	0.080
758.17	0.080
758.36	0.080
758.56	0.079
758.75	0.079
758.94	0.080
759.13	0.080
759.32	0.080
759.51	0.079
759.70	0.080
759.89	0.079
760.08	0.079
760.27	0.079
760.46	0.079
760.65	0.079
760.84	0.079
761.03	0.079
761.22	0.079
761.41	0.079
761.60	0.079
761.79	0.079
761.98	0.079
762.17	0.078
762.36	0.078
762.55	0.078
762.74	0.078
762.93	0.078
763.12	0.078
763.31	0.078
763.50	0.078
763.69	0.077
763.88	0.078
764.07	0.077
764.26	0.078
764.45	0.078
764.64	0.078
764.83	0.078
765.02	0.078
765.21	0.078
765.40	0.078
765.59	0.078
765.78	0.078
765.97	0.078
766.16	0.079
766.35	0.079
766.54	0.079
766.73	0.078
766.92	0.078
767.11	0.078
767.30	0.078
767.49	0.078
767.68	0.078
767.87	0.078
768.06	0.078
768.25	0.077
768.44	0.078
768.63	0.077
768.82	0.077
769.01	0.077
769.20	0.078
769.39	0.078
769.58	0.078
769.77	0.078
769.96	0.078
770.15	0.078
770.34	0.078
770.53	0.078
770.72	0.077
770.91	0.077
771.10	0.077
771.29	0.076
771.47	0.076
771.66	0.076
771.85	0.076
772.04	0.076
772.23	0.076
772.42	0.076
772.61	0.076
772.80	0.077
772.99	0.077
773.18	0.076
773.37	0.077
773.56	0.077
773.75	0.077
773.94	0.077
774.13	0.076
774.31	0.076
774.50	0.076
774.69	0.076
774.88	0.076
775.07	0.076
775.26	0.076
775.45	0.075
775.64	0.076
775.83	0.075
776.02	0.075
776.21	0.075
776.40	0.075
776.58	0.075
776.77	0.075
776.96	0.075
777.15	0.076
777.34	0.076
777.53	0.076
777.72	0.075
777.91	0.076
778.10	0.075
778.28	0.076
778.47	0.076
778.66	0.076
778.85	0.075
779.04	0.075
779.23	0.075
779.42	0.075
779.61	0.075
779.79	0.075
779.98	0.075
780.17	0.075
780.36	0.074
780.55	0.074
780.74	0.074
780.93	0.073
781.12	0.074
781.30	0.074
781.49	0.074
781.68	0.074
781.87	0.074
782.06	0.074
782.25	0.074
782.44	0.074
782.62	0.074
782.81	0.074
783.00	0.074
783.19	0.074
783.38	0.074
783.57	0.074
783.75	0.073
783.94	0.074
784.13	0.074
784.32	0.074
784.51	0.074
784.70	0.074
784.88	0.074
785.07	0.074
785.26	0.074
785.45	0.074
785.64	0.074
785.83	0.074
786.01	0.073
786.20	0.074
786.39	0.074
786.58	0.073
786.77	0.073
786.95	0.073
787.14	0.073
787.33	0.073
787.52	0.073
787.71	0.073
787.90	0.073
788.08	0.073
788.27	0.073
788.46	0.073
788.65	0.073
788.84	0.073
789.02	0.073
789.21	0.073
789.40	0.073
789.59	0.073
789.77	0.073
789.96	0.073
790.15	0.073
790.34	0.073
790.53	0.073
790.71	0.072
790.90	0.073
791.09	0.072
791.28	0.072
791.46	0.073
791.65	0.072
791.84	0.072
792.03	0.072
792.22	0.073
792.40	0.073
792.59	0.073
792.78	0.073
792.97	0.073
793.15	0.073
793.34	0.072
793.53	0.072
793.72	0.072
793.90	0.072
794.09	0.072
794.28	0.072
794.47	0.072
794.65	0.072
794.84	0.072
795.03	0.072
795.22	0.072
795.40	0.072
795.59	0.072
795.78	0.071
795.97	0.071
796.15	0.072
796.34	0.072
796.53	0.071
796.71	0.072
796.90	0.072
797.09	0.072
797.28	0.072
797.46	0.071
797.65	0.071
797.84	0.071
798.02	0.071
798.21	0.071
798.40	0.071
798.59	0.071
798.77	0.070
798.96	0.070
799.15	0.069
799.33	0.070
799.52	0.070
799.71	0.070
799.90	0.070
800.08	0.070
800.27	0.070
800.46	0.070
800.64	0.070
800.83	0.070
801.02	0.070
801.20	0.071
801.39	0.071
801.58	0.070
801.76	0.070
801.95	0.070
802.14	0.070
802.32	0.070
802.51	0.070
802.70	0.070
802.88	0.069
803.07	0.070
803.26	0.069
803.44	0.069
803.63	0.069
803.82	0.069
804.00	0.069
804.19	0.069
804.38	0.069
804.56	0.069
804.75	0.070
804.94	0.070
805.12	0.070
805.31	0.070
805.50	0.070
805.68	0.070
805.87	0.070
806.06	0.070
806.24	0.070
806.43	0.070
806.62	0.070
806.80	0.070
806.99	0.070
807.17	0.070
807.36	0.070
807.55	0.070
807.73	0.070
807.92	0.070
808.11	0.070
808.29	0.070
808.48	0.069
808.66	0.069
808.85	0.069
809.04	0.069
809.22	0.069
809.41	0.069
809.59	0.069
809.78	0.069
809.97	0.069
810.15	0.069
810.34	0.068
810.53	0.069
810.71	0.068
810.90	0.069
811.08	0.069
811.27	0.069
811.45	0.069
811.64	0.069
811.83	0.069
812.01	0.069
812.20	0.069
812.38	0.069
812.57	0.069
812.76	0.069
812.94	0.069
813.13	0.069
813.31	0.070
813.50	0.070
813.68	0.070
813.87	0.069
814.06	0.070
814.24	0.070
814.43	0.070
814.61	0.069
814.80	0.069
814.98	0.069
815.17	0.069
815.36	0.069
815.54	0.069
815.73	0.069
815.91	0.069
816.10	0.069
816.28	0.069
816.47	0.068
816.65	0.069
816.84	0.069
817.03	0.069
817.21	0.069
817.40	0.069
817.58	0.069
817.77	0.069
817.95	0.069
818.14	0.069
818.32	0.069
818.51	0.069
818.69	0.069
818.88	0.069
819.06	0.069
819.25	0.069
819.43	0.069
819.62	0.069
819.80	0.069
819.99	0.069
820.18	0.069
820.36	0.069
820.55	0.069
820.73	0.069
820.92	0.069
821.10	0.069
821.29	0.069
821.47	0.069
821.66	0.069
821.84	0.069
822.03	0.069
822.21	0.069
822.40	0.070
822.58	0.070
822.77	0.069
822.95	0.070
823.14	0.070
823.32	0.070
823.50	0.070
823.69	0.071
823.87	0.071
824.06	0.071
824.24	0.071
824.43	0.071
824.61	0.071
824.80	0.071
824.98	0.071
825.17	0.071
825.35	0.071
825.54	0.071
825.72	0.071
825.91	0.071
826.09	0.071
826.28	0.071
826.46	0.072
826.64	0.072
826.83	0.072
827.01	0.072
827.20	0.072
827.38	0.071
827.57	0.072
827.75	0.072
827.94	0.072
828.12	0.072
828.31	0.072
828.49	0.072
828.67	0.072
828.86	0.072
829.04	0.072
829.23	0.072
829.41	0.073
829.60	0.073
829.78	0.073
829.96	0.073
830.15	0.073
830.33	0.073
830.52	0.073
830.70	0.074
830.88	0.073
831.07	0.074
831.25	0.074
831.44	0.074
831.62	0.074
831.81	0.074
831.99	0.074
832.17	0.075
832.36	0.075
832.54	0.075
832.73	0.075
832.91	0.075
833.09	0.074
833.28	0.074
833.46	0.075
833.65	0.075
833.83	0.075
834.01	0.075
834.20	0.075
834.38	0.074
834.56	0.075
834.75	0.075
834.93	0.075
835.12	0.075
835.30	0.075
835.48	0.075
835.67	0.075
835.85	0.075
836.03	0.075
836.22	0.075
836.40	0.075
836.59	0.076
836.77	0.075
836.95	0.076
837.14	0.076
837.32	0.076
837.50	0.076
837.69	0.075
837.87	0.075
838.05	0.076
838.24	0.076
838.42	0.076
838.60	0.076
838.79	0.077
838.97	0.076
839.15	0.076
839.34	0.076
839.52	0.076
839.70	0.077
839.89	0.076
840.07	0.077
840.25	0.077
840.44	0.076
840.62	0.076
840.80	0.076
840.99	0.076
841.17	0.076
841.35	0.076
841.54	0.076
841.72	0.077
841.90	0.077
842.09	0.076
842.27	0.076
842.45	0.077
842.64	0.077
842.82	0.077
843.00	0.077
843.19	0.077
843.37	0.076
843.55	0.077
843.73	0.076
843.92	0.076
844.10	0.076
844.28	0.077
844.47	0.077
844.65	0.076
844.83	0.077
845.01	0.077
845.20	0.077
845.38	0.077
845.56	0.077
845.75	0.077
845.93	0.077
846.11	0.076
846.29	0.077
846.48	0.077
846.66	0.077
846.84	0.077
847.02	0.076
847.21	0.076
847.39	0.076
847.57	0.076
847.76	0.077
847.94	0.077
848.12	0.077
848.30	0.077
848.49	0.077
848.67	0.077
848.85	0.077
849.03	0.078
849.22	0.078
849.40	0.078
849.58	0.078
849.76	0.078
849.95	0.078
850.13	0.078
850.31	0.078
850.49	0.079
850.67	0.079
850.86	0.078
851.04	0.078
851.22	0.078
851.40	0.078
851.59	0.078
851.77	0.078
851.95	0.078
852.13	0.078
852.31	0.077
852.50	0.077
852.68	0.078
852.86	0.078
853.04	0.077
853.23	0.077
853.41	0.077
853.59	0.077
853.77	0.077
853.95	0.078
854.14	0.078
854.32	0.078
854.50	0.078
854.68	0.077
854.86	0.078
855.04	0.078
855.23	0.078
855.41	0.078
855.59	0.078
855.77	0.078
855.95	0.078
856.14	0.078
856.32	0.078
856.50	0.078
856.68	0.079
856.86	0.079
857.04	0.078
857.23	0.078
857.41	0.078
857.59	0.078
857.77	0.078
857.95	0.078
858.13	0.078
858.32	0.078
858.50	0.078
858.68	0.077
858.86	0.077
859.04	0.078
859.22	0.078
859.41	0.078
859.59	0.078
859.77	0.078
859.95	0.078
860.13	0.079
860.31	0.078
860.49	0.078
860.68	0.078
860.86	0.079
861.04	0.078
861.22	0.078
861.40	0.078
861.58	0.078
861.76	0.078
861.94	0.078
862.13	0.078
862.31	0.078
862.49	0.078
862.67	0.079
862.85	0.079
863.03	0.079
863.21	0.079
863.39	0.079
863.57	0.079
863.76	0.079
863.94	0.079
864.12	0.079
864.30	0.079
864.48	0.079
864.66	0.079
864.84	0.079
865.02	0.079
865.20	0.079
865.38	0.079
865.57	0.079
865.75	0.080
865.93	0.080
866.11	0.079
866.29	0.080
866.47	0.081
866.65	0.080
866.83	0.080
867.01	0.080
867.19	0.080
867.37	0.080
867.55	0.080
867.73	0.080
867.92	0.080
868.10	0.080
868.28	0.080
868.46	0.080
868.64	0.080
868.82	0.080
869.00	0.080
869.18	0.081
869.36	0.080
869.54	0.080
869.72	0.081
869.90	0.081
870.08	0.080
870.26	0.080
870.44	0.081
870.62	0.080
870.80	0.080
870.98	0.080
871.16	0.080
871.34	0.080
871.53	0.080
871.71	0.080
871.89	0.080
872.07	0.080
872.25	0.080
872.43	0.080
872.61	0.080
872.79	0.081
872.97	0.081
873.15	0.081
873.33	0.082
873.51	0.082
873.69	0.082
873.87	0.082
874.05	0.082
874.23	0.082
874.41	0.082
874.59	0.082
874.77	0.082
874.95	0.082
875.13	0.082
875.31	0.082
875.49	0.082
875.67	0.082
875.85	0.081
876.03	0.081
876.21	0.082
876.39	0.082
876.57	0.082
876.75	0.082
876.93	0.082
877.11	0.081
877.29	0.081
877.47	0.081
877.65	0.082
877.82	0.082
878.00	0.082
878.18	0.082
878.36	0.082
878.54	0.082
878.72	0.082
878.90	0.082
879.08	0.082
879.26	0.082
879.44	0.082
879.62	0.083
879.80	0.082
879.98	0.083
880.16	0.082
880.34	0.082
880.52	0.082
880.70	0.082
880.88	0.082
881.06	0.082
881.24	0.082
881.42	0.082
881.59	0.082
881.77	0.082
881.95	0.082
882.13	0.082
882.31	0.082
882.49	0.082
882.67	0.083
882.85	0.082
883.03	0.082
883.21	0.083
883.39	0.082
883.57	0.083
883.75	0.083
883.92	0.083
884.10	0.083
884.28	0.083
884.46	0.084
884.64	0.084
884.82	0.083
885.00	0.083
885.18	0.084
885.36	0.084
885.54	0.084
885.71	0.084
885.89	0.084
886.07	0.084
886.25	0.084
886.43	0.084
886.61	0.084
886.79	0.084
886.97	0.084
887.15	0.084
887.32	0.084
887.50	0.084
887.68	0.084
887.86	0.084
888.04	0.084
888.22	0.084
888.40	0.084
888.57	0.085
888.75	0.085
888.93	0.085
889.11	0.085
889.29	0.085
889.47	0.085
889.65	0.085
889.82	0.086
890.00	0.086
890.18	0.086
890.36	0.086
890.54	0.086
890.72	0.086
890.90	0.086
891.07	0.086
891.25	0.086
891.43	0.085
891.61	0.085
891.79	0.085
891.97	0.085
892.14	0.085
892.32	0.085
892.50	0.085
892.68	0.085
892.86	0.086
893.03	0.086
893.21	0.086
893.39	0.086
893.57	0.086
893.75	0.086
893.93	0.086
894.10	0.086
894.28	0.086
894.46	0.085
894.64	0.086
894.82	0.086
894.99	0.086
895.17	0.086
895.35	0.086
895.53	0.086
895.71	0.086
895.88	0.086
896.06	0.086
896.24	0.086
896.42	0.086
896.59	0.086
896.77	0.086
896.95	0.086
897.13	0.086
897.31	0.086
897.48	0.086
897.66	0.086
897.84	0.086
898.02	0.086
898.19	0.086
898.37	0.087
898.55	0.087
898.73	0.087
898.91	0.087
899.08	0.087
899.26	0.087
899.44	0.087
899.62	0.087
899.79	0.087
899.97	0.087
900.15	0.087
900.33	0.087
900.50	0.087
900.68	0.087
900.86	0.087
901.04	0.088
901.21	0.088
901.39	0.088
901.57	0.087
901.74	0.088
901.92	0.088
902.10	0.088
902.28	0.088
902.45	0.088
902.63	0.088
902.81	0.088
902.99	0.088
903.16	0.088
903.34	0.088
903.52	0.088
903.69	0.088
903.87	0.088
904.05	0.089
904.22	0.089
904.40	0.089
904.58	0.089
904.76	0.089
904.93	0.089
905.11	0.089
905.29	0.089
905.46	0.089
905.64	0.089
905.82	0.089
905.99	0.089
906.17	0.089
906.35	0.089
906.53	0.089
906.70	0.089
906.88	0.090
907.06	0.090
907.23	0.090
907.41	0.090
907.59	0.090
907.76	0.090
907.94	0.091
908.12	0.090
908.29	0.090
908.47	0.091
908.65	0.091
908.82	0.091
909.00	0.091
909.18	0.091
909.35	0.091
909.53	0.091
909.71	0.091
909.88	0.091
910.06	0.091
910.23	0.091
910.41	0.091
910.59	0.091
910.76	0.091
910.94	0.091
911.12	0.091
911.29	0.091
911.47	0.091
911.65	0.091
911.82	0.091
912.00	0.091
912.17	0.091
912.35	0.091
912.53	0.092
912.70	0.092
912.88	0.092
913.06	0.093
913.23	0.093
913.41	0.093
913.58	0.093
913.76	0.093
913.94	0.093
914.11	0.094
914.29	0.094
914.46	0.094
914.64	0.094
914.82	0.094
914.99	0.094
915.17	0.094
915.34	0.094
915.52	0.094
915.70	0.094
915.87	0.093
916.05	0.093
916.22	0.093
916.40	0.093
916.57	0.094
916.75	0.094
916.93	0.094
917.10	0.094
917.28	0.094
917.45	0.094
917.63	0.094
917.80	0.094
917.98	0.094
918.16	0.095
918.33	0.095
918.51	0.096
918.68	0.096
918.86	0.096
919.03	0.096
919.21	0.096
919.39	0.097
919.56	0.097
919.74	0.098
919.91	0.098
920.09	0.098
920.26	0.098
920.44	0.098
920.61	0.098
920.79	0.098
920.96	0.098
921.14	0.099
921.31	0.099
921.49	0.098
921.67	0.099
921.84	0.099
922.02	0.099
922.19	0.100
922.37	0.100
922.54	0.100
922.72	0.100
922.89	0.101
923.07	0.101
923.24	0.102
923.42	0.102
923.59	0.102
923.77	0.102
923.94	0.103
924.12	0.103
924.29	0.103
924.47	0.104
924.64	0.104
924.82	0.104
924.99	0.104
925.17	0.105
925.34	0.105
925.52	0.105
925.69	0.105
925.87	0.106
926.04	0.106
926.22	0.106
926.39	0.106
926.57	0.107
926.74	0.107
926.91	0.107
927.09	0.108
927.26	0.108
927.44	0.108
927.61	0.109
927.79	0.109
927.96	0.110
928.14	0.110
928.31	0.110
928.49	0.110
928.66	0.110
928.84	0.112
929.01	0.111
929.18	0.112
929.36	0.113
929.53	0.113
929.71	0.113
929.88	0.114
930.06	0.114
930.23	0.114
930.41	0.114
930.58	0.115
930.75	0.115
930.93	0.115
931.10	0.115
931.28	0.115
931.45	0.116
931.63	0.116
931.80	0.116
931.97	0.117
932.15	0.118
932.32	0.118
932.50	0.119
932.67	0.120
932.84	0.120
933.02	0.122
933.19	0.122
933.37	0.123
933.54	0.123
933.71	0.124
933.89	0.124
934.06	0.124
934.24	0.125
934.41	0.125
934.58	0.125
934.76	0.126
934.93	0.126
935.11	0.126
935.28	0.127
935.45	0.127
935.63	0.128
935.80	0.128
935.98	0.129
936.15	0.128
936.32	0.129
936.50	0.130
936.67	0.130
936.84	0.130
937.02	0.132
937.19	0.132
937.36	0.133
937.54	0.133
937.71	0.134
937.89	0.134
938.06	0.135
938.23	0.135
938.41	0.136
938.58	0.136
938.75	0.137
938.93	0.138
939.10	0.137
939.27	0.138
939.45	0.139
939.62	0.139
939.79	0.140
939.97	0.140
940.14	0.141
940.31	0.142
940.49	0.142
940.66	0.142
940.83	0.143
941.01	0.144
941.18	0.144
941.35	0.145
941.53	0.145
941.70	0.146
941.87	0.146
942.05	0.147
942.22	0.148
942.39	0.149
942.57	0.149
942.74	0.150
942.91	0.151
943.08	0.151
943.26	0.152
943.43	0.152
943.60	0.153
943.78	0.154
943.95	0.155
944.12	0.155
944.29	0.156
944.47	0.157
944.64	0.158
944.81	0.159
944.99	0.160
945.16	0.161
945.33	0.161
945.50	0.162
945.68	0.163
945.85	0.163
946.02	0.164
946.20	0.165
946.37	0.166
946.54	0.166
946.71	0.167
946.89	0.167
947.06	0.168
947.23	0.168
947.40	0.170
947.58	0.170
947.75	0.172
947.92	0.172
948.09	0.173
948.27	0.174
948.44	0.175
948.61	0.176
948.78	0.178
948.96	0.180
949.13	0.180
949.30	0.181
949.47	0.182
949.65	0.183
949.82	0.185
949.99	0.185
950.16	0.187
950.33	0.188
950.51	0.190
950.68	0.191
950.85	0.192
951.02	0.193
951.20	0.194
951.37	0.196
951.54	0.196
951.71	0.197
951.88	0.199
952.06	0.200
952.23	0.200
952.40	0.202
952.57	0.203
952.74	0.204
952.92	0.205
953.09	0.207
953.26	0.208
953.43	0.209
953.60	0.210
953.77	0.211
953.95	0.212
954.12	0.214
954.29	0.214
954.46	0.216
954.63	0.217
954.81	0.218
954.98	0.219
955.15	0.221
955.32	0.222
955.49	0.222
955.66	0.224
955.84	0.225
956.01	0.225
956.18	0.227
956.35	0.229
956.52	0.229
956.69	0.231
956.87	0.231
957.04	0.232
957.21	0.235
957.38	0.234
957.55	0.235
957.72	0.236
957.89	0.237
958.07	0.238
958.24	0.240
958.41	0.242
958.58	0.241
958.75	0.242
958.92	0.243
959.09	0.244
959.26	0.245
959.44	0.246
959.61	0.247
959.78	0.248
959.95	0.249
960.12	0.249
960.29	0.251
960.46	0.251
960.63	0.251
960.81	0.251
960.98	0.251
961.15	0.251
961.32	0.252
961.49	0.251
961.66	0.253
961.83	0.253
962.00	0.253
962.17	0.255
962.34	0.254
962.52	0.256
962.69	0.257
962.86	0.257
963.03	0.258
963.20	0.258
963.37	0.258
963.54	0.259
963.71	0.258
963.88	0.258
964.05	0.259
964.22	0.260
964.39	0.259
964.56	0.259
964.74	0.260
964.91	0.260
965.08	0.260
965.25	0.261
965.42	0.261
965.59	0.263
965.76	0.262
965.93	0.264
966.10	0.262
966.27	0.263
966.44	0.262
966.61	0.264
966.78	0.263
966.95	0.262
967.12	0.263
967.29	0.265
967.46	0.263
967.63	0.263
967.80	0.263
967.97	0.262
968.14	0.262
968.32	0.262
968.49	0.262
968.66	0.262
968.83	0.263
969.00	0.263
969.17	0.262
969.34	0.264
969.51	0.265
969.68	0.263
969.85	0.264
970.02	0.264
970.19	0.264
970.36	0.265
970.53	0.265
970.70	0.264
970.87	0.264
971.04	0.263
971.21	0.264
971.38	0.264
971.55	0.265
971.72	0.265
971.89	0.266
972.06	0.265
972.23	0.265
972.40	0.265
972.57	0.264
972.74	0.264
972.91	0.265
973.07	0.265
973.24	0.264
973.41	0.265
973.58	0.263
973.75	0.276
973.92	0.264
974.09	0.264
974.26	0.264
974.43	0.263
974.60	0.264
974.77	0.265
974.94	0.264
975.11	0.265
975.28	0.266
975.45	0.264
975.62	0.265
975.79	0.266
975.96	0.264
976.13	0.263
976.30	0.265
976.47	0.263
976.64	0.264
976.80	0.265
976.97	0.264
977.14	0.264
977.31	0.264
977.48	0.265
977.65	0.264
977.82	0.263
977.99	0.265
978.16	0.264
978.33	0.265
978.50	0.263
978.67	0.263
978.83	0.263
979.00	0.263
979.17	0.263
979.34	0.262
979.51	0.262
979.68	0.263
979.85	0.261
980.02	0.262
980.19	0.259
980.36	0.261
980.52	0.262
980.69	0.260
980.86	0.260
981.03	0.259
981.20	0.258
981.37	0.259
981.54	0.259
981.71	0.259
981.88	0.260
982.04	0.260
982.21	0.259
982.38	0.261
982.55	0.260
982.72	0.259
982.89	0.260
983.06	0.259
983.22	0.259
983.39	0.259
983.56	0.258
983.73	0.257
983.90	0.256
984.07	0.258
984.24	0.256
984.40	0.256
984.57	0.254
984.74	0.256
984.91	0.257
985.08	0.254
985.25	0.252
985.41	0.254
985.58	0.253
985.75	0.254
985.92	0.253
986.09	0.252
986.26	0.252
986.42	0.251
986.59	0.250
986.76	0.252
986.93	0.252
987.10	0.252
987.27	0.250
987.43	0.249
987.60	0.250
987.77	0.250
987.94	0.249
988.11	0.250
988.27	0.250
988.44	0.249
988.61	0.248
988.78	0.246
988.95	0.247
989.11	0.248
989.28	0.247
989.45	0.247
989.62	0.246
989.79	0.247
989.95	0.246
990.12	0.247
990.29	0.246
990.46	0.244
990.62	0.243
990.79	0.243
990.96	0.243
991.13	0.243
991.30	0.242
991.46	0.241
991.63	0.240
991.80	0.239
991.97	0.239
992.13	0.240
992.30	0.241
992.47	0.239
992.64	0.239
992.80	0.239
992.97	0.240
993.14	0.237
993.31	0.235
993.47	0.237
993.64	0.235
993.81	0.234
993.98	0.234
994.14	0.233
994.31	0.234
994.48	0.235
994.64	0.235
994.81	0.233
994.98	0.233
995.15	0.230
995.31	0.231
995.48	0.230
995.65	0.233
995.82	0.230
995.98	0.229
996.15	0.229
996.32	0.231
996.48	0.229
996.65	0.229
996.82	0.227
996.99	0.227
997.15	0.227
997.32	0.228
997.49	0.226
997.65	0.228
997.82	0.227
997.99	0.225
998.15	0.225
998.32	0.226
998.49	0.225
998.65	0.225
998.82	0.225
998.99	0.223
999.15	0.224
999.32	0.223
999.49	0.223
999.65	0.223
999.82	0.221
999.99	0.221
1000.15	0.220
1000.32	0.221
1000.49	0.222
1000.65	0.220
1000.82	0.219
1000.99	0.220
1001.15	0.220
1001.32	0.219
1001.49	0.219
1001.65	0.219
1001.82	0.221
1001.99	0.218
1002.15	0.216
1002.32	0.216
1002.49	0.216
1002.65	0.215
1002.82	0.212
1002.99	0.212
1003.15	0.214
1003.32	0.213
1003.48	0.213
1003.65	0.213
1003.82	0.212
1003.98	0.210
1004.15	0.210
1004.32	0.210
1004.48	0.210
1004.65	0.212
1004.81	0.209
1004.98	0.208
1005.15	0.209
1005.31	0.208
1005.48	0.206
1005.64	0.206
1005.81	0.209
1005.98	0.205
1006.14	0.205
1006.31	0.205
1006.47	0.203
1006.64	0.202
1006.81	0.202
1006.97	0.201
1007.14	0.201
1007.30	0.202
1007.47	0.202
1007.63	0.200
1007.80	0.198
1007.97	0.198
1008.13	0.199
1008.30	0.199
1008.46	0.200
1008.63	0.198
1008.79	0.199
1008.96	0.199
1009.13	0.200
1009.29	0.198
1009.46	0.198
1009.62	0.198
1009.79	0.196
1009.95	0.196
1010.12	0.197
1010.28	0.196
1010.45	0.195
1010.62	0.194
1010.78	0.193
1010.95	0.191
1011.11	0.192
1011.28	0.191
1011.44	0.193
1011.61	0.191
1011.77	0.190
1011.94	0.190
1012.10	0.190
1012.27	0.190
1012.43	0.190
1012.60	0.189
1012.76	0.189
1012.93	0.188
1013.10	0.186
1013.26	0.183
1013.43	0.185
1013.59	0.193
1013.76	0.185
1013.92	0.184
1014.09	0.183
1014.25	0.184
1014.42	0.184
1014.58	0.184
1014.75	0.186
1014.91	0.185
1015.08	0.187
1015.24	0.184
1015.41	0.185
1015.57	0.185
1015.73	0.183
1015.90	0.182
1016.06	0.183
1016.23	0.182
1016.39	0.182
1016.56	0.182
1016.72	0.181
1016.89	0.181
1017.05	0.183
1017.22	0.179
1017.38	0.179
1017.55	0.177
1017.71	0.178
1017.88	0.177
1018.04	0.178
1018.21	0.175
1018.37	0.175
1018.53	0.174
1018.70	0.173
1018.86	0.173
1019.03	0.175
1019.19	0.175
1019.36	0.175
1019.52	0.176
1019.69	0.177
1019.85	0.176
1020.01	0.176
1020.18	0.175
1020.34	0.175
1020.51	0.174
1020.67	0.175
1020.84	0.172
1021.00	0.173
1021.16	0.169
1021.33	0.170
1021.49	0.169
1021.66	0.170
1021.82	0.168
1021.98	0.168
1022.15	0.167
1022.31	0.166
1022.48	0.165
1022.64	0.167
1022.80	0.165
1022.97	0.164
1023.13	0.164
1023.30	0.163
1023.46	0.164
1023.62	0.162
1023.79	0.163
1023.95	0.165
1024.12	0.164
1024.28	0.163
1024.44	0.163
1024.61	0.163
1024.77	0.162
1024.93	0.161
1025.10	0.163
1025.26	0.161
1025.43	0.161
1025.59	0.157
1025.75	0.161
1025.92	0.160
1026.08	0.159
1026.24	0.159
1026.41	0.160
1026.57	0.158
1026.73	0.156
1026.90	0.157
1027.06	0.155
1027.23	0.157
1027.39	0.157
1027.55	0.157
1027.72	0.155
1027.88	0.155
1028.04	0.156
1028.21	0.155
1028.37	0.149
1028.53	0.155
1028.70	0.153
1028.86	0.152
1029.02	0.152
1029.19	0.152
1029.35	0.150
1029.51	0.150
1029.67	0.149
1029.84	0.150
1030.00	0.146
1030.16	0.146
1030.33	0.148
1030.49	0.144
1030.65	0.142
1030.82	0.158
1030.98	0.145
1031.14	0.145
1031.31	0.146
1031.47	0.144
1031.63	0.147
1031.79	0.145
1031.96	0.147
1032.12	0.148
1032.28	0.146
1032.45	0.150
1032.61	0.148
1032.77	0.147
1032.93	0.145
1033.10	0.145
1033.26	0.147
1033.42	0.144
1033.58	0.146
1033.75	0.146
1033.91	0.145
1034.07	0.147
1034.24	0.145
1034.40	0.144
1034.56	0.143
1034.72	0.144
1034.89	0.144
1035.05	0.143
1035.21	0.142
1035.37	0.140
1035.54	0.144
1035.70	0.142
1035.86	0.141
1036.02	0.143
1036.19	0.142
1036.35	0.140
1036.51	0.145
1036.67	0.143
1036.83	0.143
1037.00	0.142
1037.16	0.142
1037.32	0.143
1037.48	0.142
1037.65	0.147
1037.81	0.141
1037.97	0.141
1038.13	0.141
1038.29	0.138
1038.46	0.136
1038.62	0.140
1038.78	0.138
1038.94	0.135
1039.10	0.139
1039.27	0.134
1039.43	0.136
1039.59	0.137
1039.75	0.136
1039.91	0.135
1040.08	0.135
1040.24	0.138
1040.40	0.140
1040.56	0.139
1040.72	0.133
1040.89	0.136
1041.05	0.138
1041.21	0.137
1041.37	0.134
1041.53	0.141
1041.69	0.138
1041.86	0.137
1042.02	0.134
1042.18	0.133
1042.34	0.134
1042.50	0.138
1042.66	0.134
1042.83	0.133
1042.99	0.135
1043.15	0.129
1043.31	0.129
1043.47	0.132
1043.63	0.131
1043.79	0.130
1043.96	0.130
1044.12	0.134
1044.28	0.131
1044.44	0.133
1044.60	0.128
1044.76	0.127
1044.92	0.131
1045.09	0.132
1045.25	0.129
1045.41	0.128
1045.57	0.124
1045.73	0.123
1045.89	0.124
1046.05	0.126
1046.21	0.125
1046.38	0.130
1046.54	0.130
1046.70	0.130
1046.86	0.125
>>>>>End Processed Spectral Data<<<<<
