SpectraSuite Data File
++++++++++++++++++++++++++++++++++++
Date: Mon May 20 12:13:38 CDT 2013
User: Students
Dark Spectrum Present: Yes
Reference Spectrum Present: Yes
Number of Sampled Component Spectra: 1
Spectrometers: USB4H00887
Integration Time (usec): 60000 (USB4H00887)
Spectra Averaged: 5 (USB4H00887)
Boxcar Smoothing: 5 (USB4H00887)
Correct for Electrical Dark: No (USB4H00887)
Strobe/Lamp Enabled: No (USB4H00887)
Correct for Detector Non-linearity: No (USB4H00887)
Correct for Stray Light: No (USB4H00887)
Number of Pixels in Processed Spectrum: 3648
>>>>>Begin Processed Spectral Data<<<<<
345.83	0.232
346.05	0.232
346.26	0.232
346.48	-0.000
346.70	0.176
346.92	0.014
347.14	0.038
347.35	0.047
347.57	0.340
347.79	-0.238
348.01	-0.185
348.23	-0.341
348.44	-0.000
348.66	0.319
348.88	-0.411
349.10	-0.172
349.32	0.077
349.53	-0.010
349.75	-0.036
349.97	0.006
350.19	0.049
350.41	0.089
350.62	-0.330
350.84	0.036
351.06	0.037
351.28	0.027
351.50	0.054
351.71	0.143
351.93	0.069
352.15	0.032
352.37	0.076
352.58	0.038
352.80	0.040
353.02	0.078
353.24	0.100
353.46	1.100
353.67	-0.246
353.89	0.083
354.11	0.054
354.33	0.076
354.54	0.113
354.76	0.185
354.98	0.243
355.20	0.185
355.41	0.056
355.63	0.129
355.85	0.056
356.07	0.779
356.28	0.064
356.50	0.138
356.72	0.062
356.94	0.180
357.15	0.318
357.37	-0.000
357.59	0.180
357.81	0.127
358.02	0.196
358.24	0.134
358.46	0.295
358.68	0.281
358.89	0.140
359.11	-0.000
359.33	0.124
359.55	-0.608
359.76	0.144
359.98	0.162
360.20	0.205
360.42	0.158
360.63	0.190
360.85	0.142
361.07	1.673
361.29	0.127
361.50	0.442
361.72	0.145
361.94	0.791
362.15	0.216
362.37	0.127
362.59	0.114
362.81	0.185
363.02	0.308
363.24	0.413
363.46	0.213
363.68	0.279
363.89	0.163
364.11	0.202
364.33	0.296
364.54	0.171
364.76	0.198
364.98	0.180
365.20	0.225
365.41	0.135
365.63	0.161
365.85	0.106
366.06	0.351
366.28	0.343
366.50	0.269
366.71	0.087
366.93	0.138
367.15	0.135
367.37	0.143
367.58	0.173
367.80	0.224
368.02	1.189
368.23	0.240
368.45	0.239
368.67	0.220
368.88	0.202
369.10	-0.000
369.32	0.221
369.53	0.120
369.75	0.179
369.97	0.531
370.19	0.259
370.40	0.092
370.62	0.241
370.84	0.094
371.05	0.446
371.27	0.104
371.49	0.133
371.70	0.123
371.92	0.228
372.14	0.113
372.35	0.120
372.57	0.131
372.79	0.373
373.00	0.100
373.22	0.178
373.44	0.196
373.65	0.163
373.87	0.227
374.09	-0.000
374.30	0.193
374.52	0.207
374.74	0.149
374.95	0.943
375.17	0.171
375.39	-0.000
375.60	0.173
375.82	0.320
376.04	0.124
376.25	0.125
376.47	0.075
376.68	0.190
376.90	0.122
377.12	0.248
377.33	0.130
377.55	0.328
377.77	0.162
377.98	0.262
378.20	0.149
378.42	0.203
378.63	0.298
378.85	-0.000
379.07	0.182
379.28	0.823
379.50	0.417
379.71	0.213
379.93	0.146
380.15	0.194
380.36	0.278
380.58	0.189
380.80	0.450
381.01	0.140
381.23	0.122
381.44	0.128
381.66	0.146
381.88	0.175
382.09	-0.083
382.31	0.125
382.53	0.129
382.74	0.770
382.96	0.180
383.17	0.162
383.39	0.204
383.61	0.256
383.82	0.183
384.04	0.217
384.25	0.276
384.47	0.238
384.69	0.238
384.90	0.216
385.12	0.449
385.33	0.299
385.55	0.212
385.77	0.342
385.98	0.179
386.20	0.248
386.41	0.218
386.63	0.264
386.85	0.222
387.06	0.259
387.28	0.414
387.49	0.241
387.71	0.176
387.93	0.156
388.14	0.448
388.36	0.193
388.57	0.186
388.79	0.204
389.01	1.322
389.22	0.258
389.44	0.232
389.65	0.189
389.87	0.198
390.08	0.246
390.30	0.193
390.52	0.381
390.73	0.368
390.95	0.252
391.16	0.244
391.38	-0.000
391.59	0.272
391.81	0.227
392.03	0.219
392.24	0.250
392.46	0.211
392.67	0.190
392.89	0.257
393.10	0.384
393.32	0.255
393.53	0.303
393.75	0.192
393.97	0.220
394.18	0.307
394.40	0.269
394.61	0.280
394.83	0.238
395.04	0.278
395.26	0.193
395.47	0.296
395.69	0.239
395.91	0.253
396.12	0.313
396.34	0.318
396.55	0.198
396.77	0.295
396.98	1.079
397.20	0.370
397.41	0.424
397.63	0.292
397.84	0.259
398.06	0.253
398.27	0.255
398.49	0.285
398.71	0.207
398.92	0.252
399.14	0.318
399.35	0.403
399.57	0.370
399.78	0.256
400.00	0.253
400.21	0.328
400.43	0.279
400.64	0.299
400.86	0.691
401.07	0.381
401.29	0.333
401.50	0.367
401.72	0.561
401.93	0.331
402.15	0.392
402.36	0.349
402.58	0.284
402.79	0.303
403.01	0.498
403.22	0.392
403.44	0.255
403.65	0.396
403.87	0.431
404.08	0.339
404.30	0.563
404.51	0.321
404.73	0.397
404.94	0.339
405.16	0.357
405.37	0.277
405.59	0.502
405.80	0.329
406.02	0.433
406.23	0.431
406.45	0.497
406.66	0.537
406.88	0.340
407.09	0.534
407.31	0.426
407.52	0.502
407.74	0.411
407.95	0.481
408.17	0.432
408.38	0.440
408.60	0.283
408.81	0.467
409.03	0.343
409.24	0.342
409.45	0.398
409.67	0.381
409.88	0.352
410.10	0.442
410.31	0.380
410.53	0.368
410.74	0.526
410.96	0.518
411.17	0.551
411.39	0.421
411.60	0.386
411.82	0.441
412.03	0.422
412.24	0.409
412.46	0.602
412.67	0.484
412.89	0.474
413.10	0.468
413.32	0.423
413.53	0.481
413.75	0.508
413.96	0.385
414.17	0.525
414.39	0.522
414.60	0.435
414.82	0.591
415.03	0.450
415.25	0.502
415.46	0.343
415.68	0.497
415.89	1.021
416.10	0.764
416.32	0.401
416.53	0.475
416.75	0.455
416.96	0.544
417.18	0.463
417.39	0.448
417.60	0.455
417.82	0.683
418.03	0.570
418.25	0.476
418.46	0.491
418.67	0.447
418.89	0.483
419.10	0.501
419.32	0.687
419.53	0.626
419.75	0.518
419.96	0.451
420.17	0.555
420.39	0.524
420.60	0.535
420.82	0.664
421.03	0.526
421.24	0.434
421.46	0.483
421.67	0.522
421.89	0.451
422.10	0.488
422.31	0.478
422.53	0.683
422.74	0.505
422.96	0.403
423.17	0.458
423.38	0.564
423.60	0.478
423.81	0.599
424.03	0.518
424.24	0.577
424.45	0.569
424.67	0.570
424.88	0.509
425.09	0.557
425.31	0.515
425.52	0.543
425.74	0.614
425.95	0.674
426.16	0.516
426.38	0.598
426.59	0.548
426.80	0.638
427.02	0.673
427.23	0.521
427.45	0.693
427.66	0.674
427.87	0.516
428.09	0.552
428.30	0.611
428.51	0.596
428.73	0.657
428.94	0.580
429.15	0.555
429.37	0.524
429.58	0.550
429.79	0.510
430.01	0.614
430.22	0.604
430.44	0.625
430.65	0.566
430.86	0.607
431.08	0.590
431.29	0.535
431.50	0.646
431.72	0.893
431.93	0.698
432.14	0.515
432.36	0.565
432.57	0.570
432.78	0.585
433.00	0.538
433.21	0.535
433.42	0.670
433.64	0.589
433.85	0.668
434.06	0.535
434.28	0.568
434.49	0.586
434.70	0.598
434.92	0.616
435.13	0.668
435.34	0.678
435.56	0.638
435.77	0.628
435.98	0.823
436.20	0.676
436.41	0.583
436.62	0.574
436.83	0.655
437.05	0.747
437.26	0.649
437.47	0.573
437.69	0.629
437.90	0.582
438.11	0.575
438.33	0.622
438.54	0.641
438.75	0.830
438.97	0.809
439.18	0.604
439.39	0.634
439.60	0.687
439.82	0.639
440.03	0.585
440.24	0.856
440.46	0.638
440.67	0.618
440.88	0.663
441.10	0.617
441.31	0.624
441.52	0.676
441.73	0.750
441.95	0.666
442.16	0.618
442.37	0.999
442.58	0.613
442.80	0.599
443.01	0.781
443.22	0.709
443.44	0.601
443.65	0.705
443.86	0.705
444.07	0.763
444.29	0.647
444.50	0.815
444.71	0.620
444.92	0.574
445.14	0.728
445.35	0.767
445.56	0.613
445.78	0.734
445.99	0.730
446.20	0.626
446.41	0.710
446.63	0.722
446.84	0.687
447.05	0.688
447.26	0.833
447.48	0.709
447.69	0.672
447.90	0.763
448.11	0.666
448.33	0.690
448.54	0.714
448.75	0.742
448.96	0.751
449.18	0.797
449.39	0.710
449.60	0.695
449.81	0.837
450.03	0.715
450.24	0.781
450.45	0.737
450.66	0.722
450.87	0.750
451.09	0.701
451.30	0.679
451.51	0.749
451.72	0.753
451.94	0.773
452.15	0.838
452.36	0.700
452.57	0.719
452.78	0.717
453.00	0.748
453.21	0.707
453.42	0.680
453.63	0.779
453.85	0.746
454.06	0.739
454.27	0.868
454.48	0.774
454.69	0.701
454.91	0.774
455.12	0.673
455.33	0.759
455.54	0.774
455.75	0.747
455.97	0.775
456.18	0.764
456.39	0.773
456.60	0.804
456.81	0.739
457.03	0.749
457.24	0.746
457.45	0.848
457.66	0.792
457.87	0.746
458.09	0.771
458.30	0.681
458.51	0.814
458.72	0.841
458.93	0.854
459.15	0.757
459.36	0.821
459.57	0.850
459.78	0.900
459.99	0.789
460.20	0.748
460.42	0.832
460.63	0.786
460.84	0.766
461.05	0.785
461.26	0.841
461.47	0.753
461.69	0.817
461.90	0.854
462.11	0.810
462.32	0.880
462.53	0.809
462.74	0.917
462.96	0.786
463.17	0.779
463.38	0.829
463.59	0.957
463.80	0.781
464.01	0.800
464.23	0.892
464.44	0.844
464.65	0.847
464.86	0.876
465.07	0.877
465.28	0.836
465.49	0.858
465.71	0.808
465.92	0.851
466.13	0.902
466.34	0.836
466.55	0.891
466.76	0.853
466.97	0.876
467.19	0.864
467.40	0.909
467.61	0.915
467.82	0.827
468.03	0.804
468.24	0.875
468.45	0.912
468.66	0.889
468.88	0.896
469.09	0.896
469.30	0.958
469.51	0.878
469.72	0.919
469.93	0.886
470.14	0.864
470.35	0.964
470.57	0.909
470.78	0.842
470.99	0.988
471.20	0.922
471.41	0.875
471.62	0.922
471.83	0.890
472.04	0.923
472.25	0.964
472.47	0.879
472.68	0.889
472.89	0.893
473.10	0.943
473.31	0.884
473.52	0.950
473.73	0.973
473.94	0.894
474.15	0.921
474.36	0.922
474.57	0.953
474.79	0.924
475.00	0.919
475.21	0.904
475.42	1.001
475.63	0.898
475.84	0.927
476.05	0.933
476.26	0.898
476.47	0.934
476.68	0.978
476.89	0.901
477.10	0.953
477.32	0.942
477.53	0.995
477.74	0.911
477.95	0.955
478.16	0.906
478.37	0.949
478.58	0.950
478.79	0.964
479.00	0.966
479.21	0.925
479.42	0.965
479.63	0.972
479.84	0.934
480.05	0.931
480.26	0.959
480.47	0.983
480.69	0.985
480.90	0.952
481.11	0.953
481.32	1.017
481.53	0.952
481.74	1.010
481.95	0.970
482.16	0.987
482.37	0.999
482.58	0.963
482.79	0.976
483.00	1.005
483.21	0.947
483.42	0.914
483.63	0.997
483.84	1.028
484.05	1.013
484.26	0.982
484.47	0.987
484.68	0.946
484.89	0.953
485.10	1.005
485.31	0.985
485.52	0.995
485.73	0.997
485.94	1.035
486.15	0.977
486.37	0.996
486.58	0.960
486.79	0.969
487.00	1.020
487.21	1.011
487.42	1.005
487.63	1.012
487.84	1.028
488.05	1.023
488.26	0.983
488.47	0.989
488.68	1.017
488.89	0.993
489.10	0.988
489.31	0.999
489.52	1.034
489.73	1.000
489.94	1.036
490.15	0.993
490.36	1.036
490.57	0.984
490.78	0.969
490.99	1.010
491.20	1.092
491.41	1.045
491.62	0.982
491.83	1.013
492.04	1.007
492.25	1.014
492.45	1.012
492.66	1.039
492.87	1.027
493.08	1.016
493.29	1.000
493.50	0.986
493.71	0.994
493.92	0.990
494.13	1.005
494.34	1.028
494.55	1.036
494.76	1.065
494.97	1.056
495.18	1.017
495.39	1.032
495.60	0.981
495.81	0.985
496.02	1.005
496.23	1.001
496.44	1.035
496.65	1.026
496.86	1.032
497.07	1.062
497.28	1.057
497.49	1.005
497.70	1.004
497.91	1.025
498.12	1.010
498.32	1.057
498.53	1.039
498.74	1.028
498.95	1.056
499.16	1.008
499.37	1.013
499.58	1.020
499.79	1.050
500.00	1.049
500.21	1.080
500.42	1.016
500.63	1.015
500.84	1.037
501.05	1.013
501.26	1.040
501.46	1.079
501.67	1.038
501.88	1.044
502.09	1.019
502.30	1.030
502.51	1.081
502.72	1.036
502.93	1.053
503.14	1.077
503.35	1.049
503.56	1.045
503.77	1.078
503.97	1.054
504.18	1.050
504.39	1.088
504.60	1.050
504.81	1.080
505.02	1.066
505.23	1.067
505.44	1.044
505.65	1.050
505.86	1.028
506.07	1.098
506.27	1.053
506.48	1.062
506.69	1.047
506.90	1.071
507.11	1.065
507.32	1.040
507.53	1.048
507.74	1.039
507.95	1.052
508.15	1.060
508.36	1.065
508.57	1.079
508.78	1.059
508.99	1.057
509.20	1.029
509.41	1.055
509.62	1.046
509.82	1.044
510.03	1.058
510.24	1.058
510.45	1.081
510.66	1.073
510.87	1.065
511.08	1.025
511.29	1.068
511.49	1.044
511.70	1.095
511.91	1.026
512.12	1.023
512.33	1.058
512.54	1.074
512.75	1.058
512.95	1.086
513.16	1.076
513.37	1.051
513.58	1.091
513.79	1.054
514.00	1.058
514.20	1.077
514.41	1.064
514.62	1.029
514.83	1.070
515.04	1.060
515.25	1.038
515.46	1.053
515.66	1.056
515.87	1.070
516.08	1.036
516.29	1.061
516.50	1.040
516.71	1.037
516.91	1.046
517.12	1.066
517.33	1.049
517.54	1.032
517.75	1.036
517.95	1.048
518.16	1.063
518.37	1.029
518.58	1.037
518.79	1.007
519.00	1.037
519.20	1.050
519.41	1.023
519.62	1.046
519.83	1.056
520.04	1.017
520.24	1.016
520.45	1.021
520.66	1.044
520.87	1.004
521.08	1.006
521.28	1.009
521.49	1.025
521.70	0.992
521.91	1.004
522.12	0.988
522.32	1.010
522.53	0.991
522.74	0.982
522.95	0.994
523.16	0.996
523.36	1.003
523.57	0.985
523.78	0.980
523.99	0.985
524.20	0.979
524.40	0.993
524.61	1.002
524.82	0.974
525.03	0.978
525.23	0.978
525.44	0.961
525.65	0.960
525.86	0.983
526.06	0.954
526.27	0.955
526.48	0.965
526.69	0.945
526.90	0.948
527.10	0.986
527.31	0.939
527.52	0.933
527.73	0.925
527.93	0.935
528.14	0.941
528.35	0.928
528.56	0.929
528.76	0.921
528.97	0.911
529.18	0.901
529.39	0.901
529.59	0.906
529.80	0.937
530.01	0.909
530.22	0.908
530.42	0.878
530.63	0.897
530.84	0.873
531.05	0.889
531.25	0.893
531.46	0.887
531.67	0.863
531.88	0.881
532.08	0.875
532.29	0.871
532.50	0.863
532.70	0.855
532.91	0.844
533.12	0.849
533.33	0.874
533.53	0.843
533.74	0.842
533.95	0.848
534.15	0.836
534.36	0.837
534.57	0.820
534.78	0.822
534.98	0.833
535.19	0.803
535.40	0.804
535.60	0.823
535.81	0.801
536.02	0.806
536.23	0.797
536.43	0.799
536.64	0.785
536.85	0.794
537.05	0.803
537.26	0.779
537.47	0.784
537.67	0.772
537.88	0.766
538.09	0.774
538.30	0.762
538.50	0.754
538.71	0.765
538.92	0.752
539.12	0.747
539.33	0.742
539.54	0.742
539.74	0.745
539.95	0.736
540.16	0.734
540.36	0.725
540.57	0.724
540.78	0.717
540.98	0.717
541.19	0.715
541.40	0.702
541.60	0.712
541.81	0.707
542.02	0.708
542.22	0.698
542.43	0.693
542.64	0.688
542.84	0.688
543.05	0.678
543.26	0.677
543.46	0.681
543.67	0.679
543.88	0.674
544.08	0.662
544.29	0.657
544.50	0.657
544.70	0.658
544.91	0.649
545.12	0.650
545.32	0.645
545.53	0.650
545.74	0.638
545.94	0.636
546.15	0.634
546.35	0.632
546.56	0.628
546.77	0.624
546.97	0.620
547.18	0.613
547.39	0.614
547.59	0.613
547.80	0.608
548.01	0.612
548.21	0.607
548.42	0.599
548.62	0.598
548.83	0.595
549.04	0.592
549.24	0.585
549.45	0.584
549.65	0.580
549.86	0.574
550.07	0.574
550.27	0.571
550.48	0.578
550.69	0.564
550.89	0.564
551.10	0.561
551.30	0.558
551.51	0.558
551.72	0.548
551.92	0.549
552.13	0.549
552.33	0.550
552.54	0.544
552.75	0.537
552.95	0.538
553.16	0.532
553.36	0.529
553.57	0.528
553.78	0.526
553.98	0.526
554.19	0.517
554.39	0.514
554.60	0.517
554.80	0.517
555.01	0.509
555.22	0.511
555.42	0.508
555.63	0.501
555.83	0.504
556.04	0.497
556.25	0.499
556.45	0.491
556.66	0.488
556.86	0.491
557.07	0.489
557.27	0.488
557.48	0.482
557.68	0.480
557.89	0.481
558.10	0.478
558.30	0.475
558.51	0.473
558.71	0.471
558.92	0.466
559.12	0.468
559.33	0.471
559.54	0.466
559.74	0.462
559.95	0.460
560.15	0.459
560.36	0.457
560.56	0.451
560.77	0.452
560.97	0.451
561.18	0.446
561.38	0.445
561.59	0.448
561.79	0.443
562.00	0.440
562.21	0.437
562.41	0.436
562.62	0.434
562.82	0.432
563.03	0.429
563.23	0.428
563.44	0.427
563.64	0.424
563.85	0.425
564.05	0.418
564.26	0.418
564.46	0.417
564.67	0.417
564.87	0.413
565.08	0.410
565.28	0.409
565.49	0.410
565.69	0.407
565.90	0.403
566.10	0.405
566.31	0.398
566.51	0.400
566.72	0.401
566.92	0.395
567.13	0.394
567.33	0.393
567.54	0.393
567.74	0.392
567.95	0.388
568.15	0.389
568.36	0.389
568.56	0.388
568.77	0.382
568.97	0.379
569.18	0.379
569.38	0.378
569.59	0.378
569.79	0.375
570.00	0.372
570.20	0.371
570.41	0.370
570.61	0.368
570.82	0.369
571.02	0.365
571.23	0.367
571.43	0.363
571.64	0.361
571.84	0.360
572.05	0.359
572.25	0.358
572.45	0.356
572.66	0.352
572.86	0.351
573.07	0.350
573.27	0.350
573.48	0.349
573.68	0.345
573.89	0.345
574.09	0.346
574.30	0.344
574.50	0.342
574.70	0.342
574.91	0.339
575.11	0.339
575.32	0.338
575.52	0.334
575.73	0.334
575.93	0.333
576.14	0.332
576.34	0.330
576.54	0.329
576.75	0.327
576.95	0.327
577.16	0.325
577.36	0.323
577.57	0.323
577.77	0.322
577.97	0.319
578.18	0.320
578.38	0.317
578.59	0.315
578.79	0.314
579.00	0.315
579.20	0.313
579.40	0.312
579.61	0.311
579.81	0.310
580.02	0.308
580.22	0.307
580.42	0.306
580.63	0.306
580.83	0.305
581.04	0.302
581.24	0.301
581.45	0.300
581.65	0.300
581.85	0.299
582.06	0.296
582.26	0.296
582.47	0.295
582.67	0.295
582.87	0.293
583.08	0.291
583.28	0.291
583.48	0.289
583.69	0.287
583.89	0.287
584.10	0.288
584.30	0.285
584.50	0.284
584.71	0.283
584.91	0.282
585.12	0.280
585.32	0.282
585.52	0.279
585.73	0.278
585.93	0.277
586.13	0.276
586.34	0.275
586.54	0.274
586.75	0.273
586.95	0.272
587.15	0.272
587.36	0.270
587.56	0.269
587.76	0.268
587.97	0.267
588.17	0.266
588.37	0.266
588.58	0.266
588.78	0.263
588.98	0.263
589.19	0.262
589.39	0.260
589.60	0.262
589.80	0.259
590.00	0.259
590.21	0.258
590.41	0.257
590.61	0.257
590.82	0.256
591.02	0.255
591.22	0.253
591.43	0.254
591.63	0.252
591.83	0.251
592.04	0.250
592.24	0.250
592.44	0.247
592.65	0.246
592.85	0.246
593.05	0.246
593.26	0.245
593.46	0.245
593.66	0.244
593.86	0.243
594.07	0.241
594.27	0.241
594.47	0.240
594.68	0.240
594.88	0.240
595.08	0.240
595.29	0.240
595.49	0.238
595.69	0.237
595.90	0.236
596.10	0.236
596.30	0.235
596.50	0.234
596.71	0.233
596.91	0.232
597.11	0.232
597.32	0.231
597.52	0.230
597.72	0.229
597.93	0.229
598.13	0.227
598.33	0.227
598.53	0.227
598.74	0.226
598.94	0.226
599.14	0.226
599.35	0.226
599.55	0.226
599.75	0.225
599.95	0.224
600.16	0.225
600.36	0.223
600.56	0.223
600.76	0.222
600.97	0.220
601.17	0.220
601.37	0.220
601.58	0.219
601.78	0.219
601.98	0.218
602.18	0.216
602.39	0.216
602.59	0.216
602.79	0.215
602.99	0.215
603.20	0.213
603.40	0.214
603.60	0.213
603.80	0.212
604.01	0.212
604.21	0.211
604.41	0.210
604.61	0.209
604.82	0.209
605.02	0.209
605.22	0.208
605.42	0.207
605.62	0.207
605.83	0.206
606.03	0.205
606.23	0.206
606.43	0.205
606.64	0.205
606.84	0.204
607.04	0.204
607.24	0.204
607.45	0.204
607.65	0.203
607.85	0.204
608.05	0.202
608.25	0.201
608.46	0.201
608.66	0.201
608.86	0.200
609.06	0.199
609.26	0.198
609.47	0.199
609.67	0.198
609.87	0.198
610.07	0.198
610.28	0.196
610.48	0.196
610.68	0.196
610.88	0.195
611.08	0.195
611.29	0.194
611.49	0.193
611.69	0.194
611.89	0.192
612.09	0.192
612.29	0.191
612.50	0.191
612.70	0.191
612.90	0.190
613.10	0.190
613.30	0.189
613.51	0.189
613.71	0.189
613.91	0.193
614.11	0.188
614.31	0.188
614.51	0.187
614.72	0.186
614.92	0.186
615.12	0.186
615.32	0.186
615.52	0.186
615.72	0.186
615.93	0.186
616.13	0.185
616.33	0.185
616.53	0.184
616.73	0.185
616.93	0.184
617.14	0.184
617.34	0.184
617.54	0.184
617.74	0.184
617.94	0.182
618.14	0.182
618.34	0.181
618.55	0.180
618.75	0.181
618.95	0.181
619.15	0.181
619.35	0.179
619.55	0.179
619.75	0.180
619.96	0.179
620.16	0.179
620.36	0.179
620.56	0.178
620.76	0.178
620.96	0.178
621.16	0.177
621.36	0.177
621.57	0.177
621.77	0.177
621.97	0.176
622.17	0.175
622.37	0.175
622.57	0.175
622.77	0.175
622.97	0.174
623.18	0.174
623.38	0.174
623.58	0.174
623.78	0.173
623.98	0.173
624.18	0.172
624.38	0.172
624.58	0.172
624.78	0.172
624.98	0.172
625.19	0.171
625.39	0.171
625.59	0.171
625.79	0.171
625.99	0.171
626.19	0.171
626.39	0.170
626.59	0.170
626.79	0.169
626.99	0.169
627.19	0.169
627.40	0.169
627.60	0.169
627.80	0.169
628.00	0.168
628.20	0.168
628.40	0.167
628.60	0.168
628.80	0.167
629.00	0.167
629.20	0.166
629.40	0.166
629.60	0.165
629.80	0.165
630.00	0.165
630.20	0.165
630.41	0.164
630.61	0.164
630.81	0.164
631.01	0.164
631.21	0.163
631.41	0.163
631.61	0.164
631.81	0.163
632.01	0.163
632.21	0.163
632.41	0.161
632.61	0.161
632.81	0.161
633.01	0.162
633.21	0.161
633.41	0.162
633.61	0.161
633.81	0.160
634.01	0.159
634.21	0.160
634.41	0.159
634.61	0.159
634.81	0.159
635.01	0.158
635.22	0.158
635.42	0.158
635.62	0.158
635.82	0.158
636.02	0.158
636.22	0.158
636.42	0.157
636.62	0.158
636.82	0.157
637.02	0.157
637.22	0.158
637.42	0.157
637.62	0.156
637.82	0.156
638.02	0.155
638.22	0.155
638.42	0.155
638.62	0.154
638.82	0.154
639.02	0.154
639.22	0.153
639.42	0.153
639.62	0.153
639.82	0.153
640.02	0.153
640.22	0.152
640.42	0.153
640.62	0.153
640.82	0.153
641.02	0.152
641.22	0.153
641.42	0.152
641.61	0.153
641.81	0.152
642.01	0.152
642.21	0.152
642.41	0.152
642.61	0.152
642.81	0.151
643.01	0.150
643.21	0.150
643.41	0.150
643.61	0.150
643.81	0.149
644.01	0.148
644.21	0.148
644.41	0.148
644.61	0.148
644.81	0.148
645.01	0.148
645.21	0.148
645.41	0.147
645.61	0.147
645.81	0.147
646.01	0.147
646.21	0.148
646.40	0.147
646.60	0.147
646.80	0.148
647.00	0.147
647.20	0.146
647.40	0.146
647.60	0.146
647.80	0.146
648.00	0.146
648.20	0.145
648.40	0.144
648.60	0.144
648.80	0.144
649.00	0.144
649.20	0.144
649.39	0.144
649.59	0.143
649.79	0.143
649.99	0.142
650.19	0.142
650.39	0.141
650.59	0.142
650.79	0.141
650.99	0.141
651.19	0.140
651.39	0.140
651.58	0.140
651.78	0.140
651.98	0.139
652.18	0.139
652.38	0.139
652.58	0.140
652.78	0.139
652.98	0.139
653.18	0.139
653.38	0.139
653.57	0.139
653.77	0.139
653.97	0.139
654.17	0.139
654.37	0.138
654.57	0.139
654.77	0.138
654.97	0.138
655.16	0.137
655.36	0.137
655.56	0.136
655.76	0.136
655.96	0.136
656.16	0.135
656.36	0.135
656.56	0.135
656.75	0.135
656.95	0.135
657.15	0.135
657.35	0.135
657.55	0.134
657.75	0.134
657.95	0.134
658.14	0.134
658.34	0.134
658.54	0.134
658.74	0.134
658.94	0.133
659.14	0.133
659.34	0.133
659.53	0.132
659.73	0.132
659.93	0.132
660.13	0.131
660.33	0.131
660.53	0.131
660.72	0.131
660.92	0.131
661.12	0.130
661.32	0.130
661.52	0.130
661.72	0.129
661.91	0.129
662.11	0.129
662.31	0.129
662.51	0.129
662.71	0.129
662.90	0.128
663.10	0.128
663.30	0.128
663.50	0.128
663.70	0.128
663.90	0.128
664.09	0.127
664.29	0.127
664.49	0.127
664.69	0.127
664.89	0.127
665.08	0.127
665.28	0.126
665.48	0.126
665.68	0.125
665.88	0.125
666.07	0.125
666.27	0.125
666.47	0.125
666.67	0.125
666.87	0.125
667.06	0.124
667.26	0.124
667.46	0.124
667.66	0.124
667.85	0.125
668.05	0.125
668.25	0.124
668.45	0.124
668.65	0.124
668.84	0.124
669.04	0.123
669.24	0.123
669.44	0.122
669.63	0.122
669.83	0.122
670.03	0.121
670.23	0.120
670.42	0.120
670.62	0.120
670.82	0.119
671.02	0.119
671.22	0.119
671.41	0.118
671.61	0.119
671.81	0.119
672.01	0.119
672.20	0.119
672.40	0.119
672.60	0.118
672.80	0.119
672.99	0.119
673.19	0.118
673.39	0.118
673.58	0.118
673.78	0.117
673.98	0.117
674.18	0.116
674.37	0.116
674.57	0.116
674.77	0.117
674.97	0.116
675.16	0.116
675.36	0.116
675.56	0.115
675.75	0.115
675.95	0.115
676.15	0.115
676.35	0.115
676.54	0.115
676.74	0.114
676.94	0.114
677.13	0.114
677.33	0.113
677.53	0.114
677.73	0.114
677.92	0.113
678.12	0.113
678.32	0.112
678.51	0.113
678.71	0.112
678.91	0.112
679.11	0.112
679.30	0.112
679.50	0.112
679.70	0.111
679.89	0.111
680.09	0.111
680.29	0.111
680.48	0.111
680.68	0.110
680.88	0.110
681.07	0.110
681.27	0.110
681.47	0.110
681.66	0.109
681.86	0.109
682.06	0.109
682.25	0.109
682.45	0.109
682.65	0.109
682.84	0.108
683.04	0.108
683.24	0.107
683.43	0.108
683.63	0.108
683.83	0.108
684.02	0.108
684.22	0.108
684.42	0.107
684.61	0.107
684.81	0.107
685.01	0.107
685.20	0.107
685.40	0.107
685.60	0.107
685.79	0.107
685.99	0.107
686.19	0.106
686.38	0.106
686.58	0.106
686.77	0.107
686.97	0.106
687.17	0.106
687.36	0.106
687.56	0.105
687.76	0.105
687.95	0.105
688.15	0.105
688.34	0.105
688.54	0.104
688.74	0.104
688.93	0.103
689.13	0.103
689.33	0.104
689.52	0.103
689.72	0.103
689.91	0.103
690.11	0.103
690.31	0.102
690.50	0.102
690.70	0.103
690.89	0.102
691.09	0.102
691.29	0.102
691.48	0.101
691.68	0.101
691.87	0.101
692.07	0.101
692.27	0.101
692.46	0.100
692.66	0.100
692.85	0.100
693.05	0.100
693.25	0.100
693.44	0.100
693.64	0.100
693.83	0.100
694.03	0.099
694.22	0.099
694.42	0.099
694.62	0.099
694.81	0.099
695.01	0.099
695.20	0.099
695.40	0.098
695.59	0.098
695.79	0.098
695.99	0.098
696.18	0.098
696.38	0.098
696.57	0.098
696.77	0.097
696.96	0.098
697.16	0.097
697.36	0.097
697.55	0.097
697.75	0.097
697.94	0.097
698.14	0.097
698.33	0.096
698.53	0.097
698.72	0.097
698.92	0.097
699.11	0.096
699.31	0.096
699.51	0.096
699.70	0.096
699.90	0.096
700.09	0.096
700.29	0.096
700.48	0.096
700.68	0.096
700.87	0.096
701.07	0.095
701.26	0.095
701.46	0.095
701.65	0.095
701.85	0.095
702.04	0.094
702.24	0.094
702.43	0.095
702.63	0.094
702.82	0.094
703.02	0.094
703.21	0.094
703.41	0.094
703.60	0.093
703.80	0.093
703.99	0.093
704.19	0.093
704.38	0.092
704.58	0.092
704.77	0.092
704.97	0.092
705.16	0.092
705.36	0.092
705.55	0.092
705.75	0.092
705.94	0.092
706.14	0.092
706.33	0.092
706.53	0.092
706.72	0.092
706.92	0.091
707.11	0.091
707.31	0.091
707.50	0.091
707.70	0.091
707.89	0.091
708.09	0.091
708.28	0.091
708.48	0.091
708.67	0.091
708.86	0.091
709.06	0.090
709.25	0.090
709.45	0.090
709.64	0.090
709.84	0.089
710.03	0.089
710.23	0.089
710.42	0.089
710.62	0.089
710.81	0.088
711.00	0.089
711.20	0.089
711.39	0.089
711.59	0.089
711.78	0.089
711.98	0.089
712.17	0.090
712.37	0.089
712.56	0.090
712.75	0.090
712.95	0.090
713.14	0.090
713.34	0.090
713.53	0.090
713.73	0.090
713.92	0.090
714.11	0.090
714.31	0.090
714.50	0.089
714.70	0.089
714.89	0.089
715.08	0.089
715.28	0.089
715.47	0.089
715.67	0.089
715.86	0.089
716.06	0.089
716.25	0.089
716.44	0.088
716.64	0.088
716.83	0.088
717.03	0.087
717.22	0.087
717.41	0.087
717.61	0.087
717.80	0.087
717.99	0.087
718.19	0.087
718.38	0.087
718.58	0.087
718.77	0.087
718.96	0.087
719.16	0.086
719.35	0.086
719.55	0.086
719.74	0.086
719.93	0.086
720.13	0.086
720.32	0.086
720.51	0.086
720.71	0.086
720.90	0.086
721.10	0.086
721.29	0.086
721.48	0.086
721.68	0.086
721.87	0.086
722.06	0.086
722.26	0.086
722.45	0.086
722.64	0.086
722.84	0.086
723.03	0.086
723.22	0.086
723.42	0.086
723.61	0.086
723.80	0.086
724.00	0.086
724.19	0.086
724.38	0.086
724.58	0.086
724.77	0.086
724.96	0.086
725.16	0.086
725.35	0.086
725.54	0.087
725.74	0.087
725.93	0.087
726.12	0.087
726.32	0.087
726.51	0.087
726.70	0.087
726.90	0.087
727.09	0.087
727.28	0.087
727.48	0.087
727.67	0.087
727.86	0.086
728.06	0.086
728.25	0.087
728.44	0.087
728.64	0.086
728.83	0.087
729.02	0.087
729.21	0.087
729.41	0.086
729.60	0.086
729.79	0.086
729.99	0.086
730.18	0.086
730.37	0.086
730.56	0.086
730.76	0.086
730.95	0.085
731.14	0.085
731.34	0.085
731.53	0.086
731.72	0.086
731.91	0.086
732.11	0.086
732.30	0.086
732.49	0.086
732.69	0.087
732.88	0.086
733.07	0.086
733.26	0.087
733.46	0.086
733.65	0.086
733.84	0.086
734.03	0.086
734.23	0.086
734.42	0.086
734.61	0.085
734.80	0.085
735.00	0.086
735.19	0.086
735.38	0.086
735.57	0.086
735.77	0.086
735.96	0.086
736.15	0.086
736.34	0.086
736.54	0.087
736.73	0.087
736.92	0.087
737.11	0.086
737.31	0.086
737.50	0.087
737.69	0.087
737.88	0.087
738.07	0.087
738.27	0.086
738.46	0.086
738.65	0.086
738.84	0.086
739.04	0.086
739.23	0.086
739.42	0.086
739.61	0.086
739.80	0.086
740.00	0.086
740.19	0.086
740.38	0.086
740.57	0.086
740.76	0.085
740.96	0.085
741.15	0.085
741.34	0.085
741.53	0.085
741.72	0.085
741.92	0.084
742.11	0.084
742.30	0.084
742.49	0.084
742.68	0.085
742.88	0.084
743.07	0.084
743.26	0.085
743.45	0.085
743.64	0.084
743.84	0.084
744.03	0.085
744.22	0.085
744.41	0.085
744.60	0.085
744.79	0.085
744.99	0.085
745.18	0.084
745.37	0.085
745.56	0.085
745.75	0.085
745.94	0.084
746.14	0.084
746.33	0.084
746.52	0.084
746.71	0.084
746.90	0.083
747.09	0.084
747.28	0.083
747.48	0.083
747.67	0.083
747.86	0.083
748.05	0.083
748.24	0.083
748.43	0.083
748.62	0.083
748.82	0.083
749.01	0.083
749.20	0.083
749.39	0.083
749.58	0.083
749.77	0.083
749.96	0.083
750.16	0.083
750.35	0.083
750.54	0.083
750.73	0.083
750.92	0.083
751.11	0.083
751.30	0.083
751.49	0.082
751.68	0.082
751.88	0.082
752.07	0.082
752.26	0.082
752.45	0.082
752.64	0.082
752.83	0.082
753.02	0.082
753.21	0.082
753.40	0.082
753.60	0.082
753.79	0.082
753.98	0.082
754.17	0.081
754.36	0.081
754.55	0.081
754.74	0.081
754.93	0.081
755.12	0.081
755.31	0.081
755.50	0.081
755.70	0.081
755.89	0.080
756.08	0.081
756.27	0.081
756.46	0.081
756.65	0.081
756.84	0.080
757.03	0.080
757.22	0.080
757.41	0.080
757.60	0.080
757.79	0.080
757.98	0.081
758.17	0.081
758.36	0.081
758.56	0.081
758.75	0.080
758.94	0.080
759.13	0.081
759.32	0.080
759.51	0.080
759.70	0.080
759.89	0.080
760.08	0.080
760.27	0.079
760.46	0.079
760.65	0.079
760.84	0.080
761.03	0.080
761.22	0.080
761.41	0.080
761.60	0.080
761.79	0.080
761.98	0.080
762.17	0.080
762.36	0.079
762.55	0.079
762.74	0.079
762.93	0.079
763.12	0.079
763.31	0.079
763.50	0.078
763.69	0.078
763.88	0.078
764.07	0.078
764.26	0.078
764.45	0.079
764.64	0.079
764.83	0.079
765.02	0.079
765.21	0.079
765.40	0.079
765.59	0.079
765.78	0.079
765.97	0.079
766.16	0.079
766.35	0.079
766.54	0.079
766.73	0.079
766.92	0.079
767.11	0.079
767.30	0.079
767.49	0.079
767.68	0.079
767.87	0.079
768.06	0.079
768.25	0.079
768.44	0.079
768.63	0.078
768.82	0.078
769.01	0.078
769.20	0.077
769.39	0.077
769.58	0.077
769.77	0.077
769.96	0.077
770.15	0.077
770.34	0.077
770.53	0.077
770.72	0.077
770.91	0.077
771.10	0.077
771.29	0.077
771.47	0.077
771.66	0.077
771.85	0.077
772.04	0.077
772.23	0.078
772.42	0.078
772.61	0.078
772.80	0.078
772.99	0.078
773.18	0.078
773.37	0.078
773.56	0.078
773.75	0.078
773.94	0.078
774.13	0.077
774.31	0.077
774.50	0.077
774.69	0.077
774.88	0.077
775.07	0.077
775.26	0.077
775.45	0.076
775.64	0.076
775.83	0.076
776.02	0.075
776.21	0.075
776.40	0.076
776.58	0.076
776.77	0.076
776.96	0.076
777.15	0.076
777.34	0.076
777.53	0.077
777.72	0.077
777.91	0.077
778.10	0.077
778.28	0.076
778.47	0.076
778.66	0.076
778.85	0.076
779.04	0.075
779.23	0.075
779.42	0.075
779.61	0.075
779.79	0.075
779.98	0.075
780.17	0.075
780.36	0.075
780.55	0.075
780.74	0.075
780.93	0.074
781.12	0.074
781.30	0.074
781.49	0.074
781.68	0.075
781.87	0.075
782.06	0.074
782.25	0.074
782.44	0.074
782.62	0.074
782.81	0.075
783.00	0.075
783.19	0.074
783.38	0.074
783.57	0.074
783.75	0.074
783.94	0.074
784.13	0.074
784.32	0.074
784.51	0.074
784.70	0.074
784.88	0.074
785.07	0.074
785.26	0.074
785.45	0.074
785.64	0.074
785.83	0.074
786.01	0.073
786.20	0.074
786.39	0.074
786.58	0.074
786.77	0.074
786.95	0.074
787.14	0.074
787.33	0.074
787.52	0.074
787.71	0.074
787.90	0.074
788.08	0.074
788.27	0.073
788.46	0.073
788.65	0.073
788.84	0.073
789.02	0.073
789.21	0.073
789.40	0.073
789.59	0.073
789.77	0.073
789.96	0.073
790.15	0.074
790.34	0.074
790.53	0.074
790.71	0.073
790.90	0.073
791.09	0.073
791.28	0.073
791.46	0.074
791.65	0.073
791.84	0.073
792.03	0.073
792.22	0.073
792.40	0.072
792.59	0.073
792.78	0.073
792.97	0.073
793.15	0.073
793.34	0.073
793.53	0.073
793.72	0.073
793.90	0.072
794.09	0.073
794.28	0.073
794.47	0.073
794.65	0.072
794.84	0.073
795.03	0.073
795.22	0.073
795.40	0.073
795.59	0.072
795.78	0.072
795.97	0.072
796.15	0.072
796.34	0.072
796.53	0.072
796.71	0.072
796.90	0.072
797.09	0.072
797.28	0.072
797.46	0.072
797.65	0.071
797.84	0.072
798.02	0.071
798.21	0.071
798.40	0.071
798.59	0.071
798.77	0.071
798.96	0.071
799.15	0.071
799.33	0.071
799.52	0.071
799.71	0.071
799.90	0.071
800.08	0.071
800.27	0.071
800.46	0.071
800.64	0.071
800.83	0.071
801.02	0.071
801.20	0.071
801.39	0.071
801.58	0.071
801.76	0.071
801.95	0.071
802.14	0.070
802.32	0.070
802.51	0.071
802.70	0.070
802.88	0.070
803.07	0.071
803.26	0.070
803.44	0.070
803.63	0.070
803.82	0.070
804.00	0.070
804.19	0.071
804.38	0.071
804.56	0.071
804.75	0.071
804.94	0.071
805.12	0.071
805.31	0.071
805.50	0.071
805.68	0.071
805.87	0.071
806.06	0.071
806.24	0.071
806.43	0.071
806.62	0.071
806.80	0.071
806.99	0.071
807.17	0.071
807.36	0.071
807.55	0.071
807.73	0.071
807.92	0.071
808.11	0.071
808.29	0.071
808.48	0.070
808.66	0.070
808.85	0.070
809.04	0.070
809.22	0.070
809.41	0.070
809.59	0.070
809.78	0.070
809.97	0.069
810.15	0.069
810.34	0.069
810.53	0.069
810.71	0.069
810.90	0.070
811.08	0.069
811.27	0.069
811.45	0.069
811.64	0.069
811.83	0.070
812.01	0.069
812.20	0.069
812.38	0.070
812.57	0.070
812.76	0.070
812.94	0.070
813.13	0.069
813.31	0.069
813.50	0.069
813.68	0.069
813.87	0.069
814.06	0.069
814.24	0.069
814.43	0.069
814.61	0.069
814.80	0.069
814.98	0.069
815.17	0.069
815.36	0.069
815.54	0.069
815.73	0.069
815.91	0.069
816.10	0.069
816.28	0.069
816.47	0.068
816.65	0.069
816.84	0.069
817.03	0.070
817.21	0.070
817.40	0.070
817.58	0.070
817.77	0.070
817.95	0.070
818.14	0.070
818.32	0.071
818.51	0.071
818.69	0.071
818.88	0.071
819.06	0.070
819.25	0.070
819.43	0.070
819.62	0.070
819.80	0.070
819.99	0.070
820.18	0.070
820.36	0.069
820.55	0.070
820.73	0.070
820.92	0.069
821.10	0.070
821.29	0.070
821.47	0.070
821.66	0.070
821.84	0.070
822.03	0.070
822.21	0.070
822.40	0.070
822.58	0.070
822.77	0.070
822.95	0.070
823.14	0.070
823.32	0.071
823.50	0.071
823.69	0.071
823.87	0.071
824.06	0.071
824.24	0.071
824.43	0.071
824.61	0.072
824.80	0.072
824.98	0.072
825.17	0.072
825.35	0.072
825.54	0.072
825.72	0.071
825.91	0.071
826.09	0.071
826.28	0.071
826.46	0.071
826.64	0.072
826.83	0.071
827.01	0.072
827.20	0.071
827.38	0.071
827.57	0.072
827.75	0.072
827.94	0.072
828.12	0.072
828.31	0.073
828.49	0.073
828.67	0.073
828.86	0.073
829.04	0.073
829.23	0.073
829.41	0.074
829.60	0.074
829.78	0.074
829.96	0.074
830.15	0.074
830.33	0.074
830.52	0.074
830.70	0.074
830.88	0.074
831.07	0.074
831.25	0.074
831.44	0.074
831.62	0.074
831.81	0.074
831.99	0.074
832.17	0.074
832.36	0.075
832.54	0.075
832.73	0.075
832.91	0.075
833.09	0.075
833.28	0.075
833.46	0.075
833.65	0.075
833.83	0.075
834.01	0.075
834.20	0.075
834.38	0.075
834.56	0.075
834.75	0.075
834.93	0.075
835.12	0.075
835.30	0.076
835.48	0.076
835.67	0.076
835.85	0.076
836.03	0.076
836.22	0.076
836.40	0.076
836.59	0.077
836.77	0.077
836.95	0.077
837.14	0.077
837.32	0.076
837.50	0.076
837.69	0.076
837.87	0.076
838.05	0.076
838.24	0.076
838.42	0.076
838.60	0.076
838.79	0.077
838.97	0.077
839.15	0.077
839.34	0.077
839.52	0.077
839.70	0.077
839.89	0.077
840.07	0.077
840.25	0.077
840.44	0.077
840.62	0.077
840.80	0.077
840.99	0.077
841.17	0.077
841.35	0.077
841.54	0.077
841.72	0.077
841.90	0.077
842.09	0.077
842.27	0.078
842.45	0.078
842.64	0.078
842.82	0.077
843.00	0.078
843.19	0.077
843.37	0.077
843.55	0.077
843.73	0.077
843.92	0.077
844.10	0.077
844.28	0.077
844.47	0.077
844.65	0.077
844.83	0.078
845.01	0.078
845.20	0.078
845.38	0.078
845.56	0.078
845.75	0.078
845.93	0.078
846.11	0.078
846.29	0.078
846.48	0.078
846.66	0.078
846.84	0.078
847.02	0.078
847.21	0.078
847.39	0.078
847.57	0.078
847.76	0.078
847.94	0.078
848.12	0.078
848.30	0.078
848.49	0.078
848.67	0.078
848.85	0.078
849.03	0.079
849.22	0.078
849.40	0.079
849.58	0.079
849.76	0.079
849.95	0.079
850.13	0.079
850.31	0.079
850.49	0.079
850.67	0.079
850.86	0.079
851.04	0.079
851.22	0.079
851.40	0.079
851.59	0.079
851.77	0.079
851.95	0.079
852.13	0.079
852.31	0.078
852.50	0.079
852.68	0.079
852.86	0.079
853.04	0.078
853.23	0.078
853.41	0.078
853.59	0.078
853.77	0.078
853.95	0.079
854.14	0.078
854.32	0.079
854.50	0.079
854.68	0.078
854.86	0.079
855.04	0.079
855.23	0.079
855.41	0.079
855.59	0.079
855.77	0.079
855.95	0.079
856.14	0.079
856.32	0.079
856.50	0.079
856.68	0.079
856.86	0.079
857.04	0.078
857.23	0.078
857.41	0.078
857.59	0.078
857.77	0.078
857.95	0.078
858.13	0.078
858.32	0.078
858.50	0.078
858.68	0.078
858.86	0.078
859.04	0.079
859.22	0.078
859.41	0.079
859.59	0.078
859.77	0.079
859.95	0.078
860.13	0.079
860.31	0.078
860.49	0.078
860.68	0.079
860.86	0.079
861.04	0.078
861.22	0.079
861.40	0.078
861.58	0.078
861.76	0.078
861.94	0.079
862.13	0.078
862.31	0.079
862.49	0.079
862.67	0.079
862.85	0.079
863.03	0.079
863.21	0.079
863.39	0.080
863.57	0.080
863.76	0.080
863.94	0.080
864.12	0.080
864.30	0.080
864.48	0.080
864.66	0.080
864.84	0.080
865.02	0.080
865.20	0.080
865.38	0.080
865.57	0.080
865.75	0.080
865.93	0.080
866.11	0.080
866.29	0.080
866.47	0.081
866.65	0.081
866.83	0.081
867.01	0.080
867.19	0.080
867.37	0.080
867.55	0.080
867.73	0.080
867.92	0.080
868.10	0.081
868.28	0.081
868.46	0.081
868.64	0.080
868.82	0.080
869.00	0.081
869.18	0.081
869.36	0.080
869.54	0.080
869.72	0.081
869.90	0.080
870.08	0.080
870.26	0.080
870.44	0.081
870.62	0.081
870.80	0.081
870.98	0.080
871.16	0.080
871.34	0.081
871.53	0.080
871.71	0.080
871.89	0.081
872.07	0.081
872.25	0.080
872.43	0.080
872.61	0.081
872.79	0.081
872.97	0.081
873.15	0.082
873.33	0.082
873.51	0.082
873.69	0.082
873.87	0.082
874.05	0.082
874.23	0.082
874.41	0.082
874.59	0.082
874.77	0.082
874.95	0.081
875.13	0.081
875.31	0.081
875.49	0.082
875.67	0.082
875.85	0.082
876.03	0.082
876.21	0.083
876.39	0.083
876.57	0.083
876.75	0.083
876.93	0.083
877.11	0.083
877.29	0.083
877.47	0.083
877.65	0.083
877.82	0.083
878.00	0.083
878.18	0.083
878.36	0.083
878.54	0.083
878.72	0.083
878.90	0.083
879.08	0.083
879.26	0.083
879.44	0.083
879.62	0.083
879.80	0.083
879.98	0.083
880.16	0.082
880.34	0.082
880.52	0.082
880.70	0.082
880.88	0.082
881.06	0.082
881.24	0.082
881.42	0.082
881.59	0.082
881.77	0.082
881.95	0.082
882.13	0.082
882.31	0.083
882.49	0.082
882.67	0.083
882.85	0.083
883.03	0.083
883.21	0.083
883.39	0.083
883.57	0.084
883.75	0.084
883.92	0.084
884.10	0.084
884.28	0.084
884.46	0.085
884.64	0.084
884.82	0.084
885.00	0.084
885.18	0.084
885.36	0.084
885.54	0.084
885.71	0.084
885.89	0.085
886.07	0.085
886.25	0.085
886.43	0.085
886.61	0.085
886.79	0.085
886.97	0.085
887.15	0.085
887.32	0.085
887.50	0.085
887.68	0.085
887.86	0.085
888.04	0.085
888.22	0.085
888.40	0.085
888.57	0.085
888.75	0.086
888.93	0.086
889.11	0.085
889.29	0.086
889.47	0.086
889.65	0.086
889.82	0.086
890.00	0.086
890.18	0.086
890.36	0.085
890.54	0.086
890.72	0.086
890.90	0.085
891.07	0.086
891.25	0.085
891.43	0.085
891.61	0.085
891.79	0.085
891.97	0.085
892.14	0.086
892.32	0.085
892.50	0.086
892.68	0.086
892.86	0.086
893.03	0.086
893.21	0.086
893.39	0.086
893.57	0.086
893.75	0.086
893.93	0.086
894.10	0.086
894.28	0.086
894.46	0.086
894.64	0.086
894.82	0.086
894.99	0.086
895.17	0.086
895.35	0.087
895.53	0.087
895.71	0.086
895.88	0.087
896.06	0.087
896.24	0.087
896.42	0.087
896.59	0.087
896.77	0.087
896.95	0.087
897.13	0.087
897.31	0.087
897.48	0.087
897.66	0.087
897.84	0.087
898.02	0.087
898.19	0.087
898.37	0.088
898.55	0.088
898.73	0.088
898.91	0.088
899.08	0.088
899.26	0.088
899.44	0.088
899.62	0.088
899.79	0.088
899.97	0.088
900.15	0.088
900.33	0.088
900.50	0.088
900.68	0.088
900.86	0.088
901.04	0.088
901.21	0.088
901.39	0.088
901.57	0.088
901.74	0.088
901.92	0.088
902.10	0.089
902.28	0.089
902.45	0.089
902.63	0.088
902.81	0.088
902.99	0.089
903.16	0.089
903.34	0.089
903.52	0.089
903.69	0.089
903.87	0.089
904.05	0.089
904.22	0.090
904.40	0.090
904.58	0.090
904.76	0.090
904.93	0.090
905.11	0.090
905.29	0.090
905.46	0.090
905.64	0.090
905.82	0.090
905.99	0.089
906.17	0.089
906.35	0.089
906.53	0.090
906.70	0.089
906.88	0.090
907.06	0.090
907.23	0.090
907.41	0.090
907.59	0.090
907.76	0.090
907.94	0.091
908.12	0.091
908.29	0.091
908.47	0.091
908.65	0.091
908.82	0.091
909.00	0.091
909.18	0.091
909.35	0.091
909.53	0.091
909.71	0.091
909.88	0.091
910.06	0.091
910.23	0.091
910.41	0.091
910.59	0.091
910.76	0.091
910.94	0.091
911.12	0.091
911.29	0.091
911.47	0.092
911.65	0.092
911.82	0.092
912.00	0.092
912.17	0.092
912.35	0.093
912.53	0.093
912.70	0.093
912.88	0.094
913.06	0.094
913.23	0.094
913.41	0.094
913.58	0.094
913.76	0.094
913.94	0.094
914.11	0.094
914.29	0.094
914.46	0.094
914.64	0.094
914.82	0.094
914.99	0.094
915.17	0.094
915.34	0.094
915.52	0.094
915.70	0.094
915.87	0.094
916.05	0.094
916.22	0.094
916.40	0.094
916.57	0.095
916.75	0.095
916.93	0.095
917.10	0.095
917.28	0.095
917.45	0.095
917.63	0.095
917.80	0.095
917.98	0.095
918.16	0.095
918.33	0.096
918.51	0.096
918.68	0.096
918.86	0.097
919.03	0.097
919.21	0.097
919.39	0.098
919.56	0.098
919.74	0.098
919.91	0.098
920.09	0.098
920.26	0.098
920.44	0.098
920.61	0.098
920.79	0.099
920.96	0.099
921.14	0.099
921.31	0.099
921.49	0.099
921.67	0.099
921.84	0.099
922.02	0.100
922.19	0.100
922.37	0.100
922.54	0.101
922.72	0.101
922.89	0.102
923.07	0.102
923.24	0.102
923.42	0.102
923.59	0.102
923.77	0.103
923.94	0.103
924.12	0.103
924.29	0.103
924.47	0.103
924.64	0.104
924.82	0.104
924.99	0.104
925.17	0.104
925.34	0.105
925.52	0.105
925.69	0.106
925.87	0.106
926.04	0.106
926.22	0.106
926.39	0.107
926.57	0.107
926.74	0.107
926.91	0.108
927.09	0.108
927.26	0.108
927.44	0.109
927.61	0.109
927.79	0.110
927.96	0.111
928.14	0.111
928.31	0.112
928.49	0.112
928.66	0.112
928.84	0.113
929.01	0.113
929.18	0.114
929.36	0.114
929.53	0.114
929.71	0.114
929.88	0.115
930.06	0.115
930.23	0.115
930.41	0.116
930.58	0.116
930.75	0.116
930.93	0.117
931.10	0.116
931.28	0.117
931.45	0.118
931.63	0.118
931.80	0.118
931.97	0.118
932.15	0.119
932.32	0.119
932.50	0.119
932.67	0.120
932.84	0.121
933.02	0.122
933.19	0.122
933.37	0.122
933.54	0.123
933.71	0.123
933.89	0.124
934.06	0.124
934.24	0.125
934.41	0.126
934.58	0.126
934.76	0.126
934.93	0.127
935.11	0.127
935.28	0.127
935.45	0.127
935.63	0.128
935.80	0.128
935.98	0.129
936.15	0.129
936.32	0.130
936.50	0.131
936.67	0.131
936.84	0.131
937.02	0.133
937.19	0.134
937.36	0.134
937.54	0.134
937.71	0.135
937.89	0.136
938.06	0.136
938.23	0.136
938.41	0.137
938.58	0.137
938.75	0.137
938.93	0.138
939.10	0.138
939.27	0.139
939.45	0.140
939.62	0.140
939.79	0.141
939.97	0.141
940.14	0.142
940.31	0.143
940.49	0.143
940.66	0.143
940.83	0.144
941.01	0.145
941.18	0.145
941.35	0.146
941.53	0.147
941.70	0.147
941.87	0.148
942.05	0.148
942.22	0.149
942.39	0.150
942.57	0.151
942.74	0.152
942.91	0.152
943.08	0.153
943.26	0.153
943.43	0.153
943.60	0.154
943.78	0.155
943.95	0.156
944.12	0.156
944.29	0.157
944.47	0.158
944.64	0.159
944.81	0.160
944.99	0.160
945.16	0.161
945.33	0.161
945.50	0.162
945.68	0.163
945.85	0.163
946.02	0.165
946.20	0.166
946.37	0.167
946.54	0.167
946.71	0.168
946.89	0.169
947.06	0.170
947.23	0.171
947.40	0.172
947.58	0.172
947.75	0.174
947.92	0.175
948.09	0.175
948.27	0.176
948.44	0.177
948.61	0.178
948.78	0.179
948.96	0.180
949.13	0.180
949.30	0.181
949.47	0.182
949.65	0.183
949.82	0.185
949.99	0.185
950.16	0.187
950.33	0.188
950.51	0.190
950.68	0.191
950.85	0.192
951.02	0.194
951.20	0.195
951.37	0.196
951.54	0.196
951.71	0.198
951.88	0.199
952.06	0.200
952.23	0.201
952.40	0.202
952.57	0.204
952.74	0.205
952.92	0.206
953.09	0.208
953.26	0.209
953.43	0.210
953.60	0.211
953.77	0.212
953.95	0.213
954.12	0.214
954.29	0.215
954.46	0.218
954.63	0.219
954.81	0.219
954.98	0.220
955.15	0.222
955.32	0.224
955.49	0.224
955.66	0.225
955.84	0.226
956.01	0.227
956.18	0.229
956.35	0.230
956.52	0.230
956.69	0.232
956.87	0.232
957.04	0.234
957.21	0.235
957.38	0.236
957.55	0.237
957.72	0.238
957.89	0.239
958.07	0.239
958.24	0.242
958.41	0.243
958.58	0.243
958.75	0.243
958.92	0.244
959.09	0.244
959.26	0.245
959.44	0.245
959.61	0.246
959.78	0.247
959.95	0.248
960.12	0.249
960.29	0.251
960.46	0.251
960.63	0.251
960.81	0.252
960.98	0.253
961.15	0.254
961.32	0.254
961.49	0.254
961.66	0.255
961.83	0.255
962.00	0.255
962.17	0.256
962.34	0.255
962.52	0.256
962.69	0.257
962.86	0.256
963.03	0.257
963.20	0.258
963.37	0.257
963.54	0.258
963.71	0.258
963.88	0.258
964.05	0.259
964.22	0.260
964.39	0.259
964.56	0.259
964.74	0.260
964.91	0.260
965.08	0.260
965.25	0.261
965.42	0.261
965.59	0.262
965.76	0.261
965.93	0.262
966.10	0.261
966.27	0.262
966.44	0.261
966.61	0.263
966.78	0.262
966.95	0.262
967.12	0.263
967.29	0.265
967.46	0.264
967.63	0.264
967.80	0.265
967.97	0.264
968.14	0.264
968.32	0.265
968.49	0.265
968.66	0.264
968.83	0.265
969.00	0.264
969.17	0.264
969.34	0.265
969.51	0.266
969.68	0.265
969.85	0.266
970.02	0.266
970.19	0.266
970.36	0.267
970.53	0.267
970.70	0.265
970.87	0.266
971.04	0.265
971.21	0.266
971.38	0.266
971.55	0.266
971.72	0.266
971.89	0.267
972.06	0.266
972.23	0.266
972.40	0.266
972.57	0.265
972.74	0.265
972.91	0.267
973.07	0.266
973.24	0.265
973.41	0.266
973.58	0.264
973.75	0.277
973.92	0.265
974.09	0.265
974.26	0.264
974.43	0.264
974.60	0.265
974.77	0.265
974.94	0.264
975.11	0.266
975.28	0.267
975.45	0.265
975.62	0.266
975.79	0.268
975.96	0.266
976.13	0.265
976.30	0.266
976.47	0.265
976.64	0.265
976.80	0.265
976.97	0.265
977.14	0.264
977.31	0.264
977.48	0.265
977.65	0.264
977.82	0.263
977.99	0.265
978.16	0.264
978.33	0.264
978.50	0.263
978.67	0.263
978.83	0.263
979.00	0.264
979.17	0.263
979.34	0.263
979.51	0.262
979.68	0.263
979.85	0.262
980.02	0.263
980.19	0.261
980.36	0.263
980.52	0.264
980.69	0.262
980.86	0.263
981.03	0.263
981.20	0.261
981.37	0.262
981.54	0.263
981.71	0.261
981.88	0.262
982.04	0.261
982.21	0.260
982.38	0.262
982.55	0.261
982.72	0.259
982.89	0.260
983.06	0.259
983.22	0.258
983.39	0.258
983.56	0.258
983.73	0.258
983.90	0.257
984.07	0.259
984.24	0.258
984.40	0.257
984.57	0.255
984.74	0.258
984.91	0.259
985.08	0.257
985.25	0.254
985.41	0.255
985.58	0.255
985.75	0.256
985.92	0.255
986.09	0.254
986.26	0.254
986.42	0.253
986.59	0.252
986.76	0.253
986.93	0.253
987.10	0.253
987.27	0.251
987.43	0.249
987.60	0.251
987.77	0.250
987.94	0.249
988.11	0.250
988.27	0.250
988.44	0.249
988.61	0.248
988.78	0.247
988.95	0.247
989.11	0.248
989.28	0.247
989.45	0.246
989.62	0.246
989.79	0.247
989.95	0.245
990.12	0.247
990.29	0.247
990.46	0.245
990.62	0.244
990.79	0.244
990.96	0.244
991.13	0.245
991.30	0.244
991.46	0.243
991.63	0.242
991.80	0.240
991.97	0.240
992.13	0.240
992.30	0.241
992.47	0.239
992.64	0.239
992.80	0.239
992.97	0.239
993.14	0.237
993.31	0.234
993.47	0.237
993.64	0.235
993.81	0.235
993.98	0.236
994.14	0.235
994.31	0.234
994.48	0.235
994.64	0.235
994.81	0.234
994.98	0.234
995.15	0.233
995.31	0.233
995.48	0.233
995.65	0.235
995.82	0.232
995.98	0.231
996.15	0.232
996.32	0.233
996.48	0.232
996.65	0.232
996.82	0.229
996.99	0.229
997.15	0.229
997.32	0.230
997.49	0.228
997.65	0.229
997.82	0.228
997.99	0.227
998.15	0.227
998.32	0.228
998.49	0.227
998.65	0.227
998.82	0.226
998.99	0.223
999.15	0.224
999.32	0.224
999.49	0.224
999.65	0.224
999.82	0.222
999.99	0.222
1000.15	0.222
1000.32	0.222
1000.49	0.222
1000.65	0.220
1000.82	0.219
1000.99	0.220
1001.15	0.220
1001.32	0.219
1001.49	0.218
1001.65	0.218
1001.82	0.220
1001.99	0.217
1002.15	0.216
1002.32	0.216
1002.49	0.216
1002.65	0.216
1002.82	0.214
1002.99	0.213
1003.15	0.215
1003.32	0.214
1003.48	0.214
1003.65	0.214
1003.82	0.213
1003.98	0.211
1004.15	0.211
1004.32	0.211
1004.48	0.211
1004.65	0.212
1004.81	0.210
1004.98	0.208
1005.15	0.209
1005.31	0.208
1005.48	0.206
1005.64	0.206
1005.81	0.209
1005.98	0.205
1006.14	0.204
1006.31	0.205
1006.47	0.203
1006.64	0.203
1006.81	0.203
1006.97	0.204
1007.14	0.204
1007.30	0.204
1007.47	0.204
1007.63	0.202
1007.80	0.201
1007.97	0.201
1008.13	0.201
1008.30	0.201
1008.46	0.200
1008.63	0.199
1008.79	0.199
1008.96	0.200
1009.13	0.201
1009.29	0.199
1009.46	0.199
1009.62	0.198
1009.79	0.196
1009.95	0.197
1010.12	0.197
1010.28	0.198
1010.45	0.196
1010.62	0.196
1010.78	0.194
1010.95	0.193
1011.11	0.194
1011.28	0.193
1011.44	0.196
1011.61	0.194
1011.77	0.193
1011.94	0.193
1012.10	0.192
1012.27	0.192
1012.43	0.192
1012.60	0.190
1012.76	0.191
1012.93	0.190
1013.10	0.188
1013.26	0.186
1013.43	0.187
1013.59	0.195
1013.76	0.187
1013.92	0.186
1014.09	0.185
1014.25	0.186
1014.42	0.186
1014.58	0.186
1014.75	0.188
1014.91	0.186
1015.08	0.188
1015.24	0.184
1015.41	0.185
1015.57	0.186
1015.73	0.184
1015.90	0.181
1016.06	0.183
1016.23	0.181
1016.39	0.182
1016.56	0.182
1016.72	0.182
1016.89	0.182
1017.05	0.183
1017.22	0.179
1017.38	0.180
1017.55	0.179
1017.71	0.180
1017.88	0.180
1018.04	0.181
1018.21	0.177
1018.37	0.177
1018.53	0.177
1018.70	0.175
1018.86	0.175
1019.03	0.178
1019.19	0.176
1019.36	0.175
1019.52	0.177
1019.69	0.178
1019.85	0.177
1020.01	0.177
1020.18	0.175
1020.34	0.176
1020.51	0.175
1020.67	0.175
1020.84	0.173
1021.00	0.173
1021.16	0.170
1021.33	0.171
1021.49	0.170
1021.66	0.171
1021.82	0.169
1021.98	0.169
1022.15	0.169
1022.31	0.169
1022.48	0.168
1022.64	0.170
1022.80	0.169
1022.97	0.167
1023.13	0.166
1023.30	0.165
1023.46	0.167
1023.62	0.164
1023.79	0.165
1023.95	0.165
1024.12	0.164
1024.28	0.163
1024.44	0.162
1024.61	0.160
1024.77	0.160
1024.93	0.161
1025.10	0.163
1025.26	0.160
1025.43	0.162
1025.59	0.158
1025.75	0.162
1025.92	0.161
1026.08	0.160
1026.24	0.161
1026.41	0.162
1026.57	0.160
1026.73	0.158
1026.90	0.160
1027.06	0.157
1027.23	0.158
1027.39	0.158
1027.55	0.159
1027.72	0.156
1027.88	0.155
1028.04	0.155
1028.21	0.155
1028.37	0.150
1028.53	0.155
1028.70	0.152
1028.86	0.150
1029.02	0.151
1029.19	0.151
1029.35	0.150
1029.51	0.149
1029.67	0.149
1029.84	0.151
1030.00	0.145
1030.16	0.146
1030.33	0.149
1030.49	0.147
1030.65	0.145
1030.82	0.159
1030.98	0.147
1031.14	0.146
1031.31	0.147
1031.47	0.145
1031.63	0.147
1031.79	0.147
1031.96	0.148
1032.12	0.149
1032.28	0.146
1032.45	0.150
1032.61	0.148
1032.77	0.148
1032.93	0.145
1033.10	0.146
1033.26	0.148
1033.42	0.146
1033.58	0.146
1033.75	0.146
1033.91	0.144
1034.07	0.147
1034.24	0.145
1034.40	0.144
1034.56	0.144
1034.72	0.144
1034.89	0.144
1035.05	0.142
1035.21	0.142
1035.37	0.142
1035.54	0.145
1035.70	0.143
1035.86	0.142
1036.02	0.144
1036.19	0.142
1036.35	0.141
1036.51	0.145
1036.67	0.142
1036.83	0.142
1037.00	0.141
1037.16	0.141
1037.32	0.141
1037.48	0.140
1037.65	0.145
1037.81	0.141
1037.97	0.141
1038.13	0.141
1038.29	0.139
1038.46	0.136
1038.62	0.140
1038.78	0.138
1038.94	0.135
1039.10	0.140
1039.27	0.135
1039.43	0.137
1039.59	0.136
1039.75	0.135
1039.91	0.133
1040.08	0.133
1040.24	0.136
1040.40	0.137
1040.56	0.136
1040.72	0.130
1040.89	0.132
1041.05	0.135
1041.21	0.133
1041.37	0.131
1041.53	0.137
1041.69	0.134
1041.86	0.134
1042.02	0.130
1042.18	0.130
1042.34	0.131
1042.50	0.135
1042.66	0.132
1042.83	0.130
1042.99	0.133
1043.15	0.128
1043.31	0.129
1043.47	0.133
1043.63	0.130
1043.79	0.131
1043.96	0.132
1044.12	0.135
1044.28	0.132
1044.44	0.133
1044.60	0.128
1044.76	0.127
1044.92	0.130
1045.09	0.131
1045.25	0.129
1045.41	0.131
1045.57	0.127
1045.73	0.127
1045.89	0.127
1046.05	0.129
1046.21	0.142
1046.38	0.134
1046.54	0.131
1046.70	0.124
1046.86	0.123
>>>>>End Processed Spectral Data<<<<<
