SpectraSuite Data File
++++++++++++++++++++++++++++++++++++
Date: Mon May 20 12:12:07 CDT 2013
User: Students
Dark Spectrum Present: Yes
Reference Spectrum Present: Yes
Number of Sampled Component Spectra: 1
Spectrometers: USB4H00887
Integration Time (usec): 60000 (USB4H00887)
Spectra Averaged: 5 (USB4H00887)
Boxcar Smoothing: 5 (USB4H00887)
Correct for Electrical Dark: No (USB4H00887)
Strobe/Lamp Enabled: No (USB4H00887)
Correct for Detector Non-linearity: No (USB4H00887)
Correct for Stray Light: No (USB4H00887)
Number of Pixels in Processed Spectrum: 3648
>>>>>Begin Processed Spectral Data<<<<<
345.83	0.112
346.05	0.112
346.26	0.112
346.48	-0.000
346.70	-0.000
346.92	0.106
347.14	0.080
347.35	0.076
347.57	0.612
347.79	-0.289
348.01	-0.250
348.23	-0.354
348.44	-0.000
348.66	0.363
348.88	-0.395
349.10	-0.141
349.32	0.030
349.53	-0.004
349.75	0.012
349.97	0.026
350.19	0.055
350.41	0.122
350.62	-0.344
350.84	0.046
351.06	0.082
351.28	0.111
351.50	0.200
351.71	0.257
351.93	0.268
352.15	0.035
352.37	0.110
352.58	0.052
352.80	0.063
353.02	0.102
353.24	0.130
353.46	1.127
353.67	-0.174
353.89	0.054
354.11	0.043
354.33	0.055
354.54	0.097
354.76	0.205
354.98	0.219
355.20	0.119
355.41	0.051
355.63	0.096
355.85	0.034
356.07	0.382
356.28	0.061
356.50	0.090
356.72	0.027
356.94	0.103
357.15	0.115
357.37	-0.000
357.59	0.073
357.81	0.039
358.02	0.102
358.24	0.074
358.46	0.117
358.68	0.088
358.89	0.060
359.11	-0.000
359.33	0.028
359.55	-0.290
359.76	0.065
359.98	0.075
360.20	0.084
360.42	0.062
360.63	0.061
360.85	0.052
361.07	0.267
361.29	0.047
361.50	0.184
361.72	0.080
361.94	0.309
362.15	0.134
362.37	0.078
362.59	0.085
362.81	0.114
363.02	0.183
363.24	0.283
363.46	0.175
363.68	0.235
363.89	0.126
364.11	0.168
364.33	0.197
364.54	0.123
364.76	0.136
364.98	0.137
365.20	0.184
365.41	0.117
365.63	0.140
365.85	0.097
366.06	0.245
366.28	0.286
366.50	0.182
366.71	0.074
366.93	0.102
367.15	0.111
367.37	0.092
367.58	0.108
367.80	0.122
368.02	0.294
368.23	0.107
368.45	0.121
368.67	0.094
368.88	0.084
369.10	-0.000
369.32	0.091
369.53	0.052
369.75	0.087
369.97	0.177
370.19	0.153
370.40	0.070
370.62	0.183
370.84	0.079
371.05	0.488
371.27	0.171
371.49	0.208
371.70	0.193
371.92	0.329
372.14	0.134
372.35	0.144
372.57	0.142
372.79	0.377
373.00	0.096
373.22	0.152
373.44	0.159
373.65	0.101
373.87	0.161
374.09	0.920
374.30	0.160
374.52	0.180
374.74	0.128
374.95	0.709
375.17	0.154
375.39	-0.000
375.60	0.188
375.82	0.318
376.04	0.135
376.25	0.150
376.47	0.085
376.68	0.199
376.90	0.114
377.12	0.297
377.33	0.163
377.55	0.391
377.77	0.203
377.98	0.286
378.20	0.160
378.42	0.214
378.63	0.278
378.85	-0.000
379.07	0.170
379.28	0.811
379.50	0.368
379.71	0.182
379.93	0.125
380.15	0.162
380.36	0.220
380.58	0.149
380.80	0.312
381.01	0.120
381.23	0.106
381.44	0.127
381.66	0.141
381.88	0.183
382.09	-0.083
382.31	0.131
382.53	0.130
382.74	0.765
382.96	0.205
383.17	0.181
383.39	0.218
383.61	0.285
383.82	0.208
384.04	0.248
384.25	0.310
384.47	0.276
384.69	0.291
384.90	0.276
385.12	0.647
385.33	0.369
385.55	0.255
385.77	0.404
385.98	0.193
386.20	0.257
386.41	0.224
386.63	0.256
386.85	0.217
387.06	0.274
387.28	0.426
387.49	0.276
387.71	0.202
387.93	0.189
388.14	0.647
388.36	0.254
388.57	0.228
388.79	0.258
389.01	-0.000
389.22	0.333
389.44	0.265
389.65	0.224
389.87	0.220
390.08	0.257
390.30	0.190
390.52	0.370
390.73	0.344
390.95	0.247
391.16	0.235
391.38	-0.000
391.59	0.258
391.81	0.219
392.03	0.205
392.24	0.241
392.46	0.201
392.67	0.189
392.89	0.263
393.10	0.404
393.32	0.262
393.53	0.309
393.75	0.203
393.97	0.238
394.18	0.321
394.40	0.266
394.61	0.279
394.83	0.241
395.04	0.284
395.26	0.192
395.47	0.294
395.69	0.254
395.91	0.272
396.12	0.320
396.34	0.305
396.55	0.201
396.77	0.297
396.98	1.066
397.20	0.356
397.41	0.384
397.63	0.270
397.84	0.267
398.06	0.248
398.27	0.255
398.49	0.296
398.71	0.227
398.92	0.274
399.14	0.364
399.35	0.441
399.57	0.415
399.78	0.296
400.00	0.287
400.21	0.334
400.43	0.268
400.64	0.290
400.86	0.679
401.07	0.368
401.29	0.327
401.50	0.351
401.72	0.552
401.93	0.322
402.15	0.391
402.36	0.351
402.58	0.289
402.79	0.323
403.01	0.517
403.22	0.394
403.44	0.258
403.65	0.393
403.87	0.433
404.08	0.322
404.30	0.549
404.51	0.295
404.73	0.361
404.94	0.315
405.16	0.322
405.37	0.267
405.59	0.476
405.80	0.303
406.02	0.378
406.23	0.379
406.45	0.449
406.66	0.467
406.88	0.324
407.09	0.504
407.31	0.394
407.52	0.489
407.74	0.384
407.95	0.468
408.17	0.439
408.38	0.462
408.60	0.303
408.81	0.498
409.03	0.372
409.24	0.356
409.45	0.429
409.67	0.402
409.88	0.354
410.10	0.457
410.31	0.363
410.53	0.348
410.74	0.484
410.96	0.470
411.17	0.501
411.39	0.392
411.60	0.364
411.82	0.398
412.03	0.399
412.24	0.388
412.46	0.552
412.67	0.464
412.89	0.457
413.10	0.452
413.32	0.406
413.53	0.476
413.75	0.488
413.96	0.374
414.17	0.507
414.39	0.505
414.60	0.418
414.82	0.565
415.03	0.428
415.25	0.474
415.46	0.331
415.68	0.469
415.89	0.879
416.10	0.732
416.32	0.387
416.53	0.466
416.75	0.442
416.96	0.538
417.18	0.457
417.39	0.437
417.60	0.442
417.82	0.651
418.03	0.567
418.25	0.475
418.46	0.483
418.67	0.442
418.89	0.475
419.10	0.485
419.32	0.658
419.53	0.578
419.75	0.497
419.96	0.437
420.17	0.527
420.39	0.493
420.60	0.508
420.82	0.620
421.03	0.500
421.24	0.416
421.46	0.476
421.67	0.514
421.89	0.457
422.10	0.495
422.31	0.488
422.53	0.718
422.74	0.526
422.96	0.416
423.17	0.462
423.38	0.573
423.60	0.484
423.81	0.595
424.03	0.507
424.24	0.558
424.45	0.546
424.67	0.544
424.88	0.485
425.09	0.526
425.31	0.482
425.52	0.514
425.74	0.575
425.95	0.617
426.16	0.483
426.38	0.569
426.59	0.521
426.80	0.605
427.02	0.632
427.23	0.496
427.45	0.648
427.66	0.639
427.87	0.493
428.09	0.530
428.30	0.593
428.51	0.574
428.73	0.629
428.94	0.566
429.15	0.551
429.37	0.529
429.58	0.555
429.79	0.522
430.01	0.629
430.22	0.619
430.44	0.634
430.65	0.569
430.86	0.617
431.08	0.592
431.29	0.533
431.50	0.635
431.72	0.864
431.93	0.688
432.14	0.507
432.36	0.557
432.57	0.566
432.78	0.595
433.00	0.553
433.21	0.546
433.42	0.686
433.64	0.606
433.85	0.685
434.06	0.543
434.28	0.581
434.49	0.598
434.70	0.614
434.92	0.637
435.13	0.684
435.34	0.695
435.56	0.657
435.77	0.649
435.98	0.844
436.20	0.703
436.41	0.607
436.62	0.589
436.83	0.675
437.05	0.761
437.26	0.645
437.47	0.569
437.69	0.616
437.90	0.561
438.11	0.553
438.33	0.605
438.54	0.616
438.75	0.788
438.97	0.777
439.18	0.580
439.39	0.613
439.60	0.678
439.82	0.628
440.03	0.580
440.24	0.855
440.46	0.645
440.67	0.621
440.88	0.680
441.10	0.627
441.31	0.629
441.52	0.686
441.73	0.763
441.95	0.667
442.16	0.623
442.37	0.992
442.58	0.605
442.80	0.591
443.01	0.765
443.22	0.692
443.44	0.587
443.65	0.694
443.86	0.697
444.07	0.758
444.29	0.655
444.50	0.836
444.71	0.634
444.92	0.596
445.14	0.764
445.35	0.823
445.56	0.642
445.78	0.769
445.99	0.759
446.20	0.652
446.41	0.739
446.63	0.740
446.84	0.696
447.05	0.694
447.26	0.844
447.48	0.702
447.69	0.660
447.90	0.754
448.11	0.662
448.33	0.690
448.54	0.702
448.75	0.731
448.96	0.738
449.18	0.777
449.39	0.693
449.60	0.671
449.81	0.809
450.03	0.701
450.24	0.755
450.45	0.712
450.66	0.697
450.87	0.728
451.09	0.679
451.30	0.662
451.51	0.742
451.72	0.758
451.94	0.780
452.15	0.855
452.36	0.714
452.57	0.745
452.78	0.749
453.00	0.789
453.21	0.740
453.42	0.712
453.63	0.813
453.85	0.772
454.06	0.765
454.27	0.914
454.48	0.803
454.69	0.721
454.91	0.786
455.12	0.678
455.33	0.757
455.54	0.778
455.75	0.748
455.97	0.775
456.18	0.767
456.39	0.768
456.60	0.791
456.81	0.729
457.03	0.738
457.24	0.738
457.45	0.835
457.66	0.781
457.87	0.740
458.09	0.768
458.30	0.679
458.51	0.800
458.72	0.827
458.93	0.841
459.15	0.740
459.36	0.816
459.57	0.843
459.78	0.895
459.99	0.792
460.20	0.747
460.42	0.826
460.63	0.782
460.84	0.765
461.05	0.786
461.26	0.849
461.47	0.760
461.69	0.807
461.90	0.847
462.11	0.802
462.32	0.859
462.53	0.796
462.74	0.897
462.96	0.774
463.17	0.766
463.38	0.810
463.59	0.923
463.80	0.767
464.01	0.790
464.23	0.881
464.44	0.836
464.65	0.846
464.86	0.873
465.07	0.878
465.28	0.838
465.49	0.862
465.71	0.815
465.92	0.858
466.13	0.909
466.34	0.840
466.55	0.893
466.76	0.848
466.97	0.872
467.19	0.857
467.40	0.898
467.61	0.900
467.82	0.815
468.03	0.794
468.24	0.867
468.45	0.900
468.66	0.876
468.88	0.886
469.09	0.895
469.30	0.950
469.51	0.871
469.72	0.916
469.93	0.890
470.14	0.870
470.35	0.974
470.57	0.916
470.78	0.850
470.99	0.996
471.20	0.926
471.41	0.878
471.62	0.931
471.83	0.899
472.04	0.933
472.25	0.970
472.47	0.882
472.68	0.892
472.89	0.898
473.10	0.944
473.31	0.890
473.52	0.951
473.73	0.977
473.94	0.894
474.15	0.922
474.36	0.923
474.57	0.958
474.79	0.924
475.00	0.924
475.21	0.907
475.42	1.008
475.63	0.905
475.84	0.944
476.05	0.949
476.26	0.915
476.47	0.952
476.68	1.002
476.89	0.920
477.10	0.973
477.32	0.957
477.53	1.016
477.74	0.929
477.95	0.972
478.16	0.913
478.37	0.958
478.58	0.965
478.79	0.976
479.00	0.973
479.21	0.929
479.42	0.971
479.63	0.972
479.84	0.932
480.05	0.930
480.26	0.957
480.47	0.982
480.69	0.985
480.90	0.947
481.11	0.945
481.32	1.013
481.53	0.951
481.74	1.008
481.95	0.972
482.16	0.993
482.37	1.004
482.58	0.968
482.79	0.983
483.00	1.013
483.21	0.955
483.42	0.926
483.63	1.008
483.84	1.037
484.05	1.022
484.26	0.991
484.47	0.988
484.68	0.947
484.89	0.955
485.10	1.009
485.31	0.985
485.52	0.991
485.73	0.993
485.94	1.036
486.15	0.980
486.37	1.002
486.58	0.966
486.79	0.979
487.00	1.035
487.21	1.021
487.42	1.016
487.63	1.022
487.84	1.046
488.05	1.042
488.26	0.999
488.47	1.001
488.68	1.032
488.89	1.005
489.10	0.998
489.31	1.004
489.52	1.041
489.73	1.005
489.94	1.042
490.15	0.991
490.36	1.031
490.57	0.982
490.78	0.969
490.99	1.006
491.20	1.090
491.41	1.043
491.62	0.983
491.83	1.017
492.04	1.011
492.25	1.021
492.45	1.024
492.66	1.049
492.87	1.037
493.08	1.024
493.29	1.007
493.50	0.995
493.71	1.004
493.92	1.004
494.13	1.017
494.34	1.042
494.55	1.052
494.76	1.083
494.97	1.073
495.18	1.034
495.39	1.051
495.60	0.999
495.81	1.001
496.02	1.022
496.23	1.014
496.44	1.048
496.65	1.035
496.86	1.039
497.07	1.067
497.28	1.064
497.49	1.010
497.70	1.010
497.91	1.034
498.12	1.015
498.32	1.061
498.53	1.044
498.74	1.033
498.95	1.063
499.16	1.016
499.37	1.022
499.58	1.032
499.79	1.064
500.00	1.059
500.21	1.089
500.42	1.026
500.63	1.026
500.84	1.045
501.05	1.024
501.26	1.050
501.46	1.088
501.67	1.047
501.88	1.050
502.09	1.023
502.30	1.031
502.51	1.082
502.72	1.036
502.93	1.052
503.14	1.080
503.35	1.047
503.56	1.042
503.77	1.076
503.97	1.052
504.18	1.049
504.39	1.087
504.60	1.054
504.81	1.085
505.02	1.075
505.23	1.079
505.44	1.054
505.65	1.064
505.86	1.043
506.07	1.112
506.27	1.068
506.48	1.074
506.69	1.054
506.90	1.076
507.11	1.073
507.32	1.049
507.53	1.058
507.74	1.050
507.95	1.063
508.15	1.070
508.36	1.076
508.57	1.088
508.78	1.072
508.99	1.075
509.20	1.048
509.41	1.075
509.62	1.058
509.82	1.055
510.03	1.065
510.24	1.065
510.45	1.089
510.66	1.080
510.87	1.073
511.08	1.031
511.29	1.075
511.49	1.051
511.70	1.101
511.91	1.032
512.12	1.030
512.33	1.068
512.54	1.083
512.75	1.066
512.95	1.092
513.16	1.084
513.37	1.060
513.58	1.100
513.79	1.057
514.00	1.062
514.20	1.080
514.41	1.067
514.62	1.034
514.83	1.081
515.04	1.069
515.25	1.048
515.46	1.059
515.66	1.060
515.87	1.074
516.08	1.041
516.29	1.068
516.50	1.049
516.71	1.041
516.91	1.050
517.12	1.066
517.33	1.050
517.54	1.037
517.75	1.041
517.95	1.055
518.16	1.065
518.37	1.031
518.58	1.038
518.79	1.010
519.00	1.044
519.20	1.055
519.41	1.029
519.62	1.051
519.83	1.063
520.04	1.023
520.24	1.022
520.45	1.031
520.66	1.059
520.87	1.017
521.08	1.016
521.28	1.019
521.49	1.037
521.70	1.004
521.91	1.020
522.12	0.999
522.32	1.026
522.53	1.005
522.74	0.994
522.95	1.003
523.16	1.005
523.36	1.015
523.57	0.996
523.78	0.990
523.99	0.995
524.20	0.987
524.40	1.001
524.61	1.005
524.82	0.977
525.03	0.982
525.23	0.984
525.44	0.967
525.65	0.966
525.86	0.989
526.06	0.959
526.27	0.960
526.48	0.970
526.69	0.951
526.90	0.956
527.10	0.994
527.31	0.945
527.52	0.938
527.73	0.929
527.93	0.939
528.14	0.946
528.35	0.934
528.56	0.933
528.76	0.925
528.97	0.914
529.18	0.906
529.39	0.906
529.59	0.910
529.80	0.942
530.01	0.914
530.22	0.913
530.42	0.881
530.63	0.899
530.84	0.877
531.05	0.892
531.25	0.896
531.46	0.887
531.67	0.864
531.88	0.883
532.08	0.876
532.29	0.870
532.50	0.862
532.70	0.854
532.91	0.843
533.12	0.846
533.33	0.872
533.53	0.841
533.74	0.840
533.95	0.847
534.15	0.834
534.36	0.834
534.57	0.817
534.78	0.819
534.98	0.830
535.19	0.800
535.40	0.801
535.60	0.820
535.81	0.799
536.02	0.801
536.23	0.792
536.43	0.795
536.64	0.781
536.85	0.789
537.05	0.798
537.26	0.775
537.47	0.778
537.67	0.767
537.88	0.762
538.09	0.770
538.30	0.760
538.50	0.751
538.71	0.763
538.92	0.749
539.12	0.745
539.33	0.739
539.54	0.740
539.74	0.744
539.95	0.734
540.16	0.731
540.36	0.723
540.57	0.722
540.78	0.714
540.98	0.712
541.19	0.710
541.40	0.697
541.60	0.708
541.81	0.702
542.02	0.702
542.22	0.692
542.43	0.686
542.64	0.680
542.84	0.680
543.05	0.673
543.26	0.674
543.46	0.676
543.67	0.674
543.88	0.670
544.08	0.660
544.29	0.655
544.50	0.655
544.70	0.656
544.91	0.648
545.12	0.649
545.32	0.643
545.53	0.647
545.74	0.635
545.94	0.632
546.15	0.629
546.35	0.626
546.56	0.622
546.77	0.619
546.97	0.616
547.18	0.608
547.39	0.608
547.59	0.607
547.80	0.602
548.01	0.606
548.21	0.601
548.42	0.593
548.62	0.593
548.83	0.589
549.04	0.586
549.24	0.579
549.45	0.578
549.65	0.574
549.86	0.570
550.07	0.569
550.27	0.567
550.48	0.575
550.69	0.561
550.89	0.561
551.10	0.558
551.30	0.555
551.51	0.555
551.72	0.544
551.92	0.546
552.13	0.545
552.33	0.546
552.54	0.539
552.75	0.533
552.95	0.533
553.16	0.527
553.36	0.525
553.57	0.523
553.78	0.522
553.98	0.522
554.19	0.512
554.39	0.509
554.60	0.511
554.80	0.511
555.01	0.503
555.22	0.505
555.42	0.502
555.63	0.495
555.83	0.499
556.04	0.492
556.25	0.494
556.45	0.485
556.66	0.483
556.86	0.486
557.07	0.483
557.27	0.482
557.48	0.476
557.68	0.473
557.89	0.474
558.10	0.469
558.30	0.466
558.51	0.464
558.71	0.462
558.92	0.457
559.12	0.460
559.33	0.463
559.54	0.457
559.74	0.453
559.95	0.450
560.15	0.450
560.36	0.448
560.56	0.443
560.77	0.443
560.97	0.443
561.18	0.437
561.38	0.436
561.59	0.438
561.79	0.434
562.00	0.432
562.21	0.429
562.41	0.427
562.62	0.426
562.82	0.424
563.03	0.420
563.23	0.420
563.44	0.420
563.64	0.417
563.85	0.418
564.05	0.411
564.26	0.411
564.46	0.409
564.67	0.411
564.87	0.406
565.08	0.404
565.28	0.403
565.49	0.404
565.69	0.401
565.90	0.397
566.10	0.400
566.31	0.393
566.51	0.395
566.72	0.396
566.92	0.390
567.13	0.389
567.33	0.387
567.54	0.386
567.74	0.385
567.95	0.381
568.15	0.382
568.36	0.382
568.56	0.380
568.77	0.374
568.97	0.373
569.18	0.372
569.38	0.370
569.59	0.372
569.79	0.369
570.00	0.366
570.20	0.364
570.41	0.362
570.61	0.361
570.82	0.362
571.02	0.358
571.23	0.360
571.43	0.356
571.64	0.354
571.84	0.354
572.05	0.352
572.25	0.352
572.45	0.350
572.66	0.347
572.86	0.346
573.07	0.345
573.27	0.345
573.48	0.344
573.68	0.340
573.89	0.340
574.09	0.341
574.30	0.339
574.50	0.337
574.70	0.337
574.91	0.334
575.11	0.335
575.32	0.334
575.52	0.330
575.73	0.330
575.93	0.329
576.14	0.328
576.34	0.326
576.54	0.325
576.75	0.323
576.95	0.322
577.16	0.320
577.36	0.319
577.57	0.318
577.77	0.317
577.97	0.314
578.18	0.316
578.38	0.313
578.59	0.311
578.79	0.310
579.00	0.310
579.20	0.309
579.40	0.307
579.61	0.306
579.81	0.306
580.02	0.303
580.22	0.303
580.42	0.302
580.63	0.302
580.83	0.300
581.04	0.298
581.24	0.298
581.45	0.297
581.65	0.297
581.85	0.296
582.06	0.294
582.26	0.293
582.47	0.292
582.67	0.291
582.87	0.290
583.08	0.288
583.28	0.288
583.48	0.286
583.69	0.283
583.89	0.283
584.10	0.283
584.30	0.281
584.50	0.280
584.71	0.278
584.91	0.278
585.12	0.276
585.32	0.277
585.52	0.275
585.73	0.273
585.93	0.273
586.13	0.272
586.34	0.271
586.54	0.270
586.75	0.268
586.95	0.267
587.15	0.267
587.36	0.266
587.56	0.265
587.76	0.264
587.97	0.264
588.17	0.262
588.37	0.262
588.58	0.262
588.78	0.260
588.98	0.260
589.19	0.259
589.39	0.256
589.60	0.258
589.80	0.255
590.00	0.254
590.21	0.254
590.41	0.253
590.61	0.252
590.82	0.252
591.02	0.251
591.22	0.249
591.43	0.250
591.63	0.248
591.83	0.248
592.04	0.246
592.24	0.247
592.44	0.245
592.65	0.244
592.85	0.244
593.05	0.244
593.26	0.242
593.46	0.242
593.66	0.242
593.86	0.241
594.07	0.240
594.27	0.240
594.47	0.238
594.68	0.237
594.88	0.238
595.08	0.237
595.29	0.237
595.49	0.235
595.69	0.234
595.90	0.233
596.10	0.234
596.30	0.233
596.50	0.232
596.71	0.231
596.91	0.230
597.11	0.229
597.32	0.229
597.52	0.228
597.72	0.227
597.93	0.227
598.13	0.225
598.33	0.225
598.53	0.224
598.74	0.224
598.94	0.223
599.14	0.223
599.35	0.223
599.55	0.222
599.75	0.221
599.95	0.221
600.16	0.221
600.36	0.219
600.56	0.219
600.76	0.218
600.97	0.216
601.17	0.215
601.37	0.215
601.58	0.214
601.78	0.214
601.98	0.213
602.18	0.212
602.39	0.212
602.59	0.213
602.79	0.211
602.99	0.211
603.20	0.210
603.40	0.211
603.60	0.211
603.80	0.211
604.01	0.210
604.21	0.209
604.41	0.208
604.61	0.207
604.82	0.207
605.02	0.207
605.22	0.207
605.42	0.206
605.62	0.206
605.83	0.204
606.03	0.204
606.23	0.204
606.43	0.203
606.64	0.203
606.84	0.203
607.04	0.202
607.24	0.201
607.45	0.201
607.65	0.200
607.85	0.201
608.05	0.199
608.25	0.198
608.46	0.198
608.66	0.198
608.86	0.197
609.06	0.196
609.26	0.195
609.47	0.196
609.67	0.195
609.87	0.196
610.07	0.195
610.28	0.193
610.48	0.193
610.68	0.193
610.88	0.192
611.08	0.193
611.29	0.191
611.49	0.190
611.69	0.191
611.89	0.190
612.09	0.189
612.29	0.189
612.50	0.189
612.70	0.189
612.90	0.188
613.10	0.188
613.30	0.188
613.51	0.187
613.71	0.187
613.91	0.191
614.11	0.186
614.31	0.185
614.51	0.185
614.72	0.184
614.92	0.184
615.12	0.183
615.32	0.184
615.52	0.183
615.72	0.183
615.93	0.183
616.13	0.183
616.33	0.182
616.53	0.182
616.73	0.182
616.93	0.181
617.14	0.181
617.34	0.181
617.54	0.181
617.74	0.181
617.94	0.180
618.14	0.180
618.34	0.179
618.55	0.179
618.75	0.179
618.95	0.179
619.15	0.178
619.35	0.177
619.55	0.176
619.75	0.177
619.96	0.176
620.16	0.176
620.36	0.176
620.56	0.175
620.76	0.175
620.96	0.175
621.16	0.175
621.36	0.175
621.57	0.175
621.77	0.176
621.97	0.175
622.17	0.174
622.37	0.174
622.57	0.174
622.77	0.174
622.97	0.172
623.18	0.172
623.38	0.172
623.58	0.172
623.78	0.171
623.98	0.171
624.18	0.170
624.38	0.169
624.58	0.169
624.78	0.169
624.98	0.170
625.19	0.169
625.39	0.169
625.59	0.169
625.79	0.169
625.99	0.168
626.19	0.168
626.39	0.168
626.59	0.168
626.79	0.168
626.99	0.168
627.19	0.167
627.40	0.168
627.60	0.167
627.80	0.167
628.00	0.167
628.20	0.166
628.40	0.166
628.60	0.166
628.80	0.165
629.00	0.165
629.20	0.165
629.40	0.165
629.60	0.164
629.80	0.164
630.00	0.164
630.20	0.164
630.41	0.163
630.61	0.162
630.81	0.162
631.01	0.163
631.21	0.162
631.41	0.162
631.61	0.162
631.81	0.162
632.01	0.161
632.21	0.161
632.41	0.160
632.61	0.160
632.81	0.160
633.01	0.161
633.21	0.160
633.41	0.161
633.61	0.160
633.81	0.159
634.01	0.158
634.21	0.158
634.41	0.158
634.61	0.159
634.81	0.158
635.01	0.157
635.22	0.157
635.42	0.157
635.62	0.157
635.82	0.157
636.02	0.157
636.22	0.156
636.42	0.156
636.62	0.156
636.82	0.156
637.02	0.155
637.22	0.155
637.42	0.155
637.62	0.154
637.82	0.154
638.02	0.154
638.22	0.154
638.42	0.154
638.62	0.153
638.82	0.154
639.02	0.153
639.22	0.153
639.42	0.153
639.62	0.152
639.82	0.152
640.02	0.152
640.22	0.152
640.42	0.152
640.62	0.151
640.82	0.151
641.02	0.150
641.22	0.150
641.42	0.149
641.61	0.150
641.81	0.150
642.01	0.150
642.21	0.150
642.41	0.150
642.61	0.149
642.81	0.149
643.01	0.149
643.21	0.149
643.41	0.149
643.61	0.148
643.81	0.148
644.01	0.147
644.21	0.146
644.41	0.147
644.61	0.146
644.81	0.147
645.01	0.146
645.21	0.146
645.41	0.146
645.61	0.146
645.81	0.145
646.01	0.145
646.21	0.146
646.40	0.145
646.60	0.145
646.80	0.146
647.00	0.145
647.20	0.144
647.40	0.145
647.60	0.144
647.80	0.144
648.00	0.144
648.20	0.144
648.40	0.144
648.60	0.143
648.80	0.143
649.00	0.143
649.20	0.143
649.39	0.143
649.59	0.142
649.79	0.142
649.99	0.142
650.19	0.141
650.39	0.141
650.59	0.141
650.79	0.140
650.99	0.140
651.19	0.139
651.39	0.139
651.58	0.139
651.78	0.138
651.98	0.138
652.18	0.138
652.38	0.138
652.58	0.138
652.78	0.138
652.98	0.137
653.18	0.138
653.38	0.138
653.57	0.137
653.77	0.138
653.97	0.137
654.17	0.137
654.37	0.136
654.57	0.136
654.77	0.136
654.97	0.136
655.16	0.136
655.36	0.135
655.56	0.135
655.76	0.134
655.96	0.135
656.16	0.134
656.36	0.134
656.56	0.133
656.75	0.133
656.95	0.133
657.15	0.134
657.35	0.133
657.55	0.133
657.75	0.133
657.95	0.133
658.14	0.133
658.34	0.133
658.54	0.132
658.74	0.132
658.94	0.132
659.14	0.131
659.34	0.131
659.53	0.130
659.73	0.130
659.93	0.130
660.13	0.130
660.33	0.129
660.53	0.129
660.72	0.130
660.92	0.129
661.12	0.129
661.32	0.129
661.52	0.128
661.72	0.128
661.91	0.128
662.11	0.128
662.31	0.128
662.51	0.128
662.71	0.127
662.90	0.126
663.10	0.126
663.30	0.126
663.50	0.126
663.70	0.126
663.90	0.125
664.09	0.125
664.29	0.124
664.49	0.124
664.69	0.124
664.89	0.124
665.08	0.124
665.28	0.124
665.48	0.124
665.68	0.123
665.88	0.124
666.07	0.123
666.27	0.123
666.47	0.123
666.67	0.123
666.87	0.123
667.06	0.123
667.26	0.122
667.46	0.122
667.66	0.122
667.85	0.123
668.05	0.123
668.25	0.123
668.45	0.123
668.65	0.123
668.84	0.122
669.04	0.122
669.24	0.122
669.44	0.121
669.63	0.121
669.83	0.121
670.03	0.119
670.23	0.119
670.42	0.118
670.62	0.118
670.82	0.117
671.02	0.117
671.22	0.116
671.41	0.116
671.61	0.116
671.81	0.116
672.01	0.116
672.20	0.116
672.40	0.116
672.60	0.116
672.80	0.116
672.99	0.116
673.19	0.115
673.39	0.115
673.58	0.115
673.78	0.115
673.98	0.114
674.18	0.114
674.37	0.114
674.57	0.114
674.77	0.114
674.97	0.114
675.16	0.115
675.36	0.114
675.56	0.114
675.75	0.114
675.95	0.114
676.15	0.114
676.35	0.114
676.54	0.114
676.74	0.113
676.94	0.114
677.13	0.113
677.33	0.112
677.53	0.112
677.73	0.112
677.92	0.111
678.12	0.112
678.32	0.111
678.51	0.111
678.71	0.111
678.91	0.110
679.11	0.110
679.30	0.110
679.50	0.110
679.70	0.109
679.89	0.109
680.09	0.110
680.29	0.109
680.48	0.108
680.68	0.108
680.88	0.108
681.07	0.109
681.27	0.108
681.47	0.108
681.66	0.108
681.86	0.108
682.06	0.108
682.25	0.107
682.45	0.108
682.65	0.108
682.84	0.107
683.04	0.106
683.24	0.106
683.43	0.106
683.63	0.106
683.83	0.106
684.02	0.106
684.22	0.105
684.42	0.105
684.61	0.105
684.81	0.105
685.01	0.105
685.20	0.105
685.40	0.104
685.60	0.104
685.79	0.104
685.99	0.104
686.19	0.104
686.38	0.104
686.58	0.104
686.77	0.104
686.97	0.103
687.17	0.103
687.36	0.103
687.56	0.103
687.76	0.103
687.95	0.103
688.15	0.103
688.34	0.103
688.54	0.102
688.74	0.102
688.93	0.101
689.13	0.101
689.33	0.102
689.52	0.101
689.72	0.102
689.91	0.101
690.11	0.100
690.31	0.100
690.50	0.100
690.70	0.100
690.89	0.100
691.09	0.100
691.29	0.100
691.48	0.099
691.68	0.099
691.87	0.099
692.07	0.099
692.27	0.099
692.46	0.099
692.66	0.099
692.85	0.099
693.05	0.098
693.25	0.098
693.44	0.098
693.64	0.098
693.83	0.098
694.03	0.097
694.22	0.097
694.42	0.097
694.62	0.097
694.81	0.097
695.01	0.097
695.20	0.097
695.40	0.096
695.59	0.096
695.79	0.096
695.99	0.096
696.18	0.096
696.38	0.096
696.57	0.096
696.77	0.095
696.96	0.096
697.16	0.095
697.36	0.095
697.55	0.095
697.75	0.095
697.94	0.094
698.14	0.094
698.33	0.094
698.53	0.094
698.72	0.093
698.92	0.093
699.11	0.093
699.31	0.093
699.51	0.093
699.70	0.093
699.90	0.093
700.09	0.093
700.29	0.093
700.48	0.093
700.68	0.093
700.87	0.093
701.07	0.093
701.26	0.092
701.46	0.092
701.65	0.092
701.85	0.092
702.04	0.092
702.24	0.091
702.43	0.091
702.63	0.091
702.82	0.091
703.02	0.091
703.21	0.091
703.41	0.091
703.60	0.091
703.80	0.091
703.99	0.090
704.19	0.091
704.38	0.090
704.58	0.090
704.77	0.090
704.97	0.090
705.16	0.090
705.36	0.090
705.55	0.090
705.75	0.090
705.94	0.090
706.14	0.090
706.33	0.090
706.53	0.091
706.72	0.091
706.92	0.090
707.11	0.090
707.31	0.089
707.50	0.089
707.70	0.089
707.89	0.089
708.09	0.088
708.28	0.088
708.48	0.088
708.67	0.087
708.86	0.087
709.06	0.088
709.25	0.088
709.45	0.087
709.64	0.087
709.84	0.087
710.03	0.087
710.23	0.087
710.42	0.087
710.62	0.088
710.81	0.087
711.00	0.088
711.20	0.087
711.39	0.087
711.59	0.087
711.78	0.087
711.98	0.087
712.17	0.087
712.37	0.087
712.56	0.087
712.75	0.087
712.95	0.088
713.14	0.087
713.34	0.087
713.53	0.088
713.73	0.088
713.92	0.088
714.11	0.088
714.31	0.088
714.50	0.087
714.70	0.087
714.89	0.087
715.08	0.087
715.28	0.087
715.47	0.087
715.67	0.086
715.86	0.086
716.06	0.086
716.25	0.086
716.44	0.086
716.64	0.086
716.83	0.086
717.03	0.086
717.22	0.085
717.41	0.086
717.61	0.085
717.80	0.086
717.99	0.086
718.19	0.086
718.38	0.086
718.58	0.085
718.77	0.085
718.96	0.085
719.16	0.085
719.35	0.085
719.55	0.084
719.74	0.084
719.93	0.084
720.13	0.084
720.32	0.083
720.51	0.084
720.71	0.084
720.90	0.084
721.10	0.084
721.29	0.084
721.48	0.084
721.68	0.084
721.87	0.084
722.06	0.084
722.26	0.085
722.45	0.084
722.64	0.085
722.84	0.084
723.03	0.084
723.22	0.085
723.42	0.085
723.61	0.085
723.80	0.085
724.00	0.085
724.19	0.084
724.38	0.084
724.58	0.084
724.77	0.083
724.96	0.083
725.16	0.083
725.35	0.083
725.54	0.083
725.74	0.083
725.93	0.083
726.12	0.083
726.32	0.083
726.51	0.083
726.70	0.083
726.90	0.084
727.09	0.083
727.28	0.083
727.48	0.083
727.67	0.083
727.86	0.083
728.06	0.083
728.25	0.083
728.44	0.083
728.64	0.083
728.83	0.083
729.02	0.083
729.21	0.083
729.41	0.083
729.60	0.083
729.79	0.083
729.99	0.083
730.18	0.083
730.37	0.083
730.56	0.083
730.76	0.083
730.95	0.083
731.14	0.083
731.34	0.083
731.53	0.083
731.72	0.083
731.91	0.083
732.11	0.083
732.30	0.083
732.49	0.083
732.69	0.084
732.88	0.084
733.07	0.083
733.26	0.084
733.46	0.084
733.65	0.084
733.84	0.083
734.03	0.084
734.23	0.084
734.42	0.084
734.61	0.084
734.80	0.083
735.00	0.083
735.19	0.083
735.38	0.084
735.57	0.084
735.77	0.084
735.96	0.084
736.15	0.084
736.34	0.084
736.54	0.084
736.73	0.084
736.92	0.084
737.11	0.084
737.31	0.084
737.50	0.084
737.69	0.084
737.88	0.083
738.07	0.083
738.27	0.083
738.46	0.083
738.65	0.083
738.84	0.083
739.04	0.083
739.23	0.083
739.42	0.084
739.61	0.083
739.80	0.083
740.00	0.083
740.19	0.084
740.38	0.084
740.57	0.083
740.76	0.083
740.96	0.083
741.15	0.083
741.34	0.083
741.53	0.083
741.72	0.083
741.92	0.083
742.11	0.083
742.30	0.082
742.49	0.082
742.68	0.083
742.88	0.083
743.07	0.082
743.26	0.082
743.45	0.083
743.64	0.082
743.84	0.082
744.03	0.082
744.22	0.082
744.41	0.082
744.60	0.082
744.79	0.082
744.99	0.082
745.18	0.082
745.37	0.082
745.56	0.082
745.75	0.082
745.94	0.082
746.14	0.082
746.33	0.082
746.52	0.082
746.71	0.082
746.90	0.082
747.09	0.082
747.28	0.081
747.48	0.081
747.67	0.081
747.86	0.081
748.05	0.081
748.24	0.081
748.43	0.081
748.62	0.080
748.82	0.081
749.01	0.081
749.20	0.081
749.39	0.081
749.58	0.081
749.77	0.081
749.96	0.081
750.16	0.081
750.35	0.081
750.54	0.081
750.73	0.081
750.92	0.081
751.11	0.081
751.30	0.081
751.49	0.081
751.68	0.080
751.88	0.080
752.07	0.080
752.26	0.080
752.45	0.080
752.64	0.080
752.83	0.080
753.02	0.080
753.21	0.080
753.40	0.079
753.60	0.079
753.79	0.079
753.98	0.079
754.17	0.079
754.36	0.079
754.55	0.079
754.74	0.079
754.93	0.079
755.12	0.078
755.31	0.078
755.50	0.078
755.70	0.078
755.89	0.078
756.08	0.078
756.27	0.078
756.46	0.078
756.65	0.078
756.84	0.078
757.03	0.078
757.22	0.078
757.41	0.078
757.60	0.078
757.79	0.078
757.98	0.078
758.17	0.078
758.36	0.078
758.56	0.078
758.75	0.078
758.94	0.078
759.13	0.078
759.32	0.078
759.51	0.078
759.70	0.078
759.89	0.078
760.08	0.077
760.27	0.077
760.46	0.077
760.65	0.077
760.84	0.077
761.03	0.077
761.22	0.077
761.41	0.077
761.60	0.077
761.79	0.076
761.98	0.076
762.17	0.076
762.36	0.076
762.55	0.076
762.74	0.076
762.93	0.076
763.12	0.076
763.31	0.076
763.50	0.076
763.69	0.076
763.88	0.076
764.07	0.076
764.26	0.076
764.45	0.076
764.64	0.076
764.83	0.076
765.02	0.076
765.21	0.076
765.40	0.076
765.59	0.076
765.78	0.076
765.97	0.076
766.16	0.076
766.35	0.076
766.54	0.076
766.73	0.076
766.92	0.076
767.11	0.076
767.30	0.076
767.49	0.076
767.68	0.076
767.87	0.075
768.06	0.076
768.25	0.076
768.44	0.076
768.63	0.075
768.82	0.075
769.01	0.075
769.20	0.075
769.39	0.075
769.58	0.075
769.77	0.075
769.96	0.075
770.15	0.075
770.34	0.075
770.53	0.075
770.72	0.075
770.91	0.075
771.10	0.075
771.29	0.075
771.47	0.074
771.66	0.074
771.85	0.074
772.04	0.074
772.23	0.074
772.42	0.074
772.61	0.074
772.80	0.074
772.99	0.074
773.18	0.074
773.37	0.074
773.56	0.074
773.75	0.074
773.94	0.074
774.13	0.074
774.31	0.074
774.50	0.074
774.69	0.074
774.88	0.074
775.07	0.074
775.26	0.074
775.45	0.073
775.64	0.073
775.83	0.073
776.02	0.073
776.21	0.073
776.40	0.073
776.58	0.073
776.77	0.073
776.96	0.074
777.15	0.074
777.34	0.074
777.53	0.074
777.72	0.074
777.91	0.074
778.10	0.074
778.28	0.074
778.47	0.074
778.66	0.073
778.85	0.073
779.04	0.072
779.23	0.072
779.42	0.072
779.61	0.072
779.79	0.072
779.98	0.071
780.17	0.071
780.36	0.071
780.55	0.071
780.74	0.071
780.93	0.071
781.12	0.072
781.30	0.071
781.49	0.072
781.68	0.072
781.87	0.072
782.06	0.072
782.25	0.072
782.44	0.072
782.62	0.072
782.81	0.072
783.00	0.072
783.19	0.072
783.38	0.072
783.57	0.072
783.75	0.072
783.94	0.072
784.13	0.072
784.32	0.071
784.51	0.071
784.70	0.072
784.88	0.071
785.07	0.071
785.26	0.071
785.45	0.071
785.64	0.071
785.83	0.071
786.01	0.071
786.20	0.071
786.39	0.072
786.58	0.071
786.77	0.071
786.95	0.071
787.14	0.071
787.33	0.071
787.52	0.071
787.71	0.071
787.90	0.071
788.08	0.071
788.27	0.071
788.46	0.071
788.65	0.071
788.84	0.071
789.02	0.071
789.21	0.071
789.40	0.071
789.59	0.071
789.77	0.071
789.96	0.070
790.15	0.071
790.34	0.071
790.53	0.071
790.71	0.070
790.90	0.070
791.09	0.070
791.28	0.070
791.46	0.070
791.65	0.070
791.84	0.070
792.03	0.070
792.22	0.070
792.40	0.070
792.59	0.070
792.78	0.070
792.97	0.071
793.15	0.071
793.34	0.071
793.53	0.071
793.72	0.070
793.90	0.070
794.09	0.071
794.28	0.071
794.47	0.071
794.65	0.070
794.84	0.070
795.03	0.070
795.22	0.070
795.40	0.070
795.59	0.070
795.78	0.070
795.97	0.070
796.15	0.070
796.34	0.070
796.53	0.070
796.71	0.070
796.90	0.070
797.09	0.070
797.28	0.070
797.46	0.070
797.65	0.070
797.84	0.069
798.02	0.069
798.21	0.069
798.40	0.069
798.59	0.068
798.77	0.069
798.96	0.068
799.15	0.068
799.33	0.068
799.52	0.068
799.71	0.068
799.90	0.068
800.08	0.068
800.27	0.068
800.46	0.068
800.64	0.068
800.83	0.068
801.02	0.068
801.20	0.068
801.39	0.068
801.58	0.068
801.76	0.068
801.95	0.068
802.14	0.068
802.32	0.068
802.51	0.069
802.70	0.068
802.88	0.068
803.07	0.068
803.26	0.068
803.44	0.068
803.63	0.068
803.82	0.068
804.00	0.068
804.19	0.068
804.38	0.068
804.56	0.068
804.75	0.068
804.94	0.068
805.12	0.068
805.31	0.068
805.50	0.068
805.68	0.068
805.87	0.068
806.06	0.068
806.24	0.068
806.43	0.068
806.62	0.068
806.80	0.068
806.99	0.067
807.17	0.068
807.36	0.068
807.55	0.068
807.73	0.068
807.92	0.068
808.11	0.068
808.29	0.068
808.48	0.067
808.66	0.068
808.85	0.067
809.04	0.067
809.22	0.067
809.41	0.067
809.59	0.067
809.78	0.067
809.97	0.067
810.15	0.067
810.34	0.067
810.53	0.067
810.71	0.066
810.90	0.066
811.08	0.066
811.27	0.066
811.45	0.067
811.64	0.066
811.83	0.067
812.01	0.066
812.20	0.066
812.38	0.066
812.57	0.067
812.76	0.067
812.94	0.067
813.13	0.067
813.31	0.066
813.50	0.066
813.68	0.066
813.87	0.066
814.06	0.066
814.24	0.066
814.43	0.066
814.61	0.066
814.80	0.066
814.98	0.066
815.17	0.066
815.36	0.067
815.54	0.067
815.73	0.067
815.91	0.067
816.10	0.067
816.28	0.067
816.47	0.067
816.65	0.067
816.84	0.067
817.03	0.067
817.21	0.067
817.40	0.067
817.58	0.067
817.77	0.067
817.95	0.067
818.14	0.067
818.32	0.067
818.51	0.068
818.69	0.068
818.88	0.068
819.06	0.068
819.25	0.067
819.43	0.067
819.62	0.067
819.80	0.067
819.99	0.068
820.18	0.067
820.36	0.067
820.55	0.067
820.73	0.067
820.92	0.067
821.10	0.067
821.29	0.068
821.47	0.068
821.66	0.068
821.84	0.068
822.03	0.067
822.21	0.067
822.40	0.067
822.58	0.067
822.77	0.067
822.95	0.067
823.14	0.067
823.32	0.067
823.50	0.068
823.69	0.067
823.87	0.068
824.06	0.068
824.24	0.068
824.43	0.068
824.61	0.068
824.80	0.069
824.98	0.069
825.17	0.069
825.35	0.069
825.54	0.069
825.72	0.069
825.91	0.068
826.09	0.068
826.28	0.068
826.46	0.069
826.64	0.069
826.83	0.069
827.01	0.069
827.20	0.069
827.38	0.069
827.57	0.070
827.75	0.070
827.94	0.070
828.12	0.071
828.31	0.071
828.49	0.070
828.67	0.071
828.86	0.071
829.04	0.071
829.23	0.071
829.41	0.071
829.60	0.071
829.78	0.072
829.96	0.072
830.15	0.072
830.33	0.072
830.52	0.073
830.70	0.072
830.88	0.072
831.07	0.072
831.25	0.072
831.44	0.072
831.62	0.072
831.81	0.072
831.99	0.071
832.17	0.072
832.36	0.072
832.54	0.072
832.73	0.072
832.91	0.072
833.09	0.072
833.28	0.072
833.46	0.072
833.65	0.073
833.83	0.073
834.01	0.073
834.20	0.073
834.38	0.073
834.56	0.073
834.75	0.073
834.93	0.073
835.12	0.073
835.30	0.073
835.48	0.074
835.67	0.073
835.85	0.073
836.03	0.073
836.22	0.073
836.40	0.073
836.59	0.073
836.77	0.073
836.95	0.073
837.14	0.073
837.32	0.073
837.50	0.073
837.69	0.073
837.87	0.073
838.05	0.073
838.24	0.073
838.42	0.073
838.60	0.073
838.79	0.074
838.97	0.073
839.15	0.073
839.34	0.074
839.52	0.074
839.70	0.074
839.89	0.074
840.07	0.074
840.25	0.075
840.44	0.074
840.62	0.074
840.80	0.074
840.99	0.074
841.17	0.074
841.35	0.074
841.54	0.074
841.72	0.074
841.90	0.074
842.09	0.075
842.27	0.075
842.45	0.075
842.64	0.075
842.82	0.075
843.00	0.075
843.19	0.075
843.37	0.075
843.55	0.075
843.73	0.074
843.92	0.075
844.10	0.074
844.28	0.074
844.47	0.074
844.65	0.074
844.83	0.075
845.01	0.075
845.20	0.075
845.38	0.075
845.56	0.075
845.75	0.075
845.93	0.075
846.11	0.075
846.29	0.075
846.48	0.075
846.66	0.075
846.84	0.075
847.02	0.075
847.21	0.075
847.39	0.075
847.57	0.074
847.76	0.075
847.94	0.074
848.12	0.074
848.30	0.074
848.49	0.074
848.67	0.074
848.85	0.074
849.03	0.075
849.22	0.075
849.40	0.075
849.58	0.075
849.76	0.076
849.95	0.076
850.13	0.076
850.31	0.076
850.49	0.077
850.67	0.077
850.86	0.077
851.04	0.077
851.22	0.076
851.40	0.076
851.59	0.076
851.77	0.076
851.95	0.076
852.13	0.076
852.31	0.076
852.50	0.076
852.68	0.076
852.86	0.076
853.04	0.076
853.23	0.076
853.41	0.076
853.59	0.076
853.77	0.076
853.95	0.076
854.14	0.076
854.32	0.076
854.50	0.076
854.68	0.076
854.86	0.076
855.04	0.076
855.23	0.076
855.41	0.076
855.59	0.076
855.77	0.076
855.95	0.076
856.14	0.077
856.32	0.076
856.50	0.077
856.68	0.077
856.86	0.077
857.04	0.077
857.23	0.076
857.41	0.076
857.59	0.076
857.77	0.076
857.95	0.076
858.13	0.076
858.32	0.076
858.50	0.076
858.68	0.075
858.86	0.075
859.04	0.076
859.22	0.075
859.41	0.076
859.59	0.076
859.77	0.076
859.95	0.076
860.13	0.076
860.31	0.076
860.49	0.076
860.68	0.076
860.86	0.076
861.04	0.076
861.22	0.076
861.40	0.076
861.58	0.076
861.76	0.076
861.94	0.076
862.13	0.076
862.31	0.076
862.49	0.077
862.67	0.077
862.85	0.077
863.03	0.077
863.21	0.078
863.39	0.078
863.57	0.078
863.76	0.078
863.94	0.077
864.12	0.078
864.30	0.077
864.48	0.077
864.66	0.077
864.84	0.078
865.02	0.078
865.20	0.078
865.38	0.078
865.57	0.078
865.75	0.078
865.93	0.078
866.11	0.078
866.29	0.078
866.47	0.079
866.65	0.078
866.83	0.078
867.01	0.078
867.19	0.078
867.37	0.078
867.55	0.078
867.73	0.078
867.92	0.078
868.10	0.078
868.28	0.078
868.46	0.078
868.64	0.078
868.82	0.078
869.00	0.078
869.18	0.078
869.36	0.078
869.54	0.078
869.72	0.079
869.90	0.078
870.08	0.078
870.26	0.078
870.44	0.078
870.62	0.078
870.80	0.079
870.98	0.078
871.16	0.079
871.34	0.078
871.53	0.078
871.71	0.078
871.89	0.078
872.07	0.078
872.25	0.078
872.43	0.078
872.61	0.078
872.79	0.078
872.97	0.078
873.15	0.078
873.33	0.078
873.51	0.078
873.69	0.079
873.87	0.079
874.05	0.079
874.23	0.079
874.41	0.079
874.59	0.080
874.77	0.079
874.95	0.079
875.13	0.079
875.31	0.079
875.49	0.079
875.67	0.079
875.85	0.079
876.03	0.079
876.21	0.080
876.39	0.080
876.57	0.080
876.75	0.080
876.93	0.080
877.11	0.080
877.29	0.080
877.47	0.079
877.65	0.080
877.82	0.080
878.00	0.080
878.18	0.080
878.36	0.080
878.54	0.080
878.72	0.080
878.90	0.080
879.08	0.080
879.26	0.080
879.44	0.080
879.62	0.080
879.80	0.080
879.98	0.081
880.16	0.080
880.34	0.080
880.52	0.080
880.70	0.080
880.88	0.080
881.06	0.080
881.24	0.080
881.42	0.080
881.59	0.080
881.77	0.079
881.95	0.079
882.13	0.080
882.31	0.080
882.49	0.080
882.67	0.080
882.85	0.080
883.03	0.080
883.21	0.080
883.39	0.080
883.57	0.081
883.75	0.081
883.92	0.081
884.10	0.081
884.28	0.081
884.46	0.081
884.64	0.081
884.82	0.081
885.00	0.081
885.18	0.081
885.36	0.081
885.54	0.081
885.71	0.081
885.89	0.081
886.07	0.081
886.25	0.081
886.43	0.081
886.61	0.081
886.79	0.081
886.97	0.081
887.15	0.081
887.32	0.081
887.50	0.081
887.68	0.081
887.86	0.081
888.04	0.082
888.22	0.082
888.40	0.082
888.57	0.082
888.75	0.082
888.93	0.082
889.11	0.082
889.29	0.083
889.47	0.083
889.65	0.083
889.82	0.083
890.00	0.083
890.18	0.083
890.36	0.083
890.54	0.083
890.72	0.083
890.90	0.083
891.07	0.083
891.25	0.083
891.43	0.083
891.61	0.083
891.79	0.083
891.97	0.083
892.14	0.082
892.32	0.083
892.50	0.082
892.68	0.083
892.86	0.083
893.03	0.083
893.21	0.083
893.39	0.083
893.57	0.083
893.75	0.083
893.93	0.084
894.10	0.084
894.28	0.084
894.46	0.084
894.64	0.084
894.82	0.084
894.99	0.084
895.17	0.084
895.35	0.084
895.53	0.084
895.71	0.084
895.88	0.084
896.06	0.084
896.24	0.084
896.42	0.084
896.59	0.084
896.77	0.084
896.95	0.084
897.13	0.084
897.31	0.085
897.48	0.084
897.66	0.085
897.84	0.084
898.02	0.084
898.19	0.084
898.37	0.084
898.55	0.084
898.73	0.084
898.91	0.085
899.08	0.084
899.26	0.084
899.44	0.085
899.62	0.085
899.79	0.085
899.97	0.085
900.15	0.085
900.33	0.085
900.50	0.085
900.68	0.085
900.86	0.085
901.04	0.086
901.21	0.086
901.39	0.086
901.57	0.086
901.74	0.086
901.92	0.086
902.10	0.086
902.28	0.086
902.45	0.086
902.63	0.086
902.81	0.086
902.99	0.086
903.16	0.086
903.34	0.086
903.52	0.086
903.69	0.086
903.87	0.086
904.05	0.086
904.22	0.087
904.40	0.087
904.58	0.087
904.76	0.087
904.93	0.087
905.11	0.087
905.29	0.087
905.46	0.087
905.64	0.087
905.82	0.087
905.99	0.087
906.17	0.087
906.35	0.087
906.53	0.087
906.70	0.087
906.88	0.087
907.06	0.087
907.23	0.087
907.41	0.088
907.59	0.088
907.76	0.088
907.94	0.088
908.12	0.088
908.29	0.089
908.47	0.089
908.65	0.089
908.82	0.089
909.00	0.089
909.18	0.089
909.35	0.089
909.53	0.089
909.71	0.089
909.88	0.089
910.06	0.089
910.23	0.088
910.41	0.089
910.59	0.088
910.76	0.088
910.94	0.088
911.12	0.088
911.29	0.088
911.47	0.089
911.65	0.089
911.82	0.089
912.00	0.089
912.17	0.089
912.35	0.090
912.53	0.090
912.70	0.090
912.88	0.090
913.06	0.091
913.23	0.091
913.41	0.091
913.58	0.090
913.76	0.090
913.94	0.091
914.11	0.091
914.29	0.091
914.46	0.091
914.64	0.090
914.82	0.091
914.99	0.091
915.17	0.091
915.34	0.091
915.52	0.091
915.70	0.091
915.87	0.091
916.05	0.092
916.22	0.091
916.40	0.092
916.57	0.092
916.75	0.092
916.93	0.092
917.10	0.092
917.28	0.093
917.45	0.092
917.63	0.093
917.80	0.093
917.98	0.093
918.16	0.093
918.33	0.093
918.51	0.093
918.68	0.093
918.86	0.094
919.03	0.094
919.21	0.094
919.39	0.094
919.56	0.095
919.74	0.095
919.91	0.095
920.09	0.095
920.26	0.095
920.44	0.095
920.61	0.096
920.79	0.096
920.96	0.095
921.14	0.095
921.31	0.096
921.49	0.096
921.67	0.096
921.84	0.097
922.02	0.097
922.19	0.098
922.37	0.098
922.54	0.098
922.72	0.098
922.89	0.098
923.07	0.098
923.24	0.098
923.42	0.098
923.59	0.098
923.77	0.099
923.94	0.099
924.12	0.099
924.29	0.100
924.47	0.100
924.64	0.100
924.82	0.100
924.99	0.101
925.17	0.102
925.34	0.102
925.52	0.102
925.69	0.103
925.87	0.103
926.04	0.103
926.22	0.103
926.39	0.104
926.57	0.104
926.74	0.104
926.91	0.105
927.09	0.105
927.26	0.105
927.44	0.105
927.61	0.106
927.79	0.106
927.96	0.106
928.14	0.107
928.31	0.107
928.49	0.107
928.66	0.108
928.84	0.109
929.01	0.109
929.18	0.110
929.36	0.110
929.53	0.110
929.71	0.111
929.88	0.111
930.06	0.111
930.23	0.112
930.41	0.112
930.58	0.113
930.75	0.112
930.93	0.113
931.10	0.113
931.28	0.114
931.45	0.114
931.63	0.114
931.80	0.115
931.97	0.115
932.15	0.116
932.32	0.116
932.50	0.117
932.67	0.118
932.84	0.118
933.02	0.119
933.19	0.119
933.37	0.120
933.54	0.121
933.71	0.121
933.89	0.122
934.06	0.122
934.24	0.123
934.41	0.123
934.58	0.124
934.76	0.124
934.93	0.124
935.11	0.124
935.28	0.124
935.45	0.124
935.63	0.125
935.80	0.125
935.98	0.126
936.15	0.126
936.32	0.127
936.50	0.128
936.67	0.128
936.84	0.128
937.02	0.130
937.19	0.130
937.36	0.131
937.54	0.131
937.71	0.132
937.89	0.132
938.06	0.133
938.23	0.133
938.41	0.134
938.58	0.135
938.75	0.135
938.93	0.135
939.10	0.135
939.27	0.136
939.45	0.137
939.62	0.137
939.79	0.138
939.97	0.138
940.14	0.139
940.31	0.139
940.49	0.140
940.66	0.140
940.83	0.141
941.01	0.142
941.18	0.142
941.35	0.143
941.53	0.143
941.70	0.144
941.87	0.144
942.05	0.145
942.22	0.146
942.39	0.147
942.57	0.147
942.74	0.148
942.91	0.149
943.08	0.149
943.26	0.150
943.43	0.150
943.60	0.151
943.78	0.152
943.95	0.153
944.12	0.153
944.29	0.154
944.47	0.154
944.64	0.155
944.81	0.156
944.99	0.157
945.16	0.157
945.33	0.158
945.50	0.159
945.68	0.160
945.85	0.161
946.02	0.162
946.20	0.163
946.37	0.164
946.54	0.165
946.71	0.166
946.89	0.166
947.06	0.167
947.23	0.168
947.40	0.169
947.58	0.169
947.75	0.170
947.92	0.171
948.09	0.171
948.27	0.172
948.44	0.174
948.61	0.175
948.78	0.176
948.96	0.177
949.13	0.178
949.30	0.179
949.47	0.180
949.65	0.181
949.82	0.183
949.99	0.183
950.16	0.185
950.33	0.185
950.51	0.187
950.68	0.188
950.85	0.189
951.02	0.190
951.20	0.191
951.37	0.193
951.54	0.193
951.71	0.194
951.88	0.196
952.06	0.197
952.23	0.198
952.40	0.200
952.57	0.201
952.74	0.202
952.92	0.203
953.09	0.204
953.26	0.206
953.43	0.207
953.60	0.208
953.77	0.208
953.95	0.209
954.12	0.211
954.29	0.212
954.46	0.214
954.63	0.215
954.81	0.216
954.98	0.217
955.15	0.219
955.32	0.220
955.49	0.220
955.66	0.222
955.84	0.223
956.01	0.223
956.18	0.226
956.35	0.227
956.52	0.227
956.69	0.229
956.87	0.230
957.04	0.231
957.21	0.233
957.38	0.232
957.55	0.234
957.72	0.235
957.89	0.236
958.07	0.236
958.24	0.238
958.41	0.240
958.58	0.240
958.75	0.240
958.92	0.241
959.09	0.242
959.26	0.242
959.44	0.242
959.61	0.244
959.78	0.244
959.95	0.245
960.12	0.245
960.29	0.248
960.46	0.247
960.63	0.247
960.81	0.248
960.98	0.249
961.15	0.249
961.32	0.250
961.49	0.250
961.66	0.252
961.83	0.252
962.00	0.252
962.17	0.253
962.34	0.253
962.52	0.254
962.69	0.255
962.86	0.255
963.03	0.256
963.20	0.256
963.37	0.255
963.54	0.256
963.71	0.256
963.88	0.256
964.05	0.256
964.22	0.258
964.39	0.256
964.56	0.257
964.74	0.257
964.91	0.257
965.08	0.258
965.25	0.258
965.42	0.258
965.59	0.259
965.76	0.259
965.93	0.261
966.10	0.259
966.27	0.260
966.44	0.260
966.61	0.261
966.78	0.261
966.95	0.260
967.12	0.261
967.29	0.263
967.46	0.262
967.63	0.261
967.80	0.262
967.97	0.261
968.14	0.261
968.32	0.262
968.49	0.262
968.66	0.261
968.83	0.262
969.00	0.262
969.17	0.262
969.34	0.263
969.51	0.264
969.68	0.263
969.85	0.264
970.02	0.264
970.19	0.263
970.36	0.264
970.53	0.264
970.70	0.262
970.87	0.263
971.04	0.262
971.21	0.263
971.38	0.263
971.55	0.263
971.72	0.263
971.89	0.264
972.06	0.263
972.23	0.263
972.40	0.263
972.57	0.262
972.74	0.262
972.91	0.262
973.07	0.262
973.24	0.262
973.41	0.262
973.58	0.261
973.75	0.274
973.92	0.262
974.09	0.261
974.26	0.261
974.43	0.261
974.60	0.262
974.77	0.263
974.94	0.262
975.11	0.263
975.28	0.263
975.45	0.261
975.62	0.262
975.79	0.263
975.96	0.262
976.13	0.261
976.30	0.263
976.47	0.261
976.64	0.261
976.80	0.262
976.97	0.261
977.14	0.261
977.31	0.261
977.48	0.261
977.65	0.261
977.82	0.260
977.99	0.262
978.16	0.261
978.33	0.261
978.50	0.260
978.67	0.260
978.83	0.260
979.00	0.260
979.17	0.259
979.34	0.259
979.51	0.259
979.68	0.259
979.85	0.258
980.02	0.259
980.19	0.257
980.36	0.259
980.52	0.260
980.69	0.259
980.86	0.259
981.03	0.259
981.20	0.258
981.37	0.259
981.54	0.259
981.71	0.258
981.88	0.259
982.04	0.258
982.21	0.257
982.38	0.259
982.55	0.257
982.72	0.256
982.89	0.257
983.06	0.256
983.22	0.256
983.39	0.256
983.56	0.255
983.73	0.255
983.90	0.254
984.07	0.256
984.24	0.255
984.40	0.254
984.57	0.252
984.74	0.254
984.91	0.255
985.08	0.253
985.25	0.250
985.41	0.252
985.58	0.252
985.75	0.253
985.92	0.251
986.09	0.250
986.26	0.250
986.42	0.250
986.59	0.248
986.76	0.250
986.93	0.250
987.10	0.251
987.27	0.248
987.43	0.247
987.60	0.249
987.77	0.249
987.94	0.247
988.11	0.248
988.27	0.248
988.44	0.247
988.61	0.246
988.78	0.245
988.95	0.245
989.11	0.246
989.28	0.244
989.45	0.243
989.62	0.242
989.79	0.243
989.95	0.242
990.12	0.243
990.29	0.243
990.46	0.241
990.62	0.240
990.79	0.240
990.96	0.241
991.13	0.241
991.30	0.240
991.46	0.240
991.63	0.238
991.80	0.237
991.97	0.237
992.13	0.238
992.30	0.239
992.47	0.237
992.64	0.237
992.80	0.237
992.97	0.237
993.14	0.235
993.31	0.232
993.47	0.235
993.64	0.233
993.81	0.233
993.98	0.233
994.14	0.232
994.31	0.232
994.48	0.233
994.64	0.233
994.81	0.231
994.98	0.231
995.15	0.229
995.31	0.229
995.48	0.228
995.65	0.230
995.82	0.227
995.98	0.226
996.15	0.227
996.32	0.228
996.48	0.226
996.65	0.226
996.82	0.224
996.99	0.225
997.15	0.225
997.32	0.226
997.49	0.224
997.65	0.225
997.82	0.225
997.99	0.223
998.15	0.223
998.32	0.224
998.49	0.223
998.65	0.223
998.82	0.222
998.99	0.220
999.15	0.221
999.32	0.220
999.49	0.220
999.65	0.220
999.82	0.217
999.99	0.218
1000.15	0.218
1000.32	0.218
1000.49	0.219
1000.65	0.217
1000.82	0.216
1000.99	0.217
1001.15	0.217
1001.32	0.216
1001.49	0.216
1001.65	0.216
1001.82	0.218
1001.99	0.216
1002.15	0.215
1002.32	0.215
1002.49	0.216
1002.65	0.214
1002.82	0.212
1002.99	0.211
1003.15	0.214
1003.32	0.213
1003.48	0.213
1003.65	0.213
1003.82	0.211
1003.98	0.208
1004.15	0.208
1004.32	0.209
1004.48	0.209
1004.65	0.210
1004.81	0.208
1004.98	0.206
1005.15	0.206
1005.31	0.205
1005.48	0.204
1005.64	0.204
1005.81	0.207
1005.98	0.204
1006.14	0.203
1006.31	0.203
1006.47	0.202
1006.64	0.201
1006.81	0.201
1006.97	0.201
1007.14	0.201
1007.30	0.202
1007.47	0.202
1007.63	0.200
1007.80	0.198
1007.97	0.198
1008.13	0.198
1008.30	0.198
1008.46	0.198
1008.63	0.197
1008.79	0.197
1008.96	0.197
1009.13	0.198
1009.29	0.195
1009.46	0.195
1009.62	0.195
1009.79	0.193
1009.95	0.193
1010.12	0.194
1010.28	0.194
1010.45	0.193
1010.62	0.191
1010.78	0.189
1010.95	0.188
1011.11	0.189
1011.28	0.189
1011.44	0.190
1011.61	0.189
1011.77	0.188
1011.94	0.187
1012.10	0.186
1012.27	0.187
1012.43	0.187
1012.60	0.187
1012.76	0.188
1012.93	0.186
1013.10	0.184
1013.26	0.181
1013.43	0.183
1013.59	0.190
1013.76	0.183
1013.92	0.182
1014.09	0.180
1014.25	0.181
1014.42	0.182
1014.58	0.181
1014.75	0.184
1014.91	0.183
1015.08	0.185
1015.24	0.182
1015.41	0.184
1015.57	0.184
1015.73	0.183
1015.90	0.181
1016.06	0.183
1016.23	0.181
1016.39	0.181
1016.56	0.181
1016.72	0.180
1016.89	0.180
1017.05	0.182
1017.22	0.178
1017.38	0.178
1017.55	0.176
1017.71	0.177
1017.88	0.176
1018.04	0.178
1018.21	0.174
1018.37	0.175
1018.53	0.175
1018.70	0.173
1018.86	0.172
1019.03	0.174
1019.19	0.172
1019.36	0.172
1019.52	0.174
1019.69	0.175
1019.85	0.173
1020.01	0.173
1020.18	0.171
1020.34	0.171
1020.51	0.170
1020.67	0.171
1020.84	0.169
1021.00	0.170
1021.16	0.168
1021.33	0.168
1021.49	0.166
1021.66	0.168
1021.82	0.166
1021.98	0.166
1022.15	0.165
1022.31	0.166
1022.48	0.164
1022.64	0.166
1022.80	0.165
1022.97	0.163
1023.13	0.162
1023.30	0.163
1023.46	0.163
1023.62	0.161
1023.79	0.163
1023.95	0.164
1024.12	0.163
1024.28	0.163
1024.44	0.163
1024.61	0.161
1024.77	0.162
1024.93	0.162
1025.10	0.162
1025.26	0.160
1025.43	0.161
1025.59	0.156
1025.75	0.159
1025.92	0.159
1026.08	0.157
1026.24	0.157
1026.41	0.158
1026.57	0.155
1026.73	0.153
1026.90	0.155
1027.06	0.154
1027.23	0.154
1027.39	0.154
1027.55	0.156
1027.72	0.154
1027.88	0.153
1028.04	0.153
1028.21	0.154
1028.37	0.148
1028.53	0.154
1028.70	0.152
1028.86	0.149
1029.02	0.150
1029.19	0.151
1029.35	0.149
1029.51	0.149
1029.67	0.148
1029.84	0.149
1030.00	0.144
1030.16	0.144
1030.33	0.146
1030.49	0.143
1030.65	0.141
1030.82	0.155
1030.98	0.143
1031.14	0.143
1031.31	0.143
1031.47	0.141
1031.63	0.143
1031.79	0.143
1031.96	0.145
1032.12	0.146
1032.28	0.144
1032.45	0.148
1032.61	0.146
1032.77	0.146
1032.93	0.143
1033.10	0.143
1033.26	0.145
1033.42	0.143
1033.58	0.144
1033.75	0.146
1033.91	0.145
1034.07	0.147
1034.24	0.145
1034.40	0.144
1034.56	0.143
1034.72	0.144
1034.89	0.145
1035.05	0.144
1035.21	0.144
1035.37	0.142
1035.54	0.144
1035.70	0.141
1035.86	0.140
1036.02	0.142
1036.19	0.140
1036.35	0.138
1036.51	0.142
1036.67	0.139
1036.83	0.139
1037.00	0.138
1037.16	0.138
1037.32	0.140
1037.48	0.139
1037.65	0.143
1037.81	0.139
1037.97	0.139
1038.13	0.138
1038.29	0.136
1038.46	0.133
1038.62	0.137
1038.78	0.135
1038.94	0.131
1039.10	0.134
1039.27	0.130
1039.43	0.132
1039.59	0.130
1039.75	0.131
1039.91	0.130
1040.08	0.130
1040.24	0.132
1040.40	0.133
1040.56	0.132
1040.72	0.127
1040.89	0.130
1041.05	0.132
1041.21	0.131
1041.37	0.130
1041.53	0.135
1041.69	0.133
1041.86	0.133
1042.02	0.130
1042.18	0.129
1042.34	0.130
1042.50	0.133
1042.66	0.129
1042.83	0.128
1042.99	0.130
1043.15	0.125
1043.31	0.126
1043.47	0.128
1043.63	0.126
1043.79	0.126
1043.96	0.128
1044.12	0.132
1044.28	0.129
1044.44	0.131
1044.60	0.125
1044.76	0.125
1044.92	0.127
1045.09	0.126
1045.25	0.124
1045.41	0.124
1045.57	0.120
1045.73	0.119
1045.89	0.121
1046.05	0.121
1046.21	0.126
1046.38	0.125
1046.54	0.122
1046.70	0.139
1046.86	0.113
>>>>>End Processed Spectral Data<<<<<
