SpectraSuite Data File
++++++++++++++++++++++++++++++++++++
Date: Mon May 20 12:13:35 CDT 2013
User: Students
Dark Spectrum Present: Yes
Reference Spectrum Present: Yes
Number of Sampled Component Spectra: 1
Spectrometers: USB4H00887
Integration Time (usec): 60000 (USB4H00887)
Spectra Averaged: 5 (USB4H00887)
Boxcar Smoothing: 5 (USB4H00887)
Correct for Electrical Dark: No (USB4H00887)
Strobe/Lamp Enabled: No (USB4H00887)
Correct for Detector Non-linearity: No (USB4H00887)
Correct for Stray Light: No (USB4H00887)
Number of Pixels in Processed Spectrum: 3648
>>>>>Begin Processed Spectral Data<<<<<
345.83	0.972
346.05	0.972
346.26	0.972
346.48	-0.000
346.70	-0.013
346.92	0.079
347.14	0.090
347.35	0.105
347.57	-0.000
347.79	-0.408
348.01	-0.271
348.23	-0.409
348.44	-0.000
348.66	0.436
348.88	-0.454
349.10	-0.215
349.32	0.101
349.53	-0.026
349.75	-0.005
349.97	0.015
350.19	0.047
350.41	0.059
350.62	-0.120
350.84	0.002
351.06	-0.009
351.28	-0.024
351.50	-0.200
351.71	-0.113
351.93	-0.103
352.15	-0.037
352.37	-0.133
352.58	-0.017
352.80	-0.008
353.02	-0.002
353.24	0.033
353.46	0.324
353.67	-0.137
353.89	0.050
354.11	0.054
354.33	0.080
354.54	0.115
354.76	0.189
354.98	0.180
355.20	0.130
355.41	0.073
355.63	0.094
355.85	0.041
356.07	0.262
356.28	0.052
356.50	0.094
356.72	0.030
356.94	0.097
357.15	0.113
357.37	-0.000
357.59	0.099
357.81	0.052
358.02	0.103
358.24	0.081
358.46	0.182
358.68	0.186
358.89	0.106
359.11	-0.000
359.33	0.093
359.55	-0.576
359.76	0.123
359.98	0.144
360.20	0.156
360.42	0.108
360.63	0.100
360.85	0.057
361.07	0.214
361.29	0.032
361.50	0.109
361.72	0.052
361.94	0.208
362.15	0.124
362.37	0.068
362.59	0.073
362.81	0.145
363.02	0.256
363.24	0.404
363.46	0.211
363.68	0.288
363.89	0.188
364.11	0.254
364.33	0.382
364.54	0.177
364.76	0.253
364.98	0.245
365.20	0.289
365.41	0.181
365.63	0.235
365.85	0.153
366.06	0.523
366.28	0.487
366.50	0.262
366.71	0.106
366.93	0.165
367.15	0.137
367.37	0.141
367.58	0.160
367.80	0.177
368.02	0.384
368.23	0.153
368.45	0.164
368.67	0.140
368.88	0.149
369.10	-0.000
369.32	0.140
369.53	0.081
369.75	0.114
369.97	0.296
370.19	0.194
370.40	0.093
370.62	0.263
370.84	0.091
371.05	0.549
371.27	0.156
371.49	0.164
371.70	0.202
371.92	0.300
372.14	0.135
372.35	0.142
372.57	0.159
372.79	0.462
373.00	0.106
373.22	0.170
373.44	0.159
373.65	0.115
373.87	0.174
374.09	0.613
374.30	0.127
374.52	0.146
374.74	0.102
374.95	0.486
375.17	0.133
375.39	-0.000
375.60	0.186
375.82	0.381
376.04	0.161
376.25	0.195
376.47	0.121
376.68	0.358
376.90	0.180
377.12	0.420
377.33	0.185
377.55	0.431
377.77	0.205
377.98	0.292
378.20	0.148
378.42	0.182
378.63	0.241
378.85	-0.000
379.07	0.137
379.28	0.511
379.50	0.312
379.71	0.151
379.93	0.102
380.15	0.129
380.36	0.181
380.58	0.110
380.80	0.249
381.01	0.077
381.23	0.067
381.44	0.094
381.66	0.116
381.88	0.147
382.09	-0.077
382.31	0.111
382.53	0.112
382.74	0.556
382.96	0.167
383.17	0.135
383.39	0.178
383.61	0.243
383.82	0.159
384.04	0.185
384.25	0.229
384.47	0.205
384.69	0.215
384.90	0.220
385.12	0.435
385.33	0.304
385.55	0.237
385.77	0.393
385.98	0.206
386.20	0.287
386.41	0.239
386.63	0.267
386.85	0.240
387.06	0.288
387.28	0.418
387.49	0.268
387.71	0.194
387.93	0.169
388.14	0.502
388.36	0.197
388.57	0.192
388.79	0.205
389.01	1.402
389.22	0.233
389.44	0.206
389.65	0.173
389.87	0.170
390.08	0.213
390.30	0.179
390.52	0.334
390.73	0.304
390.95	0.204
391.16	0.231
391.38	-0.000
391.59	0.265
391.81	0.230
392.03	0.218
392.24	0.242
392.46	0.188
392.67	0.164
392.89	0.238
393.10	0.394
393.32	0.283
393.53	0.305
393.75	0.197
393.97	0.228
394.18	0.300
394.40	0.263
394.61	0.294
394.83	0.261
395.04	0.305
395.26	0.198
395.47	0.273
395.69	0.229
395.91	0.248
396.12	0.308
396.34	0.306
396.55	0.206
396.77	0.311
396.98	1.254
397.20	0.389
397.41	0.434
397.63	0.301
397.84	0.287
398.06	0.254
398.27	0.256
398.49	0.290
398.71	0.214
398.92	0.256
399.14	0.316
399.35	0.401
399.57	0.347
399.78	0.235
400.00	0.230
400.21	0.309
400.43	0.256
400.64	0.273
400.86	0.579
401.07	0.335
401.29	0.285
401.50	0.313
401.72	0.454
401.93	0.309
402.15	0.392
402.36	0.356
402.58	0.283
402.79	0.324
403.01	0.564
403.22	0.429
403.44	0.280
403.65	0.473
403.87	0.513
404.08	0.390
404.30	0.622
404.51	0.317
404.73	0.394
404.94	0.335
405.16	0.334
405.37	0.260
405.59	0.468
405.80	0.302
406.02	0.368
406.23	0.364
406.45	0.414
406.66	0.433
406.88	0.300
407.09	0.457
407.31	0.362
407.52	0.467
407.74	0.373
407.95	0.438
408.17	0.396
408.38	0.412
408.60	0.277
408.81	0.470
409.03	0.350
409.24	0.349
409.45	0.410
409.67	0.405
409.88	0.358
410.10	0.450
410.31	0.375
410.53	0.367
410.74	0.512
410.96	0.508
411.17	0.527
411.39	0.408
411.60	0.378
411.82	0.423
412.03	0.406
412.24	0.382
412.46	0.565
412.67	0.467
412.89	0.458
413.10	0.461
413.32	0.415
413.53	0.471
413.75	0.499
413.96	0.367
414.17	0.500
414.39	0.485
414.60	0.399
414.82	0.525
415.03	0.416
415.25	0.468
415.46	0.322
415.68	0.448
415.89	0.801
416.10	0.643
416.32	0.366
416.53	0.423
416.75	0.406
416.96	0.488
417.18	0.427
417.39	0.406
417.60	0.410
417.82	0.597
418.03	0.529
418.25	0.452
418.46	0.466
418.67	0.429
418.89	0.459
419.10	0.470
419.32	0.640
419.53	0.571
419.75	0.486
419.96	0.423
420.17	0.515
420.39	0.481
420.60	0.486
420.82	0.606
421.03	0.495
421.24	0.419
421.46	0.478
421.67	0.519
421.89	0.447
422.10	0.475
422.31	0.479
422.53	0.664
422.74	0.494
422.96	0.399
423.17	0.437
423.38	0.527
423.60	0.440
423.81	0.536
424.03	0.471
424.24	0.524
424.45	0.528
424.67	0.520
424.88	0.481
425.09	0.519
425.31	0.487
425.52	0.518
425.74	0.592
425.95	0.650
426.16	0.503
426.38	0.574
426.59	0.526
426.80	0.597
427.02	0.612
427.23	0.481
427.45	0.617
427.66	0.594
427.87	0.464
428.09	0.489
428.30	0.550
428.51	0.538
428.73	0.590
428.94	0.531
429.15	0.521
429.37	0.505
429.58	0.527
429.79	0.497
430.01	0.595
430.22	0.591
430.44	0.606
430.65	0.535
430.86	0.568
431.08	0.557
431.29	0.504
431.50	0.600
431.72	0.793
431.93	0.641
432.14	0.485
432.36	0.536
432.57	0.544
432.78	0.566
433.00	0.526
433.21	0.524
433.42	0.650
433.64	0.569
433.85	0.638
434.06	0.523
434.28	0.553
434.49	0.570
434.70	0.583
434.92	0.597
435.13	0.636
435.34	0.642
435.56	0.612
435.77	0.606
435.98	0.786
436.20	0.647
436.41	0.560
436.62	0.551
436.83	0.629
437.05	0.709
437.26	0.615
437.47	0.544
437.69	0.596
437.90	0.545
438.11	0.541
438.33	0.593
438.54	0.618
438.75	0.788
438.97	0.776
439.18	0.580
439.39	0.604
439.60	0.659
439.82	0.623
440.03	0.574
440.24	0.839
440.46	0.619
440.67	0.592
440.88	0.633
441.10	0.587
441.31	0.587
441.52	0.627
441.73	0.703
441.95	0.628
442.16	0.580
442.37	0.895
442.58	0.573
442.80	0.565
443.01	0.733
443.22	0.671
443.44	0.570
443.65	0.664
443.86	0.670
444.07	0.721
444.29	0.626
444.50	0.790
444.71	0.606
444.92	0.571
445.14	0.714
445.35	0.755
445.56	0.596
445.78	0.699
445.99	0.700
446.20	0.599
446.41	0.669
446.63	0.664
446.84	0.630
447.05	0.630
447.26	0.747
447.48	0.645
447.69	0.608
447.90	0.693
448.11	0.620
448.33	0.646
448.54	0.672
448.75	0.701
448.96	0.712
449.18	0.750
449.39	0.670
449.60	0.650
449.81	0.780
450.03	0.678
450.24	0.732
450.45	0.696
450.66	0.684
450.87	0.712
451.09	0.665
451.30	0.641
451.51	0.710
451.72	0.722
451.94	0.739
452.15	0.802
452.36	0.677
452.57	0.687
452.78	0.681
453.00	0.709
453.21	0.666
453.42	0.638
453.63	0.731
453.85	0.700
454.06	0.694
454.27	0.815
454.48	0.735
454.69	0.663
454.91	0.731
455.12	0.646
455.33	0.717
455.54	0.734
455.75	0.717
455.97	0.739
456.18	0.730
456.39	0.736
456.60	0.755
456.81	0.699
457.03	0.713
457.24	0.714
457.45	0.792
457.66	0.742
457.87	0.704
458.09	0.722
458.30	0.642
458.51	0.757
458.72	0.781
458.93	0.791
459.15	0.696
459.36	0.760
459.57	0.786
459.78	0.833
459.99	0.744
460.20	0.708
460.42	0.781
460.63	0.740
460.84	0.723
461.05	0.742
461.26	0.798
461.47	0.724
461.69	0.769
461.90	0.797
462.11	0.756
462.32	0.813
462.53	0.754
462.74	0.844
462.96	0.733
463.17	0.723
463.38	0.759
463.59	0.857
463.80	0.720
464.01	0.735
464.23	0.810
464.44	0.777
464.65	0.785
464.86	0.809
465.07	0.812
465.28	0.784
465.49	0.809
465.71	0.769
465.92	0.805
466.13	0.848
466.34	0.797
466.55	0.848
466.76	0.810
466.97	0.833
467.19	0.814
467.40	0.856
467.61	0.857
467.82	0.776
468.03	0.757
468.24	0.827
468.45	0.858
468.66	0.839
468.88	0.846
469.09	0.851
469.30	0.893
469.51	0.829
469.72	0.860
469.93	0.831
470.14	0.814
470.35	0.900
470.57	0.853
470.78	0.798
470.99	0.923
471.20	0.868
471.41	0.828
471.62	0.879
471.83	0.851
472.04	0.881
472.25	0.926
472.47	0.838
472.68	0.841
472.89	0.841
473.10	0.877
473.31	0.831
473.52	0.884
473.73	0.903
473.94	0.828
474.15	0.849
474.36	0.851
474.57	0.874
474.79	0.855
475.00	0.858
475.21	0.844
475.42	0.929
475.63	0.834
475.84	0.865
476.05	0.874
476.26	0.850
476.47	0.882
476.68	0.926
476.89	0.862
477.10	0.910
477.32	0.897
477.53	0.947
477.74	0.873
477.95	0.914
478.16	0.864
478.37	0.904
478.58	0.907
478.79	0.919
479.00	0.918
479.21	0.876
479.42	0.916
479.63	0.923
479.84	0.893
480.05	0.890
480.26	0.919
480.47	0.933
480.69	0.934
480.90	0.902
481.11	0.897
481.32	0.949
481.53	0.895
481.74	0.941
481.95	0.907
482.16	0.919
482.37	0.929
482.58	0.898
482.79	0.918
483.00	0.944
483.21	0.894
483.42	0.872
483.63	0.948
483.84	0.972
484.05	0.962
484.26	0.936
484.47	0.935
484.68	0.901
484.89	0.910
485.10	0.955
485.31	0.932
485.52	0.939
485.73	0.938
485.94	0.975
486.15	0.928
486.37	0.947
486.58	0.915
486.79	0.930
487.00	0.973
487.21	0.962
487.42	0.956
487.63	0.961
487.84	0.981
488.05	0.978
488.26	0.940
488.47	0.945
488.68	0.967
488.89	0.944
489.10	0.936
489.31	0.947
489.52	0.978
489.73	0.949
489.94	0.984
490.15	0.943
490.36	0.982
490.57	0.938
490.78	0.923
490.99	0.958
491.20	1.030
491.41	0.987
491.62	0.932
491.83	0.960
492.04	0.955
492.25	0.961
492.45	0.956
492.66	0.978
492.87	0.967
493.08	0.956
493.29	0.941
493.50	0.931
493.71	0.943
493.92	0.943
494.13	0.956
494.34	0.974
494.55	0.981
494.76	1.012
494.97	1.004
495.18	0.972
495.39	0.985
495.60	0.942
495.81	0.942
496.02	0.959
496.23	0.953
496.44	0.981
496.65	0.972
496.86	0.974
497.07	0.996
497.28	0.994
497.49	0.947
497.70	0.949
497.91	0.969
498.12	0.954
498.32	0.990
498.53	0.976
498.74	0.967
498.95	0.992
499.16	0.953
499.37	0.957
499.58	0.967
499.79	0.993
500.00	0.988
500.21	1.016
500.42	0.966
500.63	0.968
500.84	0.986
501.05	0.966
501.26	0.990
501.46	1.025
501.67	0.991
501.88	0.991
502.09	0.970
502.30	0.976
502.51	1.014
502.72	0.972
502.93	0.988
503.14	1.007
503.35	0.981
503.56	0.977
503.77	1.004
503.97	0.983
504.18	0.981
504.39	1.013
504.60	0.986
504.81	1.012
505.02	1.003
505.23	1.002
505.44	0.987
505.65	0.993
505.86	0.976
506.07	1.035
506.27	0.994
506.48	1.001
506.69	0.986
506.90	1.006
507.11	1.006
507.32	0.985
507.53	0.995
507.74	0.987
507.95	1.001
508.15	1.006
508.36	1.011
508.57	1.025
508.78	1.008
508.99	1.008
509.20	0.985
509.41	1.007
509.62	0.996
509.82	0.990
510.03	0.998
510.24	0.998
510.45	1.018
510.66	1.009
510.87	1.004
511.08	0.967
511.29	1.004
511.49	0.983
511.70	1.026
511.91	0.967
512.12	0.966
512.33	0.996
512.54	1.009
512.75	0.995
512.95	1.020
513.16	1.013
513.37	0.993
513.58	1.028
513.79	0.994
514.00	0.999
514.20	1.015
514.41	1.005
514.62	0.975
514.83	1.012
515.04	1.004
515.25	0.983
515.46	0.993
515.66	0.994
515.87	1.005
516.08	0.976
516.29	0.999
516.50	0.983
516.71	0.977
516.91	0.986
517.12	1.001
517.33	0.987
517.54	0.975
517.75	0.979
517.95	0.991
518.16	1.002
518.37	0.972
518.58	0.976
518.79	0.951
519.00	0.979
519.20	0.988
519.41	0.966
519.62	0.985
519.83	0.993
520.04	0.960
520.24	0.957
520.45	0.965
520.66	0.986
520.87	0.952
521.08	0.949
521.28	0.953
521.49	0.966
521.70	0.940
521.91	0.952
522.12	0.934
522.32	0.953
522.53	0.936
522.74	0.927
522.95	0.935
523.16	0.938
523.36	0.946
523.57	0.930
523.78	0.925
523.99	0.927
524.20	0.921
524.40	0.932
524.61	0.938
524.82	0.916
525.03	0.921
525.23	0.921
525.44	0.906
525.65	0.905
525.86	0.924
526.06	0.898
526.27	0.899
526.48	0.908
526.69	0.892
526.90	0.895
527.10	0.926
527.31	0.884
527.52	0.879
527.73	0.872
527.93	0.883
528.14	0.887
528.35	0.879
528.56	0.880
528.76	0.874
528.97	0.867
529.18	0.859
529.39	0.858
529.59	0.861
529.80	0.888
530.01	0.863
530.22	0.860
530.42	0.834
530.63	0.850
530.84	0.828
531.05	0.841
531.25	0.844
531.46	0.837
531.67	0.818
531.88	0.834
532.08	0.829
532.29	0.824
532.50	0.817
532.70	0.810
532.91	0.801
533.12	0.805
533.33	0.826
533.53	0.798
533.74	0.797
533.95	0.803
534.15	0.792
534.36	0.793
534.57	0.777
534.78	0.779
534.98	0.789
535.19	0.761
535.40	0.763
535.60	0.779
535.81	0.761
536.02	0.764
536.23	0.757
536.43	0.759
536.64	0.747
536.85	0.754
537.05	0.763
537.26	0.741
537.47	0.745
537.67	0.734
537.88	0.730
538.09	0.737
538.30	0.727
538.50	0.717
538.71	0.728
538.92	0.714
539.12	0.711
539.33	0.705
539.54	0.706
539.74	0.710
539.95	0.701
540.16	0.699
540.36	0.691
540.57	0.691
540.78	0.684
540.98	0.682
541.19	0.681
541.40	0.670
541.60	0.680
541.81	0.675
542.02	0.674
542.22	0.665
542.43	0.660
542.64	0.655
542.84	0.654
543.05	0.647
543.26	0.647
543.46	0.650
543.67	0.649
543.88	0.644
544.08	0.634
544.29	0.629
544.50	0.629
544.70	0.629
544.91	0.621
545.12	0.622
545.32	0.618
545.53	0.621
545.74	0.610
545.94	0.607
546.15	0.606
546.35	0.603
546.56	0.600
546.77	0.597
546.97	0.594
547.18	0.588
547.39	0.588
547.59	0.587
547.80	0.584
548.01	0.588
548.21	0.584
548.42	0.576
548.62	0.575
548.83	0.572
549.04	0.569
549.24	0.562
549.45	0.561
549.65	0.557
549.86	0.553
550.07	0.552
550.27	0.550
550.48	0.557
550.69	0.543
550.89	0.544
551.10	0.540
551.30	0.539
551.51	0.539
551.72	0.529
551.92	0.531
552.13	0.530
552.33	0.531
552.54	0.525
552.75	0.518
552.95	0.520
553.16	0.515
553.36	0.513
553.57	0.511
553.78	0.509
553.98	0.510
554.19	0.502
554.39	0.499
554.60	0.501
554.80	0.501
555.01	0.495
555.22	0.496
555.42	0.493
555.63	0.487
555.83	0.490
556.04	0.484
556.25	0.486
556.45	0.477
556.66	0.475
556.86	0.478
557.07	0.476
557.27	0.475
557.48	0.470
557.68	0.468
557.89	0.468
558.10	0.465
558.30	0.462
558.51	0.460
558.71	0.458
558.92	0.453
559.12	0.454
559.33	0.457
559.54	0.452
559.74	0.447
559.95	0.445
560.15	0.445
560.36	0.443
560.56	0.437
560.77	0.438
560.97	0.437
561.18	0.432
561.38	0.433
561.59	0.435
561.79	0.431
562.00	0.429
562.21	0.425
562.41	0.424
562.62	0.423
562.82	0.422
563.03	0.419
563.23	0.418
563.44	0.419
563.64	0.414
563.85	0.416
564.05	0.409
564.26	0.409
564.46	0.408
564.67	0.410
564.87	0.405
565.08	0.403
565.28	0.402
565.49	0.403
565.69	0.400
565.90	0.398
566.10	0.400
566.31	0.394
566.51	0.396
566.72	0.396
566.92	0.389
567.13	0.388
567.33	0.387
567.54	0.386
567.74	0.385
567.95	0.380
568.15	0.381
568.36	0.380
568.56	0.379
568.77	0.374
568.97	0.372
569.18	0.373
569.38	0.371
569.59	0.372
569.79	0.370
570.00	0.367
570.20	0.367
570.41	0.365
570.61	0.364
570.82	0.365
571.02	0.362
571.23	0.364
571.43	0.359
571.64	0.358
571.84	0.357
572.05	0.355
572.25	0.354
572.45	0.352
572.66	0.349
572.86	0.349
573.07	0.347
573.27	0.347
573.48	0.346
573.68	0.342
573.89	0.341
574.09	0.342
574.30	0.340
574.50	0.338
574.70	0.339
574.91	0.337
575.11	0.336
575.32	0.336
575.52	0.333
575.73	0.333
575.93	0.333
576.14	0.332
576.34	0.330
576.54	0.328
576.75	0.326
576.95	0.326
577.16	0.324
577.36	0.322
577.57	0.322
577.77	0.320
577.97	0.316
578.18	0.318
578.38	0.315
578.59	0.313
578.79	0.311
579.00	0.313
579.20	0.311
579.40	0.309
579.61	0.309
579.81	0.307
580.02	0.305
580.22	0.305
580.42	0.304
580.63	0.304
580.83	0.302
581.04	0.301
581.24	0.300
581.45	0.299
581.65	0.299
581.85	0.297
582.06	0.295
582.26	0.295
582.47	0.294
582.67	0.293
582.87	0.292
583.08	0.290
583.28	0.290
583.48	0.288
583.69	0.285
583.89	0.285
584.10	0.286
584.30	0.284
584.50	0.283
584.71	0.282
584.91	0.282
585.12	0.280
585.32	0.281
585.52	0.279
585.73	0.278
585.93	0.277
586.13	0.277
586.34	0.276
586.54	0.275
586.75	0.273
586.95	0.273
587.15	0.273
587.36	0.271
587.56	0.270
587.76	0.269
587.97	0.269
588.17	0.267
588.37	0.267
588.58	0.267
588.78	0.264
588.98	0.265
589.19	0.263
589.39	0.261
589.60	0.263
589.80	0.261
590.00	0.260
590.21	0.260
590.41	0.258
590.61	0.258
590.82	0.257
591.02	0.257
591.22	0.255
591.43	0.256
591.63	0.254
591.83	0.254
592.04	0.252
592.24	0.253
592.44	0.250
592.65	0.249
592.85	0.249
593.05	0.250
593.26	0.248
593.46	0.247
593.66	0.247
593.86	0.246
594.07	0.244
594.27	0.244
594.47	0.243
594.68	0.242
594.88	0.243
595.08	0.242
595.29	0.242
595.49	0.240
595.69	0.239
595.90	0.238
596.10	0.238
596.30	0.238
596.50	0.237
596.71	0.236
596.91	0.235
597.11	0.235
597.32	0.235
597.52	0.234
597.72	0.233
597.93	0.233
598.13	0.231
598.33	0.231
598.53	0.230
598.74	0.230
598.94	0.229
599.14	0.229
599.35	0.229
599.55	0.229
599.75	0.228
599.95	0.227
600.16	0.227
600.36	0.225
600.56	0.225
600.76	0.224
600.97	0.222
601.17	0.222
601.37	0.222
601.58	0.221
601.78	0.221
601.98	0.220
602.18	0.219
602.39	0.219
602.59	0.219
602.79	0.218
602.99	0.218
603.20	0.217
603.40	0.216
603.60	0.216
603.80	0.216
604.01	0.215
604.21	0.214
604.41	0.213
604.61	0.212
604.82	0.212
605.02	0.212
605.22	0.211
605.42	0.212
605.62	0.212
605.83	0.210
606.03	0.209
606.23	0.210
606.43	0.209
606.64	0.209
606.84	0.208
607.04	0.208
607.24	0.208
607.45	0.207
607.65	0.206
607.85	0.207
608.05	0.205
608.25	0.205
608.46	0.205
608.66	0.204
608.86	0.204
609.06	0.202
609.26	0.202
609.47	0.203
609.67	0.201
609.87	0.202
610.07	0.201
610.28	0.200
610.48	0.200
610.68	0.200
610.88	0.198
611.08	0.199
611.29	0.198
611.49	0.197
611.69	0.198
611.89	0.196
612.09	0.196
612.29	0.195
612.50	0.195
612.70	0.195
612.90	0.193
613.10	0.193
613.30	0.192
613.51	0.192
613.71	0.192
613.91	0.196
614.11	0.191
614.31	0.191
614.51	0.191
614.72	0.190
614.92	0.190
615.12	0.190
615.32	0.190
615.52	0.190
615.72	0.190
615.93	0.190
616.13	0.189
616.33	0.189
616.53	0.188
616.73	0.188
616.93	0.187
617.14	0.188
617.34	0.187
617.54	0.187
617.74	0.187
617.94	0.186
618.14	0.186
618.34	0.185
618.55	0.185
618.75	0.185
618.95	0.185
619.15	0.185
619.35	0.184
619.55	0.183
619.75	0.183
619.96	0.182
620.16	0.182
620.36	0.182
620.56	0.182
620.76	0.182
620.96	0.181
621.16	0.181
621.36	0.181
621.57	0.181
621.77	0.181
621.97	0.180
622.17	0.180
622.37	0.180
622.57	0.180
622.77	0.179
622.97	0.177
623.18	0.178
623.38	0.178
623.58	0.177
623.78	0.177
623.98	0.176
624.18	0.176
624.38	0.176
624.58	0.175
624.78	0.176
624.98	0.176
625.19	0.176
625.39	0.176
625.59	0.175
625.79	0.176
625.99	0.175
626.19	0.175
626.39	0.175
626.59	0.175
626.79	0.174
626.99	0.174
627.19	0.173
627.40	0.174
627.60	0.173
627.80	0.173
628.00	0.173
628.20	0.172
628.40	0.172
628.60	0.172
628.80	0.171
629.00	0.171
629.20	0.170
629.40	0.171
629.60	0.170
629.80	0.170
630.00	0.170
630.20	0.170
630.41	0.169
630.61	0.169
630.81	0.168
631.01	0.169
631.21	0.168
631.41	0.168
631.61	0.168
631.81	0.167
632.01	0.167
632.21	0.167
632.41	0.165
632.61	0.165
632.81	0.165
633.01	0.166
633.21	0.166
633.41	0.166
633.61	0.165
633.81	0.165
634.01	0.164
634.21	0.164
634.41	0.164
634.61	0.164
634.81	0.164
635.01	0.163
635.22	0.163
635.42	0.163
635.62	0.163
635.82	0.163
636.02	0.163
636.22	0.163
636.42	0.162
636.62	0.162
636.82	0.162
637.02	0.162
637.22	0.162
637.42	0.161
637.62	0.160
637.82	0.161
638.02	0.160
638.22	0.160
638.42	0.159
638.62	0.158
638.82	0.159
639.02	0.158
639.22	0.159
639.42	0.158
639.62	0.158
639.82	0.157
640.02	0.157
640.22	0.157
640.42	0.157
640.62	0.157
640.82	0.157
641.02	0.156
641.22	0.157
641.42	0.156
641.61	0.156
641.81	0.156
642.01	0.156
642.21	0.156
642.41	0.156
642.61	0.155
642.81	0.154
643.01	0.154
643.21	0.155
643.41	0.155
643.61	0.154
643.81	0.154
644.01	0.153
644.21	0.152
644.41	0.152
644.61	0.152
644.81	0.152
645.01	0.152
645.21	0.151
645.41	0.151
645.61	0.151
645.81	0.151
646.01	0.150
646.21	0.151
646.40	0.150
646.60	0.150
646.80	0.151
647.00	0.150
647.20	0.148
647.40	0.149
647.60	0.148
647.80	0.148
648.00	0.148
648.20	0.148
648.40	0.147
648.60	0.147
648.80	0.147
649.00	0.148
649.20	0.148
649.39	0.148
649.59	0.147
649.79	0.147
649.99	0.147
650.19	0.147
650.39	0.147
650.59	0.147
650.79	0.146
650.99	0.146
651.19	0.145
651.39	0.145
651.58	0.144
651.78	0.144
651.98	0.144
652.18	0.144
652.38	0.143
652.58	0.144
652.78	0.143
652.98	0.143
653.18	0.144
653.38	0.144
653.57	0.143
653.77	0.143
653.97	0.143
654.17	0.142
654.37	0.142
654.57	0.142
654.77	0.141
654.97	0.141
655.16	0.141
655.36	0.141
655.56	0.140
655.76	0.139
655.96	0.140
656.16	0.139
656.36	0.139
656.56	0.139
656.75	0.138
656.95	0.139
657.15	0.139
657.35	0.138
657.55	0.137
657.75	0.138
657.95	0.138
658.14	0.137
658.34	0.137
658.54	0.137
658.74	0.137
658.94	0.137
659.14	0.137
659.34	0.136
659.53	0.136
659.73	0.136
659.93	0.136
660.13	0.135
660.33	0.136
660.53	0.135
660.72	0.136
660.92	0.135
661.12	0.135
661.32	0.135
661.52	0.135
661.72	0.134
661.91	0.134
662.11	0.134
662.31	0.133
662.51	0.133
662.71	0.132
662.90	0.131
663.10	0.131
663.30	0.131
663.50	0.131
663.70	0.130
663.90	0.130
664.09	0.130
664.29	0.130
664.49	0.129
664.69	0.130
664.89	0.130
665.08	0.130
665.28	0.129
665.48	0.129
665.68	0.129
665.88	0.129
666.07	0.129
666.27	0.129
666.47	0.129
666.67	0.129
666.87	0.129
667.06	0.128
667.26	0.128
667.46	0.128
667.66	0.128
667.85	0.128
668.05	0.128
668.25	0.128
668.45	0.127
668.65	0.127
668.84	0.127
669.04	0.127
669.24	0.127
669.44	0.126
669.63	0.126
669.83	0.126
670.03	0.125
670.23	0.124
670.42	0.124
670.62	0.124
670.82	0.124
671.02	0.124
671.22	0.123
671.41	0.122
671.61	0.123
671.81	0.122
672.01	0.122
672.20	0.122
672.40	0.121
672.60	0.121
672.80	0.122
672.99	0.121
673.19	0.121
673.39	0.120
673.58	0.121
673.78	0.120
673.98	0.120
674.18	0.120
674.37	0.119
674.57	0.119
674.77	0.119
674.97	0.119
675.16	0.119
675.36	0.118
675.56	0.118
675.75	0.118
675.95	0.118
676.15	0.118
676.35	0.117
676.54	0.118
676.74	0.117
676.94	0.117
677.13	0.117
677.33	0.116
677.53	0.117
677.73	0.117
677.92	0.116
678.12	0.116
678.32	0.116
678.51	0.116
678.71	0.115
678.91	0.115
679.11	0.115
679.30	0.115
679.50	0.114
679.70	0.114
679.89	0.113
680.09	0.113
680.29	0.113
680.48	0.113
680.68	0.112
680.88	0.112
681.07	0.112
681.27	0.112
681.47	0.112
681.66	0.112
681.86	0.112
682.06	0.112
682.25	0.112
682.45	0.112
682.65	0.112
682.84	0.111
683.04	0.111
683.24	0.111
683.43	0.111
683.63	0.111
683.83	0.111
684.02	0.111
684.22	0.110
684.42	0.110
684.61	0.110
684.81	0.110
685.01	0.110
685.20	0.109
685.40	0.109
685.60	0.109
685.79	0.109
685.99	0.109
686.19	0.109
686.38	0.109
686.58	0.109
686.77	0.109
686.97	0.108
687.17	0.108
687.36	0.108
687.56	0.108
687.76	0.108
687.95	0.108
688.15	0.108
688.34	0.107
688.54	0.107
688.74	0.107
688.93	0.106
689.13	0.106
689.33	0.106
689.52	0.105
689.72	0.106
689.91	0.106
690.11	0.105
690.31	0.105
690.50	0.105
690.70	0.105
690.89	0.105
691.09	0.105
691.29	0.105
691.48	0.104
691.68	0.104
691.87	0.104
692.07	0.104
692.27	0.104
692.46	0.104
692.66	0.103
692.85	0.103
693.05	0.103
693.25	0.103
693.44	0.103
693.64	0.103
693.83	0.103
694.03	0.102
694.22	0.102
694.42	0.102
694.62	0.102
694.81	0.101
695.01	0.101
695.20	0.101
695.40	0.101
695.59	0.101
695.79	0.100
695.99	0.101
696.18	0.100
696.38	0.100
696.57	0.100
696.77	0.100
696.96	0.101
697.16	0.100
697.36	0.100
697.55	0.100
697.75	0.099
697.94	0.099
698.14	0.099
698.33	0.099
698.53	0.098
698.72	0.098
698.92	0.098
699.11	0.098
699.31	0.098
699.51	0.098
699.70	0.098
699.90	0.098
700.09	0.098
700.29	0.097
700.48	0.098
700.68	0.098
700.87	0.098
701.07	0.097
701.26	0.097
701.46	0.097
701.65	0.097
701.85	0.097
702.04	0.097
702.24	0.096
702.43	0.096
702.63	0.095
702.82	0.095
703.02	0.095
703.21	0.095
703.41	0.095
703.60	0.095
703.80	0.094
703.99	0.094
704.19	0.095
704.38	0.094
704.58	0.094
704.77	0.094
704.97	0.094
705.16	0.094
705.36	0.094
705.55	0.094
705.75	0.094
705.94	0.094
706.14	0.094
706.33	0.094
706.53	0.094
706.72	0.094
706.92	0.094
707.11	0.094
707.31	0.093
707.50	0.093
707.70	0.093
707.89	0.093
708.09	0.093
708.28	0.093
708.48	0.093
708.67	0.093
708.86	0.093
709.06	0.093
709.25	0.093
709.45	0.093
709.64	0.092
709.84	0.092
710.03	0.092
710.23	0.092
710.42	0.092
710.62	0.091
710.81	0.091
711.00	0.091
711.20	0.090
711.39	0.090
711.59	0.091
711.78	0.091
711.98	0.091
712.17	0.091
712.37	0.090
712.56	0.090
712.75	0.091
712.95	0.091
713.14	0.091
713.34	0.091
713.53	0.091
713.73	0.091
713.92	0.091
714.11	0.091
714.31	0.091
714.50	0.091
714.70	0.091
714.89	0.091
715.08	0.091
715.28	0.091
715.47	0.090
715.67	0.090
715.86	0.090
716.06	0.090
716.25	0.090
716.44	0.090
716.64	0.089
716.83	0.089
717.03	0.089
717.22	0.088
717.41	0.088
717.61	0.088
717.80	0.089
717.99	0.089
718.19	0.089
718.38	0.089
718.58	0.088
718.77	0.088
718.96	0.089
719.16	0.089
719.35	0.089
719.55	0.088
719.74	0.088
719.93	0.088
720.13	0.088
720.32	0.088
720.51	0.088
720.71	0.088
720.90	0.088
721.10	0.087
721.29	0.087
721.48	0.087
721.68	0.087
721.87	0.087
722.06	0.087
722.26	0.087
722.45	0.087
722.64	0.087
722.84	0.087
723.03	0.087
723.22	0.088
723.42	0.088
723.61	0.088
723.80	0.088
724.00	0.088
724.19	0.088
724.38	0.088
724.58	0.087
724.77	0.088
724.96	0.088
725.16	0.087
725.35	0.087
725.54	0.087
725.74	0.088
725.93	0.087
726.12	0.087
726.32	0.087
726.51	0.087
726.70	0.087
726.90	0.087
727.09	0.087
727.28	0.087
727.48	0.087
727.67	0.087
727.86	0.087
728.06	0.087
728.25	0.087
728.44	0.087
728.64	0.088
728.83	0.088
729.02	0.087
729.21	0.088
729.41	0.087
729.60	0.087
729.79	0.087
729.99	0.087
730.18	0.087
730.37	0.087
730.56	0.086
730.76	0.086
730.95	0.087
731.14	0.087
731.34	0.087
731.53	0.087
731.72	0.087
731.91	0.087
732.11	0.087
732.30	0.087
732.49	0.088
732.69	0.088
732.88	0.088
733.07	0.088
733.26	0.088
733.46	0.088
733.65	0.088
733.84	0.087
734.03	0.087
734.23	0.087
734.42	0.087
734.61	0.087
734.80	0.087
735.00	0.087
735.19	0.087
735.38	0.087
735.57	0.087
735.77	0.087
735.96	0.087
736.15	0.087
736.34	0.087
736.54	0.088
736.73	0.088
736.92	0.088
737.11	0.088
737.31	0.088
737.50	0.088
737.69	0.088
737.88	0.088
738.07	0.088
738.27	0.088
738.46	0.088
738.65	0.087
738.84	0.088
739.04	0.088
739.23	0.088
739.42	0.088
739.61	0.088
739.80	0.087
740.00	0.087
740.19	0.087
740.38	0.087
740.57	0.087
740.76	0.087
740.96	0.087
741.15	0.086
741.34	0.086
741.53	0.086
741.72	0.086
741.92	0.085
742.11	0.086
742.30	0.086
742.49	0.086
742.68	0.086
742.88	0.086
743.07	0.086
743.26	0.086
743.45	0.086
743.64	0.086
743.84	0.085
744.03	0.086
744.22	0.086
744.41	0.085
744.60	0.085
744.79	0.085
744.99	0.085
745.18	0.085
745.37	0.085
745.56	0.085
745.75	0.085
745.94	0.085
746.14	0.085
746.33	0.085
746.52	0.085
746.71	0.085
746.90	0.084
747.09	0.085
747.28	0.084
747.48	0.084
747.67	0.084
747.86	0.084
748.05	0.084
748.24	0.084
748.43	0.084
748.62	0.084
748.82	0.084
749.01	0.084
749.20	0.084
749.39	0.084
749.58	0.084
749.77	0.084
749.96	0.084
750.16	0.084
750.35	0.084
750.54	0.084
750.73	0.084
750.92	0.084
751.11	0.083
751.30	0.083
751.49	0.084
751.68	0.083
751.88	0.083
752.07	0.083
752.26	0.083
752.45	0.083
752.64	0.083
752.83	0.083
753.02	0.083
753.21	0.083
753.40	0.082
753.60	0.082
753.79	0.083
753.98	0.083
754.17	0.083
754.36	0.082
754.55	0.082
754.74	0.082
754.93	0.082
755.12	0.082
755.31	0.083
755.50	0.082
755.70	0.082
755.89	0.081
756.08	0.081
756.27	0.081
756.46	0.081
756.65	0.081
756.84	0.081
757.03	0.081
757.22	0.081
757.41	0.081
757.60	0.081
757.79	0.081
757.98	0.082
758.17	0.082
758.36	0.082
758.56	0.082
758.75	0.081
758.94	0.081
759.13	0.081
759.32	0.081
759.51	0.081
759.70	0.081
759.89	0.081
760.08	0.080
760.27	0.080
760.46	0.080
760.65	0.080
760.84	0.080
761.03	0.080
761.22	0.081
761.41	0.081
761.60	0.081
761.79	0.080
761.98	0.080
762.17	0.080
762.36	0.080
762.55	0.080
762.74	0.080
762.93	0.080
763.12	0.079
763.31	0.079
763.50	0.078
763.69	0.079
763.88	0.079
764.07	0.079
764.26	0.079
764.45	0.080
764.64	0.080
764.83	0.080
765.02	0.080
765.21	0.080
765.40	0.080
765.59	0.080
765.78	0.080
765.97	0.080
766.16	0.080
766.35	0.079
766.54	0.079
766.73	0.079
766.92	0.078
767.11	0.078
767.30	0.078
767.49	0.078
767.68	0.078
767.87	0.078
768.06	0.078
768.25	0.078
768.44	0.079
768.63	0.078
768.82	0.079
769.01	0.079
769.20	0.079
769.39	0.079
769.58	0.079
769.77	0.079
769.96	0.079
770.15	0.079
770.34	0.079
770.53	0.078
770.72	0.078
770.91	0.078
771.10	0.078
771.29	0.078
771.47	0.077
771.66	0.077
771.85	0.077
772.04	0.077
772.23	0.077
772.42	0.077
772.61	0.077
772.80	0.077
772.99	0.078
773.18	0.077
773.37	0.078
773.56	0.078
773.75	0.078
773.94	0.078
774.13	0.077
774.31	0.078
774.50	0.077
774.69	0.077
774.88	0.077
775.07	0.077
775.26	0.077
775.45	0.077
775.64	0.077
775.83	0.076
776.02	0.076
776.21	0.076
776.40	0.076
776.58	0.076
776.77	0.076
776.96	0.076
777.15	0.076
777.34	0.076
777.53	0.076
777.72	0.076
777.91	0.076
778.10	0.076
778.28	0.076
778.47	0.076
778.66	0.076
778.85	0.076
779.04	0.076
779.23	0.076
779.42	0.076
779.61	0.075
779.79	0.075
779.98	0.075
780.17	0.075
780.36	0.075
780.55	0.074
780.74	0.074
780.93	0.074
781.12	0.074
781.30	0.074
781.49	0.075
781.68	0.075
781.87	0.075
782.06	0.075
782.25	0.075
782.44	0.075
782.62	0.075
782.81	0.075
783.00	0.075
783.19	0.075
783.38	0.075
783.57	0.075
783.75	0.075
783.94	0.075
784.13	0.075
784.32	0.075
784.51	0.075
784.70	0.075
784.88	0.075
785.07	0.075
785.26	0.074
785.45	0.075
785.64	0.074
785.83	0.075
786.01	0.074
786.20	0.074
786.39	0.074
786.58	0.074
786.77	0.074
786.95	0.074
787.14	0.074
787.33	0.074
787.52	0.074
787.71	0.074
787.90	0.074
788.08	0.074
788.27	0.074
788.46	0.074
788.65	0.074
788.84	0.074
789.02	0.074
789.21	0.074
789.40	0.074
789.59	0.074
789.77	0.074
789.96	0.074
790.15	0.074
790.34	0.074
790.53	0.074
790.71	0.073
790.90	0.073
791.09	0.073
791.28	0.074
791.46	0.074
791.65	0.074
791.84	0.074
792.03	0.074
792.22	0.074
792.40	0.073
792.59	0.074
792.78	0.074
792.97	0.074
793.15	0.074
793.34	0.073
793.53	0.073
793.72	0.073
793.90	0.072
794.09	0.073
794.28	0.073
794.47	0.073
794.65	0.072
794.84	0.072
795.03	0.073
795.22	0.073
795.40	0.073
795.59	0.073
795.78	0.073
795.97	0.073
796.15	0.073
796.34	0.073
796.53	0.073
796.71	0.073
796.90	0.073
797.09	0.073
797.28	0.073
797.46	0.073
797.65	0.073
797.84	0.073
798.02	0.073
798.21	0.072
798.40	0.072
798.59	0.072
798.77	0.072
798.96	0.072
799.15	0.071
799.33	0.072
799.52	0.071
799.71	0.071
799.90	0.072
800.08	0.072
800.27	0.072
800.46	0.072
800.64	0.072
800.83	0.072
801.02	0.072
801.20	0.072
801.39	0.072
801.58	0.072
801.76	0.072
801.95	0.072
802.14	0.071
802.32	0.071
802.51	0.071
802.70	0.071
802.88	0.071
803.07	0.071
803.26	0.071
803.44	0.071
803.63	0.071
803.82	0.070
804.00	0.070
804.19	0.070
804.38	0.071
804.56	0.071
804.75	0.071
804.94	0.071
805.12	0.071
805.31	0.071
805.50	0.071
805.68	0.071
805.87	0.071
806.06	0.071
806.24	0.071
806.43	0.071
806.62	0.071
806.80	0.071
806.99	0.071
807.17	0.071
807.36	0.071
807.55	0.071
807.73	0.071
807.92	0.071
808.11	0.071
808.29	0.071
808.48	0.070
808.66	0.071
808.85	0.070
809.04	0.071
809.22	0.070
809.41	0.070
809.59	0.070
809.78	0.070
809.97	0.070
810.15	0.070
810.34	0.070
810.53	0.070
810.71	0.070
810.90	0.070
811.08	0.070
811.27	0.069
811.45	0.070
811.64	0.070
811.83	0.070
812.01	0.070
812.20	0.070
812.38	0.070
812.57	0.070
812.76	0.070
812.94	0.070
813.13	0.070
813.31	0.070
813.50	0.070
813.68	0.070
813.87	0.070
814.06	0.070
814.24	0.070
814.43	0.070
814.61	0.070
814.80	0.070
814.98	0.070
815.17	0.070
815.36	0.070
815.54	0.070
815.73	0.069
815.91	0.069
816.10	0.069
816.28	0.070
816.47	0.069
816.65	0.070
816.84	0.070
817.03	0.070
817.21	0.071
817.40	0.071
817.58	0.070
817.77	0.071
817.95	0.070
818.14	0.071
818.32	0.071
818.51	0.071
818.69	0.071
818.88	0.070
819.06	0.070
819.25	0.070
819.43	0.070
819.62	0.070
819.80	0.070
819.99	0.070
820.18	0.070
820.36	0.070
820.55	0.070
820.73	0.070
820.92	0.070
821.10	0.070
821.29	0.070
821.47	0.070
821.66	0.070
821.84	0.070
822.03	0.070
822.21	0.070
822.40	0.070
822.58	0.070
822.77	0.070
822.95	0.070
823.14	0.070
823.32	0.071
823.50	0.071
823.69	0.071
823.87	0.071
824.06	0.071
824.24	0.071
824.43	0.071
824.61	0.071
824.80	0.071
824.98	0.071
825.17	0.072
825.35	0.072
825.54	0.071
825.72	0.071
825.91	0.071
826.09	0.071
826.28	0.071
826.46	0.072
826.64	0.072
826.83	0.072
827.01	0.072
827.20	0.072
827.38	0.072
827.57	0.072
827.75	0.072
827.94	0.072
828.12	0.073
828.31	0.072
828.49	0.073
828.67	0.073
828.86	0.073
829.04	0.073
829.23	0.073
829.41	0.073
829.60	0.073
829.78	0.073
829.96	0.074
830.15	0.074
830.33	0.074
830.52	0.074
830.70	0.074
830.88	0.074
831.07	0.075
831.25	0.075
831.44	0.075
831.62	0.075
831.81	0.075
831.99	0.075
832.17	0.075
832.36	0.075
832.54	0.075
832.73	0.075
832.91	0.075
833.09	0.075
833.28	0.075
833.46	0.075
833.65	0.075
833.83	0.075
834.01	0.075
834.20	0.075
834.38	0.075
834.56	0.076
834.75	0.076
834.93	0.076
835.12	0.076
835.30	0.076
835.48	0.076
835.67	0.076
835.85	0.076
836.03	0.076
836.22	0.076
836.40	0.076
836.59	0.077
836.77	0.076
836.95	0.076
837.14	0.077
837.32	0.076
837.50	0.076
837.69	0.076
837.87	0.076
838.05	0.076
838.24	0.076
838.42	0.076
838.60	0.076
838.79	0.077
838.97	0.077
839.15	0.077
839.34	0.077
839.52	0.077
839.70	0.077
839.89	0.077
840.07	0.077
840.25	0.078
840.44	0.077
840.62	0.077
840.80	0.077
840.99	0.077
841.17	0.077
841.35	0.077
841.54	0.077
841.72	0.077
841.90	0.078
842.09	0.077
842.27	0.077
842.45	0.078
842.64	0.078
842.82	0.077
843.00	0.078
843.19	0.078
843.37	0.077
843.55	0.078
843.73	0.078
843.92	0.077
844.10	0.078
844.28	0.078
844.47	0.078
844.65	0.078
844.83	0.078
845.01	0.078
845.20	0.078
845.38	0.079
845.56	0.079
845.75	0.079
845.93	0.079
846.11	0.078
846.29	0.079
846.48	0.079
846.66	0.079
846.84	0.079
847.02	0.078
847.21	0.078
847.39	0.078
847.57	0.077
847.76	0.078
847.94	0.078
848.12	0.078
848.30	0.078
848.49	0.078
848.67	0.078
848.85	0.078
849.03	0.078
849.22	0.078
849.40	0.078
849.58	0.079
849.76	0.079
849.95	0.079
850.13	0.079
850.31	0.079
850.49	0.079
850.67	0.079
850.86	0.079
851.04	0.079
851.22	0.079
851.40	0.079
851.59	0.078
851.77	0.078
851.95	0.078
852.13	0.079
852.31	0.078
852.50	0.079
852.68	0.079
852.86	0.079
853.04	0.079
853.23	0.079
853.41	0.079
853.59	0.079
853.77	0.079
853.95	0.079
854.14	0.079
854.32	0.079
854.50	0.079
854.68	0.079
854.86	0.079
855.04	0.079
855.23	0.079
855.41	0.079
855.59	0.080
855.77	0.080
855.95	0.080
856.14	0.080
856.32	0.080
856.50	0.080
856.68	0.080
856.86	0.080
857.04	0.080
857.23	0.080
857.41	0.080
857.59	0.080
857.77	0.079
857.95	0.079
858.13	0.079
858.32	0.079
858.50	0.080
858.68	0.079
858.86	0.080
859.04	0.080
859.22	0.079
859.41	0.080
859.59	0.080
859.77	0.079
859.95	0.079
860.13	0.080
860.31	0.080
860.49	0.079
860.68	0.079
860.86	0.079
861.04	0.079
861.22	0.079
861.40	0.079
861.58	0.079
861.76	0.079
861.94	0.079
862.13	0.079
862.31	0.079
862.49	0.079
862.67	0.079
862.85	0.079
863.03	0.080
863.21	0.080
863.39	0.080
863.57	0.080
863.76	0.080
863.94	0.080
864.12	0.080
864.30	0.081
864.48	0.080
864.66	0.080
864.84	0.081
865.02	0.081
865.20	0.081
865.38	0.081
865.57	0.081
865.75	0.081
865.93	0.081
866.11	0.081
866.29	0.081
866.47	0.081
866.65	0.081
866.83	0.081
867.01	0.081
867.19	0.080
867.37	0.080
867.55	0.080
867.73	0.080
867.92	0.080
868.10	0.081
868.28	0.080
868.46	0.080
868.64	0.080
868.82	0.080
869.00	0.081
869.18	0.081
869.36	0.081
869.54	0.081
869.72	0.081
869.90	0.081
870.08	0.080
870.26	0.081
870.44	0.081
870.62	0.081
870.80	0.081
870.98	0.081
871.16	0.081
871.34	0.081
871.53	0.081
871.71	0.081
871.89	0.081
872.07	0.081
872.25	0.081
872.43	0.081
872.61	0.081
872.79	0.081
872.97	0.082
873.15	0.081
873.33	0.082
873.51	0.082
873.69	0.082
873.87	0.082
874.05	0.082
874.23	0.082
874.41	0.082
874.59	0.083
874.77	0.082
874.95	0.082
875.13	0.082
875.31	0.082
875.49	0.082
875.67	0.082
875.85	0.082
876.03	0.082
876.21	0.082
876.39	0.082
876.57	0.082
876.75	0.082
876.93	0.082
877.11	0.082
877.29	0.082
877.47	0.082
877.65	0.083
877.82	0.083
878.00	0.083
878.18	0.083
878.36	0.082
878.54	0.083
878.72	0.083
878.90	0.083
879.08	0.083
879.26	0.083
879.44	0.083
879.62	0.083
879.80	0.083
879.98	0.084
880.16	0.083
880.34	0.083
880.52	0.083
880.70	0.083
880.88	0.083
881.06	0.083
881.24	0.083
881.42	0.083
881.59	0.083
881.77	0.083
881.95	0.083
882.13	0.083
882.31	0.083
882.49	0.083
882.67	0.084
882.85	0.083
883.03	0.083
883.21	0.083
883.39	0.083
883.57	0.083
883.75	0.084
883.92	0.084
884.10	0.083
884.28	0.083
884.46	0.083
884.64	0.083
884.82	0.083
885.00	0.084
885.18	0.084
885.36	0.084
885.54	0.084
885.71	0.083
885.89	0.084
886.07	0.084
886.25	0.084
886.43	0.084
886.61	0.084
886.79	0.085
886.97	0.085
887.15	0.085
887.32	0.085
887.50	0.085
887.68	0.085
887.86	0.085
888.04	0.085
888.22	0.085
888.40	0.085
888.57	0.085
888.75	0.085
888.93	0.085
889.11	0.085
889.29	0.085
889.47	0.085
889.65	0.085
889.82	0.085
890.00	0.086
890.18	0.086
890.36	0.086
890.54	0.086
890.72	0.086
890.90	0.086
891.07	0.086
891.25	0.085
891.43	0.085
891.61	0.085
891.79	0.085
891.97	0.085
892.14	0.085
892.32	0.085
892.50	0.085
892.68	0.085
892.86	0.086
893.03	0.086
893.21	0.086
893.39	0.087
893.57	0.087
893.75	0.087
893.93	0.087
894.10	0.087
894.28	0.087
894.46	0.086
894.64	0.087
894.82	0.086
894.99	0.086
895.17	0.086
895.35	0.086
895.53	0.086
895.71	0.086
895.88	0.086
896.06	0.086
896.24	0.086
896.42	0.087
896.59	0.087
896.77	0.087
896.95	0.087
897.13	0.087
897.31	0.087
897.48	0.087
897.66	0.088
897.84	0.087
898.02	0.088
898.19	0.088
898.37	0.088
898.55	0.088
898.73	0.088
898.91	0.088
899.08	0.088
899.26	0.088
899.44	0.088
899.62	0.088
899.79	0.088
899.97	0.088
900.15	0.088
900.33	0.088
900.50	0.088
900.68	0.088
900.86	0.088
901.04	0.088
901.21	0.088
901.39	0.088
901.57	0.088
901.74	0.088
901.92	0.088
902.10	0.089
902.28	0.089
902.45	0.089
902.63	0.089
902.81	0.089
902.99	0.089
903.16	0.089
903.34	0.089
903.52	0.089
903.69	0.089
903.87	0.089
904.05	0.089
904.22	0.090
904.40	0.089
904.58	0.090
904.76	0.090
904.93	0.089
905.11	0.090
905.29	0.090
905.46	0.090
905.64	0.090
905.82	0.090
905.99	0.089
906.17	0.089
906.35	0.089
906.53	0.090
906.70	0.090
906.88	0.090
907.06	0.090
907.23	0.090
907.41	0.090
907.59	0.090
907.76	0.091
907.94	0.091
908.12	0.091
908.29	0.091
908.47	0.091
908.65	0.091
908.82	0.091
909.00	0.091
909.18	0.091
909.35	0.091
909.53	0.091
909.71	0.091
909.88	0.091
910.06	0.091
910.23	0.091
910.41	0.092
910.59	0.092
910.76	0.091
910.94	0.091
911.12	0.091
911.29	0.092
911.47	0.092
911.65	0.092
911.82	0.092
912.00	0.092
912.17	0.092
912.35	0.092
912.53	0.093
912.70	0.093
912.88	0.093
913.06	0.093
913.23	0.094
913.41	0.093
913.58	0.094
913.76	0.094
913.94	0.094
914.11	0.094
914.29	0.094
914.46	0.094
914.64	0.095
914.82	0.095
914.99	0.095
915.17	0.095
915.34	0.095
915.52	0.095
915.70	0.095
915.87	0.095
916.05	0.095
916.22	0.095
916.40	0.095
916.57	0.095
916.75	0.096
916.93	0.096
917.10	0.095
917.28	0.095
917.45	0.095
917.63	0.095
917.80	0.095
917.98	0.095
918.16	0.095
918.33	0.096
918.51	0.096
918.68	0.096
918.86	0.096
919.03	0.097
919.21	0.097
919.39	0.097
919.56	0.098
919.74	0.098
919.91	0.098
920.09	0.098
920.26	0.098
920.44	0.098
920.61	0.098
920.79	0.099
920.96	0.099
921.14	0.099
921.31	0.099
921.49	0.099
921.67	0.099
921.84	0.099
922.02	0.099
922.19	0.100
922.37	0.100
922.54	0.100
922.72	0.100
922.89	0.101
923.07	0.101
923.24	0.101
923.42	0.101
923.59	0.102
923.77	0.102
923.94	0.103
924.12	0.103
924.29	0.103
924.47	0.104
924.64	0.104
924.82	0.104
924.99	0.104
925.17	0.105
925.34	0.105
925.52	0.106
925.69	0.106
925.87	0.107
926.04	0.107
926.22	0.107
926.39	0.108
926.57	0.108
926.74	0.108
926.91	0.108
927.09	0.109
927.26	0.109
927.44	0.109
927.61	0.109
927.79	0.109
927.96	0.110
928.14	0.110
928.31	0.110
928.49	0.110
928.66	0.111
928.84	0.112
929.01	0.112
929.18	0.113
929.36	0.113
929.53	0.113
929.71	0.113
929.88	0.114
930.06	0.114
930.23	0.115
930.41	0.115
930.58	0.116
930.75	0.116
930.93	0.116
931.10	0.116
931.28	0.117
931.45	0.117
931.63	0.117
931.80	0.117
931.97	0.118
932.15	0.118
932.32	0.119
932.50	0.119
932.67	0.120
932.84	0.121
933.02	0.121
933.19	0.121
933.37	0.122
933.54	0.123
933.71	0.123
933.89	0.124
934.06	0.125
934.24	0.125
934.41	0.126
934.58	0.126
934.76	0.127
934.93	0.128
935.11	0.128
935.28	0.128
935.45	0.129
935.63	0.129
935.80	0.130
935.98	0.130
936.15	0.130
936.32	0.131
936.50	0.131
936.67	0.131
936.84	0.131
937.02	0.132
937.19	0.133
937.36	0.134
937.54	0.134
937.71	0.135
937.89	0.134
938.06	0.135
938.23	0.135
938.41	0.136
938.58	0.137
938.75	0.137
938.93	0.138
939.10	0.138
939.27	0.138
939.45	0.139
939.62	0.139
939.79	0.141
939.97	0.141
940.14	0.142
940.31	0.143
940.49	0.143
940.66	0.143
940.83	0.144
941.01	0.145
941.18	0.146
941.35	0.146
941.53	0.147
941.70	0.148
941.87	0.148
942.05	0.149
942.22	0.150
942.39	0.151
942.57	0.151
942.74	0.152
942.91	0.152
943.08	0.153
943.26	0.153
943.43	0.153
943.60	0.154
943.78	0.154
943.95	0.155
944.12	0.156
944.29	0.157
944.47	0.157
944.64	0.158
944.81	0.159
944.99	0.160
945.16	0.160
945.33	0.161
945.50	0.162
945.68	0.163
945.85	0.163
946.02	0.165
946.20	0.166
946.37	0.167
946.54	0.167
946.71	0.168
946.89	0.169
947.06	0.169
947.23	0.170
947.40	0.171
947.58	0.171
947.75	0.173
947.92	0.174
948.09	0.174
948.27	0.175
948.44	0.176
948.61	0.178
948.78	0.179
948.96	0.181
949.13	0.181
949.30	0.182
949.47	0.183
949.65	0.184
949.82	0.186
949.99	0.186
950.16	0.188
950.33	0.189
950.51	0.190
950.68	0.191
950.85	0.192
951.02	0.194
951.20	0.195
951.37	0.196
951.54	0.197
951.71	0.198
951.88	0.199
952.06	0.200
952.23	0.201
952.40	0.202
952.57	0.204
952.74	0.205
952.92	0.206
953.09	0.208
953.26	0.210
953.43	0.210
953.60	0.211
953.77	0.212
953.95	0.213
954.12	0.215
954.29	0.215
954.46	0.218
954.63	0.218
954.81	0.219
954.98	0.220
955.15	0.221
955.32	0.223
955.49	0.223
955.66	0.225
955.84	0.226
956.01	0.226
956.18	0.229
956.35	0.230
956.52	0.231
956.69	0.232
956.87	0.232
957.04	0.234
957.21	0.236
957.38	0.236
957.55	0.237
957.72	0.238
957.89	0.239
958.07	0.239
958.24	0.242
958.41	0.243
958.58	0.243
958.75	0.244
958.92	0.245
959.09	0.245
959.26	0.245
959.44	0.246
959.61	0.247
959.78	0.247
959.95	0.249
960.12	0.249
960.29	0.251
960.46	0.250
960.63	0.251
960.81	0.251
960.98	0.251
961.15	0.252
961.32	0.253
961.49	0.252
961.66	0.254
961.83	0.254
962.00	0.254
962.17	0.256
962.34	0.256
962.52	0.257
962.69	0.258
962.86	0.258
963.03	0.258
963.20	0.259
963.37	0.259
963.54	0.259
963.71	0.259
963.88	0.259
964.05	0.259
964.22	0.261
964.39	0.260
964.56	0.260
964.74	0.261
964.91	0.261
965.08	0.261
965.25	0.261
965.42	0.262
965.59	0.263
965.76	0.263
965.93	0.264
966.10	0.262
966.27	0.263
966.44	0.262
966.61	0.263
966.78	0.263
966.95	0.262
967.12	0.263
967.29	0.265
967.46	0.264
967.63	0.264
967.80	0.264
967.97	0.264
968.14	0.264
968.32	0.265
968.49	0.265
968.66	0.265
968.83	0.266
969.00	0.265
969.17	0.265
969.34	0.266
969.51	0.266
969.68	0.265
969.85	0.266
970.02	0.266
970.19	0.265
970.36	0.266
970.53	0.266
970.70	0.264
970.87	0.264
971.04	0.264
971.21	0.264
971.38	0.265
971.55	0.265
971.72	0.265
971.89	0.266
972.06	0.266
972.23	0.265
972.40	0.266
972.57	0.265
972.74	0.265
972.91	0.266
973.07	0.267
973.24	0.266
973.41	0.266
973.58	0.265
973.75	0.277
973.92	0.266
974.09	0.265
974.26	0.265
974.43	0.264
974.60	0.265
974.77	0.265
974.94	0.264
975.11	0.265
975.28	0.266
975.45	0.264
975.62	0.265
975.79	0.266
975.96	0.264
976.13	0.263
976.30	0.265
976.47	0.264
976.64	0.264
976.80	0.265
976.97	0.265
977.14	0.264
977.31	0.264
977.48	0.264
977.65	0.264
977.82	0.263
977.99	0.264
978.16	0.263
978.33	0.263
978.50	0.263
978.67	0.263
978.83	0.262
979.00	0.263
979.17	0.263
979.34	0.263
979.51	0.263
979.68	0.263
979.85	0.262
980.02	0.263
980.19	0.261
980.36	0.262
980.52	0.263
980.69	0.261
980.86	0.261
981.03	0.261
981.20	0.259
981.37	0.260
981.54	0.260
981.71	0.259
981.88	0.260
982.04	0.260
982.21	0.260
982.38	0.261
982.55	0.260
982.72	0.259
982.89	0.260
983.06	0.259
983.22	0.259
983.39	0.259
983.56	0.259
983.73	0.258
983.90	0.257
984.07	0.258
984.24	0.257
984.40	0.257
984.57	0.255
984.74	0.257
984.91	0.258
985.08	0.256
985.25	0.254
985.41	0.255
985.58	0.255
985.75	0.256
985.92	0.256
986.09	0.254
986.26	0.254
986.42	0.253
986.59	0.252
986.76	0.254
986.93	0.253
987.10	0.253
987.27	0.251
987.43	0.249
987.60	0.251
987.77	0.250
987.94	0.249
988.11	0.249
988.27	0.249
988.44	0.248
988.61	0.247
988.78	0.245
988.95	0.246
989.11	0.248
989.28	0.246
989.45	0.246
989.62	0.245
989.79	0.246
989.95	0.245
990.12	0.246
990.29	0.246
990.46	0.244
990.62	0.243
990.79	0.244
990.96	0.244
991.13	0.245
991.30	0.243
991.46	0.243
991.63	0.241
991.80	0.240
991.97	0.240
992.13	0.240
992.30	0.241
992.47	0.239
992.64	0.238
992.80	0.238
992.97	0.238
993.14	0.236
993.31	0.233
993.47	0.236
993.64	0.235
993.81	0.235
993.98	0.235
994.14	0.234
994.31	0.233
994.48	0.234
994.64	0.234
994.81	0.232
994.98	0.233
995.15	0.231
995.31	0.231
995.48	0.230
995.65	0.232
995.82	0.229
995.98	0.229
996.15	0.230
996.32	0.232
996.48	0.230
996.65	0.230
996.82	0.227
996.99	0.228
997.15	0.228
997.32	0.229
997.49	0.227
997.65	0.228
997.82	0.227
997.99	0.225
998.15	0.226
998.32	0.227
998.49	0.226
998.65	0.226
998.82	0.226
998.99	0.223
999.15	0.224
999.32	0.223
999.49	0.223
999.65	0.224
999.82	0.222
999.99	0.222
1000.15	0.221
1000.32	0.221
1000.49	0.221
1000.65	0.219
1000.82	0.219
1000.99	0.219
1001.15	0.219
1001.32	0.219
1001.49	0.219
1001.65	0.218
1001.82	0.221
1001.99	0.218
1002.15	0.217
1002.32	0.217
1002.49	0.218
1002.65	0.216
1002.82	0.215
1002.99	0.215
1003.15	0.217
1003.32	0.215
1003.48	0.215
1003.65	0.214
1003.82	0.213
1003.98	0.211
1004.15	0.211
1004.32	0.211
1004.48	0.211
1004.65	0.213
1004.81	0.210
1004.98	0.208
1005.15	0.209
1005.31	0.209
1005.48	0.207
1005.64	0.207
1005.81	0.210
1005.98	0.207
1006.14	0.207
1006.31	0.207
1006.47	0.204
1006.64	0.204
1006.81	0.204
1006.97	0.203
1007.14	0.203
1007.30	0.204
1007.47	0.204
1007.63	0.201
1007.80	0.199
1007.97	0.199
1008.13	0.199
1008.30	0.199
1008.46	0.199
1008.63	0.198
1008.79	0.198
1008.96	0.198
1009.13	0.199
1009.29	0.196
1009.46	0.196
1009.62	0.195
1009.79	0.194
1009.95	0.194
1010.12	0.195
1010.28	0.194
1010.45	0.194
1010.62	0.193
1010.78	0.192
1010.95	0.190
1011.11	0.192
1011.28	0.192
1011.44	0.194
1011.61	0.192
1011.77	0.190
1011.94	0.190
1012.10	0.190
1012.27	0.190
1012.43	0.190
1012.60	0.189
1012.76	0.189
1012.93	0.189
1013.10	0.188
1013.26	0.185
1013.43	0.186
1013.59	0.194
1013.76	0.186
1013.92	0.185
1014.09	0.183
1014.25	0.185
1014.42	0.185
1014.58	0.184
1014.75	0.187
1014.91	0.184
1015.08	0.187
1015.24	0.184
1015.41	0.186
1015.57	0.186
1015.73	0.185
1015.90	0.184
1016.06	0.186
1016.23	0.185
1016.39	0.185
1016.56	0.185
1016.72	0.184
1016.89	0.183
1017.05	0.185
1017.22	0.181
1017.38	0.181
1017.55	0.179
1017.71	0.180
1017.88	0.179
1018.04	0.179
1018.21	0.176
1018.37	0.176
1018.53	0.176
1018.70	0.175
1018.86	0.174
1019.03	0.176
1019.19	0.174
1019.36	0.174
1019.52	0.176
1019.69	0.176
1019.85	0.174
1020.01	0.175
1020.18	0.173
1020.34	0.174
1020.51	0.173
1020.67	0.174
1020.84	0.172
1021.00	0.173
1021.16	0.170
1021.33	0.171
1021.49	0.170
1021.66	0.171
1021.82	0.169
1021.98	0.169
1022.15	0.169
1022.31	0.169
1022.48	0.168
1022.64	0.170
1022.80	0.168
1022.97	0.167
1023.13	0.166
1023.30	0.167
1023.46	0.168
1023.62	0.165
1023.79	0.166
1023.95	0.166
1024.12	0.166
1024.28	0.164
1024.44	0.164
1024.61	0.163
1024.77	0.163
1024.93	0.162
1025.10	0.163
1025.26	0.161
1025.43	0.161
1025.59	0.157
1025.75	0.161
1025.92	0.160
1026.08	0.159
1026.24	0.158
1026.41	0.160
1026.57	0.158
1026.73	0.157
1026.90	0.159
1027.06	0.157
1027.23	0.158
1027.39	0.158
1027.55	0.158
1027.72	0.156
1027.88	0.156
1028.04	0.156
1028.21	0.157
1028.37	0.151
1028.53	0.156
1028.70	0.154
1028.86	0.152
1029.02	0.152
1029.19	0.153
1029.35	0.151
1029.51	0.152
1029.67	0.152
1029.84	0.154
1030.00	0.150
1030.16	0.150
1030.33	0.153
1030.49	0.150
1030.65	0.147
1030.82	0.163
1030.98	0.149
1031.14	0.149
1031.31	0.148
1031.47	0.145
1031.63	0.147
1031.79	0.145
1031.96	0.146
1032.12	0.147
1032.28	0.143
1032.45	0.147
1032.61	0.145
1032.77	0.145
1032.93	0.143
1033.10	0.145
1033.26	0.148
1033.42	0.146
1033.58	0.147
1033.75	0.149
1033.91	0.148
1034.07	0.150
1034.24	0.148
1034.40	0.147
1034.56	0.145
1034.72	0.147
1034.89	0.146
1035.05	0.145
1035.21	0.145
1035.37	0.143
1035.54	0.145
1035.70	0.144
1035.86	0.143
1036.02	0.145
1036.19	0.144
1036.35	0.142
1036.51	0.146
1036.67	0.144
1036.83	0.143
1037.00	0.141
1037.16	0.140
1037.32	0.141
1037.48	0.139
1037.65	0.143
1037.81	0.138
1037.97	0.138
1038.13	0.137
1038.29	0.135
1038.46	0.133
1038.62	0.138
1038.78	0.135
1038.94	0.132
1039.10	0.137
1039.27	0.132
1039.43	0.134
1039.59	0.133
1039.75	0.133
1039.91	0.133
1040.08	0.133
1040.24	0.137
1040.40	0.138
1040.56	0.137
1040.72	0.132
1040.89	0.134
1041.05	0.137
1041.21	0.136
1041.37	0.134
1041.53	0.140
1041.69	0.137
1041.86	0.134
1042.02	0.130
1042.18	0.129
1042.34	0.130
1042.50	0.135
1042.66	0.132
1042.83	0.130
1042.99	0.134
1043.15	0.129
1043.31	0.129
1043.47	0.133
1043.63	0.131
1043.79	0.129
1043.96	0.132
1044.12	0.137
1044.28	0.132
1044.44	0.134
1044.60	0.128
1044.76	0.126
1044.92	0.129
1045.09	0.131
1045.25	0.127
1045.41	0.129
1045.57	0.126
1045.73	0.124
1045.89	0.125
1046.05	0.128
1046.21	0.134
1046.38	0.128
1046.54	0.125
1046.70	0.135
1046.86	0.130
>>>>>End Processed Spectral Data<<<<<
