SpectraSuite Data File
++++++++++++++++++++++++++++++++++++
Date: Mon May 20 12:13:19 CDT 2013
User: Students
Dark Spectrum Present: Yes
Reference Spectrum Present: Yes
Number of Sampled Component Spectra: 1
Spectrometers: USB4H00887
Integration Time (usec): 60000 (USB4H00887)
Spectra Averaged: 5 (USB4H00887)
Boxcar Smoothing: 5 (USB4H00887)
Correct for Electrical Dark: No (USB4H00887)
Strobe/Lamp Enabled: No (USB4H00887)
Correct for Detector Non-linearity: No (USB4H00887)
Correct for Stray Light: No (USB4H00887)
Number of Pixels in Processed Spectrum: 3648
>>>>>Begin Processed Spectral Data<<<<<
345.83	0.135
346.05	0.135
346.26	0.135
346.48	-0.000
346.70	-0.000
346.92	0.092
347.14	0.081
347.35	0.083
347.57	0.950
347.79	-0.325
348.01	-0.231
348.23	-0.359
348.44	-0.000
348.66	0.416
348.88	-0.448
349.10	-0.181
349.32	0.040
349.53	0.011
349.75	0.044
349.97	0.076
350.19	0.141
350.41	0.129
350.62	-0.308
350.84	0.047
351.06	0.071
351.28	0.092
351.50	0.269
351.71	0.122
351.93	0.095
352.15	0.022
352.37	0.051
352.58	0.029
352.80	0.038
353.02	0.044
353.24	0.037
353.46	0.034
353.67	0.007
353.89	-0.007
354.11	0.003
354.33	0.015
354.54	0.034
354.76	0.069
354.98	0.080
355.20	0.094
355.41	0.054
355.63	0.171
355.85	0.089
356.07	1.688
356.28	0.098
356.50	0.186
356.72	0.065
356.94	0.153
357.15	0.231
357.37	-0.000
357.59	0.109
357.81	0.066
358.02	0.085
358.24	0.091
358.46	0.193
358.68	0.140
358.89	0.077
359.11	-0.000
359.33	0.086
359.55	-0.538
359.76	0.129
359.98	0.147
360.20	0.162
360.42	0.114
360.63	0.103
360.85	0.061
361.07	0.433
361.29	0.068
361.50	0.148
361.72	0.065
361.94	0.245
362.15	0.083
362.37	0.040
362.59	0.039
362.81	0.067
363.02	0.138
363.24	0.246
363.46	0.123
363.68	0.192
363.89	0.150
364.11	0.187
364.33	0.219
364.54	0.167
364.76	0.216
364.98	0.241
365.20	0.286
365.41	0.148
365.63	0.169
365.85	0.128
366.06	0.334
366.28	0.229
366.50	0.174
366.71	0.069
366.93	0.066
367.15	0.059
367.37	0.069
367.58	0.086
367.80	0.105
368.02	0.191
368.23	0.096
368.45	0.108
368.67	0.109
368.88	0.111
369.10	-0.000
369.32	0.131
369.53	0.072
369.75	0.109
369.97	0.284
370.19	0.227
370.40	0.098
370.62	0.213
370.84	0.083
371.05	0.352
371.27	0.102
371.49	0.131
371.70	0.144
371.92	0.209
372.14	0.094
372.35	0.099
372.57	0.099
372.79	0.219
373.00	0.067
373.22	0.104
373.44	0.119
373.65	0.103
373.87	0.134
374.09	0.550
374.30	0.128
374.52	0.138
374.74	0.093
374.95	0.362
375.17	0.100
375.39	-0.000
375.60	0.157
375.82	0.310
376.04	0.129
376.25	0.156
376.47	0.100
376.68	0.255
376.90	0.148
377.12	0.378
377.33	0.180
377.55	0.502
377.77	0.238
377.98	0.310
378.20	0.158
378.42	0.189
378.63	0.225
378.85	-0.000
379.07	0.147
379.28	0.542
379.50	0.370
379.71	0.199
379.93	0.139
380.15	0.177
380.36	0.275
380.58	0.180
380.80	0.457
381.01	0.152
381.23	0.127
381.44	0.129
381.66	0.165
381.88	0.172
382.09	-0.074
382.31	0.103
382.53	0.104
382.74	0.426
382.96	0.148
383.17	0.138
383.39	0.186
383.61	0.232
383.82	0.160
384.04	0.179
384.25	0.222
384.47	0.210
384.69	0.229
384.90	0.210
385.12	0.443
385.33	0.277
385.55	0.205
385.77	0.310
385.98	0.166
386.20	0.239
386.41	0.209
386.63	0.256
386.85	0.205
387.06	0.255
387.28	0.387
387.49	0.258
387.71	0.188
387.93	0.162
388.14	0.465
388.36	0.203
388.57	0.190
388.79	0.207
389.01	1.232
389.22	0.276
389.44	0.219
389.65	0.191
389.87	0.184
390.08	0.223
390.30	0.188
390.52	0.353
390.73	0.345
390.95	0.249
391.16	0.250
391.38	-0.000
391.59	0.287
391.81	0.254
392.03	0.253
392.24	0.315
392.46	0.252
392.67	0.221
392.89	0.325
393.10	0.520
393.32	0.334
393.53	0.379
393.75	0.237
393.97	0.266
394.18	0.382
394.40	0.304
394.61	0.304
394.83	0.270
395.04	0.317
395.26	0.208
395.47	0.318
395.69	0.259
395.91	0.281
396.12	0.343
396.34	0.332
396.55	0.211
396.77	0.326
396.98	-0.000
397.20	0.430
397.41	0.484
397.63	0.336
397.84	0.300
398.06	0.296
398.27	0.293
398.49	0.321
398.71	0.241
398.92	0.288
399.14	0.367
399.35	0.426
399.57	0.412
399.78	0.273
400.00	0.268
400.21	0.333
400.43	0.264
400.64	0.283
400.86	0.638
401.07	0.353
401.29	0.320
401.50	0.347
401.72	0.513
401.93	0.321
402.15	0.398
402.36	0.351
402.58	0.295
402.79	0.338
403.01	0.592
403.22	0.452
403.44	0.303
403.65	0.486
403.87	0.513
404.08	0.398
404.30	0.667
404.51	0.357
404.73	0.442
404.94	0.366
405.16	0.362
405.37	0.283
405.59	0.518
405.80	0.316
406.02	0.376
406.23	0.385
406.45	0.430
406.66	0.458
406.88	0.291
407.09	0.465
407.31	0.372
407.52	0.454
407.74	0.357
407.95	0.416
408.17	0.392
408.38	0.425
408.60	0.283
408.81	0.489
409.03	0.364
409.24	0.376
409.45	0.429
409.67	0.421
409.88	0.389
410.10	0.519
410.31	0.443
410.53	0.434
410.74	0.641
410.96	0.614
411.17	0.650
411.39	0.485
411.60	0.428
411.82	0.498
412.03	0.461
412.24	0.445
412.46	0.663
412.67	0.509
412.89	0.484
413.10	0.483
413.32	0.443
413.53	0.497
413.75	0.511
413.96	0.393
414.17	0.529
414.39	0.549
414.60	0.433
414.82	0.580
415.03	0.440
415.25	0.488
415.46	0.337
415.68	0.480
415.89	0.956
416.10	0.728
416.32	0.380
416.53	0.458
416.75	0.425
416.96	0.529
417.18	0.452
417.39	0.439
417.60	0.446
417.82	0.657
418.03	0.572
418.25	0.469
418.46	0.499
418.67	0.458
418.89	0.482
419.10	0.514
419.32	0.689
419.53	0.614
419.75	0.507
419.96	0.438
420.17	0.539
420.39	0.497
420.60	0.525
420.82	0.649
421.03	0.525
421.24	0.437
421.46	0.486
421.67	0.528
421.89	0.461
422.10	0.508
422.31	0.510
422.53	0.740
422.74	0.530
422.96	0.413
423.17	0.461
423.38	0.567
423.60	0.487
423.81	0.605
424.03	0.515
424.24	0.578
424.45	0.563
424.67	0.559
424.88	0.493
425.09	0.536
425.31	0.496
425.52	0.528
425.74	0.594
425.95	0.639
426.16	0.495
426.38	0.573
426.59	0.527
426.80	0.613
427.02	0.650
427.23	0.510
427.45	0.674
427.66	0.659
427.87	0.500
428.09	0.534
428.30	0.591
428.51	0.579
428.73	0.642
428.94	0.568
429.15	0.552
429.37	0.531
429.58	0.559
429.79	0.522
430.01	0.626
430.22	0.615
430.44	0.624
430.65	0.567
430.86	0.606
431.08	0.594
431.29	0.536
431.50	0.646
431.72	0.853
431.93	0.688
432.14	0.511
432.36	0.557
432.57	0.574
432.78	0.591
433.00	0.544
433.21	0.542
433.42	0.671
433.64	0.588
433.85	0.661
434.06	0.540
434.28	0.568
434.49	0.594
434.70	0.613
434.92	0.629
435.13	0.694
435.34	0.700
435.56	0.653
435.77	0.654
435.98	0.851
436.20	0.704
436.41	0.603
436.62	0.585
436.83	0.654
437.05	0.738
437.26	0.637
437.47	0.561
437.69	0.618
437.90	0.567
438.11	0.561
438.33	0.616
438.54	0.627
438.75	0.791
438.97	0.792
439.18	0.596
439.39	0.630
439.60	0.687
439.82	0.646
440.03	0.590
440.24	0.877
440.46	0.645
440.67	0.617
440.88	0.664
441.10	0.630
441.31	0.619
441.52	0.676
441.73	0.755
441.95	0.667
442.16	0.610
442.37	0.969
442.58	0.605
442.80	0.595
443.01	0.779
443.22	0.708
443.44	0.595
443.65	0.710
443.86	0.704
444.07	0.753
444.29	0.642
444.50	0.826
444.71	0.626
444.92	0.586
445.14	0.740
445.35	0.797
445.56	0.622
445.78	0.736
445.99	0.739
446.20	0.635
446.41	0.721
446.63	0.739
446.84	0.697
447.05	0.699
447.26	0.844
447.48	0.706
447.69	0.659
447.90	0.760
448.11	0.672
448.33	0.696
448.54	0.713
448.75	0.750
448.96	0.750
449.18	0.780
449.39	0.694
449.60	0.674
449.81	0.814
450.03	0.708
450.24	0.778
450.45	0.730
450.66	0.715
450.87	0.750
451.09	0.696
451.30	0.678
451.51	0.762
451.72	0.776
451.94	0.799
452.15	0.886
452.36	0.728
452.57	0.739
452.78	0.737
453.00	0.766
453.21	0.713
453.42	0.684
453.63	0.779
453.85	0.747
454.06	0.741
454.27	0.874
454.48	0.770
454.69	0.696
454.91	0.766
455.12	0.670
455.33	0.761
455.54	0.783
455.75	0.751
455.97	0.779
456.18	0.769
456.39	0.772
456.60	0.796
456.81	0.735
457.03	0.749
457.24	0.752
457.45	0.848
457.66	0.782
457.87	0.742
458.09	0.767
458.30	0.678
458.51	0.804
458.72	0.827
458.93	0.842
459.15	0.739
459.36	0.808
459.57	0.837
459.78	0.884
459.99	0.788
460.20	0.744
460.42	0.832
460.63	0.779
460.84	0.760
461.05	0.782
461.26	0.844
461.47	0.751
461.69	0.801
461.90	0.838
462.11	0.796
462.32	0.856
462.53	0.790
462.74	0.886
462.96	0.774
463.17	0.765
463.38	0.809
463.59	0.928
463.80	0.773
464.01	0.796
464.23	0.879
464.44	0.840
464.65	0.845
464.86	0.869
465.07	0.876
465.28	0.829
465.49	0.856
465.71	0.810
465.92	0.849
466.13	0.896
466.34	0.821
466.55	0.880
466.76	0.838
466.97	0.861
467.19	0.849
467.40	0.891
467.61	0.898
467.82	0.811
468.03	0.788
468.24	0.861
468.45	0.894
468.66	0.883
468.88	0.889
469.09	0.888
469.30	0.938
469.51	0.863
469.72	0.900
469.93	0.870
470.14	0.848
470.35	0.947
470.57	0.892
470.78	0.832
470.99	0.967
471.20	0.906
471.41	0.862
471.62	0.918
471.83	0.889
472.04	0.920
472.25	0.968
472.47	0.881
472.68	0.885
472.89	0.889
473.10	0.933
473.31	0.880
473.52	0.939
473.73	0.966
473.94	0.883
474.15	0.908
474.36	0.911
474.57	0.935
474.79	0.903
475.00	0.908
475.21	0.892
475.42	0.992
475.63	0.891
475.84	0.927
476.05	0.932
476.26	0.901
476.47	0.936
476.68	0.984
476.89	0.909
477.10	0.968
477.32	0.950
477.53	1.007
477.74	0.918
477.95	0.963
478.16	0.904
478.37	0.949
478.58	0.952
478.79	0.969
479.00	0.970
479.21	0.927
479.42	0.965
479.63	0.969
479.84	0.930
480.05	0.931
480.26	0.963
480.47	0.984
480.69	0.984
480.90	0.950
481.11	0.943
481.32	1.009
481.53	0.943
481.74	1.000
481.95	0.965
482.16	0.981
482.37	0.989
482.58	0.950
482.79	0.964
483.00	0.994
483.21	0.934
483.42	0.909
483.63	0.985
483.84	1.014
484.05	1.000
484.26	0.968
484.47	0.966
484.68	0.928
484.89	0.935
485.10	0.988
485.31	0.966
485.52	0.974
485.73	0.973
485.94	1.016
486.15	0.962
486.37	0.982
486.58	0.949
486.79	0.965
487.00	1.019
487.21	1.011
487.42	1.004
487.63	1.009
487.84	1.029
488.05	1.027
488.26	0.981
488.47	0.988
488.68	1.017
488.89	0.988
489.10	0.979
489.31	0.989
489.52	1.022
489.73	0.989
489.94	1.030
490.15	0.985
490.36	1.025
490.57	0.977
490.78	0.963
490.99	1.002
491.20	1.082
491.41	1.037
491.62	0.977
491.83	1.008
492.04	1.003
492.25	1.010
492.45	1.009
492.66	1.035
492.87	1.025
493.08	1.009
493.29	0.993
493.50	0.987
493.71	0.996
493.92	0.992
494.13	1.007
494.34	1.029
494.55	1.038
494.76	1.073
494.97	1.063
495.18	1.028
495.39	1.045
495.60	0.992
495.81	0.992
496.02	1.017
496.23	1.010
496.44	1.043
496.65	1.033
496.86	1.038
497.07	1.064
497.28	1.060
497.49	1.003
497.70	1.006
497.91	1.028
498.12	1.010
498.32	1.053
498.53	1.037
498.74	1.027
498.95	1.055
499.16	1.005
499.37	1.011
499.58	1.022
499.79	1.052
500.00	1.045
500.21	1.074
500.42	1.015
500.63	1.015
500.84	1.036
501.05	1.017
501.26	1.042
501.46	1.084
501.67	1.039
501.88	1.040
502.09	1.016
502.30	1.024
502.51	1.076
502.72	1.030
502.93	1.046
503.14	1.070
503.35	1.036
503.56	1.032
503.77	1.065
503.97	1.043
504.18	1.044
504.39	1.079
504.60	1.047
504.81	1.077
505.02	1.065
505.23	1.069
505.44	1.049
505.65	1.057
505.86	1.038
506.07	1.108
506.27	1.065
506.48	1.071
506.69	1.055
506.90	1.078
507.11	1.075
507.32	1.047
507.53	1.055
507.74	1.044
507.95	1.059
508.15	1.063
508.36	1.068
508.57	1.080
508.78	1.059
508.99	1.060
509.20	1.033
509.41	1.060
509.62	1.048
509.82	1.046
510.03	1.058
510.24	1.056
510.45	1.081
510.66	1.072
510.87	1.065
511.08	1.024
511.29	1.068
511.49	1.042
511.70	1.088
511.91	1.018
512.12	1.016
512.33	1.051
512.54	1.069
512.75	1.050
512.95	1.075
513.16	1.068
513.37	1.045
513.58	1.083
513.79	1.046
514.00	1.055
514.20	1.077
514.41	1.062
514.62	1.027
514.83	1.070
515.04	1.062
515.25	1.041
515.46	1.052
515.66	1.053
515.87	1.067
516.08	1.035
516.29	1.059
516.50	1.038
516.71	1.033
516.91	1.045
517.12	1.061
517.33	1.046
517.54	1.033
517.75	1.036
517.95	1.048
518.16	1.058
518.37	1.022
518.58	1.028
518.79	1.001
519.00	1.031
519.20	1.040
519.41	1.013
519.62	1.032
519.83	1.044
520.04	1.009
520.24	1.008
520.45	1.021
520.66	1.044
520.87	1.003
521.08	1.001
521.28	1.007
521.49	1.023
521.70	0.992
521.91	1.006
522.12	0.985
522.32	1.009
522.53	0.990
522.74	0.978
522.95	0.989
523.16	0.993
523.36	1.002
523.57	0.983
523.78	0.977
523.99	0.983
524.20	0.976
524.40	0.989
524.61	0.995
524.82	0.968
525.03	0.974
525.23	0.976
525.44	0.960
525.65	0.959
525.86	0.982
526.06	0.953
526.27	0.953
526.48	0.961
526.69	0.942
526.90	0.946
527.10	0.982
527.31	0.934
527.52	0.925
527.73	0.918
527.93	0.927
528.14	0.932
528.35	0.920
528.56	0.923
528.76	0.915
528.97	0.906
529.18	0.896
529.39	0.895
529.59	0.899
529.80	0.931
530.01	0.903
530.22	0.905
530.42	0.875
530.63	0.894
530.84	0.869
531.05	0.883
531.25	0.887
531.46	0.880
531.67	0.858
531.88	0.876
532.08	0.869
532.29	0.864
532.50	0.854
532.70	0.847
532.91	0.838
533.12	0.841
533.33	0.867
533.53	0.837
533.74	0.835
533.95	0.842
534.15	0.830
534.36	0.832
534.57	0.815
534.78	0.818
534.98	0.826
535.19	0.796
535.40	0.798
535.60	0.817
535.81	0.796
536.02	0.800
536.23	0.791
536.43	0.793
536.64	0.779
536.85	0.788
537.05	0.797
537.26	0.776
537.47	0.779
537.67	0.769
537.88	0.764
538.09	0.771
538.30	0.759
538.50	0.750
538.71	0.761
538.92	0.748
539.12	0.743
539.33	0.738
539.54	0.738
539.74	0.741
539.95	0.731
540.16	0.728
540.36	0.720
540.57	0.719
540.78	0.713
540.98	0.712
541.19	0.709
541.40	0.697
541.60	0.707
541.81	0.702
542.02	0.702
542.22	0.692
542.43	0.688
542.64	0.683
542.84	0.682
543.05	0.674
543.26	0.674
543.46	0.677
543.67	0.676
543.88	0.671
544.08	0.661
544.29	0.655
544.50	0.656
544.70	0.655
544.91	0.645
545.12	0.647
545.32	0.641
545.53	0.646
545.74	0.635
545.94	0.631
546.15	0.628
546.35	0.624
546.56	0.621
546.77	0.618
546.97	0.616
547.18	0.608
547.39	0.608
547.59	0.607
547.80	0.602
548.01	0.605
548.21	0.600
548.42	0.593
548.62	0.591
548.83	0.588
549.04	0.584
549.24	0.578
549.45	0.577
549.65	0.574
549.86	0.570
550.07	0.570
550.27	0.567
550.48	0.575
550.69	0.561
550.89	0.563
551.10	0.559
551.30	0.557
551.51	0.557
551.72	0.547
551.92	0.547
552.13	0.546
552.33	0.546
552.54	0.540
552.75	0.534
552.95	0.536
553.16	0.530
553.36	0.528
553.57	0.526
553.78	0.524
553.98	0.523
554.19	0.515
554.39	0.511
554.60	0.515
554.80	0.514
555.01	0.507
555.22	0.508
555.42	0.505
555.63	0.498
555.83	0.502
556.04	0.495
556.25	0.498
556.45	0.488
556.66	0.487
556.86	0.489
557.07	0.487
557.27	0.486
557.48	0.480
557.68	0.477
557.89	0.478
558.10	0.475
558.30	0.473
558.51	0.470
558.71	0.468
558.92	0.462
559.12	0.465
559.33	0.468
559.54	0.463
559.74	0.458
559.95	0.456
560.15	0.456
560.36	0.453
560.56	0.447
560.77	0.448
560.97	0.447
561.18	0.442
561.38	0.441
561.59	0.444
561.79	0.440
562.00	0.438
562.21	0.434
562.41	0.432
562.62	0.432
562.82	0.430
563.03	0.426
563.23	0.425
563.44	0.425
563.64	0.422
563.85	0.423
564.05	0.416
564.26	0.415
564.46	0.414
564.67	0.415
564.87	0.411
565.08	0.407
565.28	0.407
565.49	0.408
565.69	0.406
565.90	0.402
566.10	0.405
566.31	0.398
566.51	0.400
566.72	0.400
566.92	0.394
567.13	0.394
567.33	0.393
567.54	0.391
567.74	0.389
567.95	0.385
568.15	0.387
568.36	0.385
568.56	0.384
568.77	0.380
568.97	0.378
569.18	0.377
569.38	0.375
569.59	0.375
569.79	0.373
570.00	0.371
570.20	0.369
570.41	0.367
570.61	0.366
570.82	0.367
571.02	0.363
571.23	0.365
571.43	0.361
571.64	0.359
571.84	0.358
572.05	0.356
572.25	0.355
572.45	0.353
572.66	0.350
572.86	0.349
573.07	0.348
573.27	0.348
573.48	0.347
573.68	0.343
573.89	0.342
574.09	0.343
574.30	0.341
574.50	0.340
574.70	0.341
574.91	0.338
575.11	0.338
575.32	0.337
575.52	0.334
575.73	0.333
575.93	0.333
576.14	0.331
576.34	0.329
576.54	0.328
576.75	0.327
576.95	0.326
577.16	0.324
577.36	0.322
577.57	0.322
577.77	0.320
577.97	0.318
578.18	0.319
578.38	0.316
578.59	0.314
578.79	0.312
579.00	0.312
579.20	0.311
579.40	0.310
579.61	0.310
579.81	0.308
580.02	0.306
580.22	0.305
580.42	0.304
580.63	0.304
580.83	0.303
581.04	0.301
581.24	0.300
581.45	0.299
581.65	0.298
581.85	0.297
582.06	0.295
582.26	0.295
582.47	0.294
582.67	0.293
582.87	0.293
583.08	0.291
583.28	0.291
583.48	0.289
583.69	0.286
583.89	0.286
584.10	0.287
584.30	0.285
584.50	0.283
584.71	0.282
584.91	0.282
585.12	0.280
585.32	0.280
585.52	0.278
585.73	0.277
585.93	0.276
586.13	0.276
586.34	0.275
586.54	0.274
586.75	0.273
586.95	0.272
587.15	0.271
587.36	0.270
587.56	0.269
587.76	0.268
587.97	0.267
588.17	0.266
588.37	0.265
588.58	0.265
588.78	0.262
588.98	0.263
589.19	0.261
589.39	0.259
589.60	0.261
589.80	0.258
590.00	0.258
590.21	0.258
590.41	0.256
590.61	0.255
590.82	0.254
591.02	0.253
591.22	0.252
591.43	0.252
591.63	0.251
591.83	0.250
592.04	0.248
592.24	0.249
592.44	0.246
592.65	0.245
592.85	0.246
593.05	0.246
593.26	0.244
593.46	0.244
593.66	0.244
593.86	0.243
594.07	0.241
594.27	0.241
594.47	0.240
594.68	0.240
594.88	0.240
595.08	0.239
595.29	0.240
595.49	0.238
595.69	0.237
595.90	0.236
596.10	0.236
596.30	0.236
596.50	0.234
596.71	0.233
596.91	0.232
597.11	0.232
597.32	0.231
597.52	0.230
597.72	0.229
597.93	0.228
598.13	0.227
598.33	0.227
598.53	0.226
598.74	0.225
598.94	0.225
599.14	0.225
599.35	0.225
599.55	0.224
599.75	0.223
599.95	0.222
600.16	0.223
600.36	0.221
600.56	0.221
600.76	0.220
600.97	0.219
601.17	0.218
601.37	0.218
601.58	0.217
601.78	0.217
601.98	0.217
602.18	0.216
602.39	0.215
602.59	0.215
602.79	0.214
602.99	0.214
603.20	0.213
603.40	0.213
603.60	0.212
603.80	0.212
604.01	0.211
604.21	0.210
604.41	0.210
604.61	0.208
604.82	0.207
605.02	0.208
605.22	0.207
605.42	0.206
605.62	0.206
605.83	0.205
606.03	0.204
606.23	0.204
606.43	0.204
606.64	0.204
606.84	0.204
607.04	0.204
607.24	0.203
607.45	0.203
607.65	0.202
607.85	0.203
608.05	0.201
608.25	0.201
608.46	0.201
608.66	0.200
608.86	0.199
609.06	0.198
609.26	0.197
609.47	0.197
609.67	0.196
609.87	0.197
610.07	0.196
610.28	0.194
610.48	0.194
610.68	0.194
610.88	0.193
611.08	0.194
611.29	0.193
611.49	0.192
611.69	0.193
611.89	0.191
612.09	0.191
612.29	0.191
612.50	0.191
612.70	0.191
612.90	0.190
613.10	0.189
613.30	0.189
613.51	0.189
613.71	0.189
613.91	0.193
614.11	0.188
614.31	0.188
614.51	0.187
614.72	0.186
614.92	0.186
615.12	0.186
615.32	0.187
615.52	0.186
615.72	0.186
615.93	0.186
616.13	0.185
616.33	0.185
616.53	0.184
616.73	0.184
616.93	0.183
617.14	0.184
617.34	0.183
617.54	0.183
617.74	0.183
617.94	0.182
618.14	0.182
618.34	0.181
618.55	0.180
618.75	0.181
618.95	0.181
619.15	0.181
619.35	0.180
619.55	0.179
619.75	0.180
619.96	0.178
620.16	0.178
620.36	0.178
620.56	0.178
620.76	0.178
620.96	0.177
621.16	0.177
621.36	0.176
621.57	0.176
621.77	0.177
621.97	0.176
622.17	0.176
622.37	0.176
622.57	0.176
622.77	0.175
622.97	0.174
623.18	0.174
623.38	0.174
623.58	0.173
623.78	0.173
623.98	0.172
624.18	0.172
624.38	0.171
624.58	0.172
624.78	0.172
624.98	0.172
625.19	0.172
625.39	0.172
625.59	0.171
625.79	0.171
625.99	0.171
626.19	0.171
626.39	0.170
626.59	0.170
626.79	0.170
626.99	0.169
627.19	0.169
627.40	0.170
627.60	0.169
627.80	0.169
628.00	0.169
628.20	0.168
628.40	0.168
628.60	0.168
628.80	0.167
629.00	0.167
629.20	0.166
629.40	0.166
629.60	0.165
629.80	0.165
630.00	0.165
630.20	0.165
630.41	0.164
630.61	0.164
630.81	0.164
631.01	0.164
631.21	0.163
631.41	0.163
631.61	0.163
631.81	0.163
632.01	0.163
632.21	0.163
632.41	0.161
632.61	0.161
632.81	0.161
633.01	0.162
633.21	0.161
633.41	0.162
633.61	0.161
633.81	0.161
634.01	0.160
634.21	0.160
634.41	0.160
634.61	0.160
634.81	0.159
635.01	0.159
635.22	0.159
635.42	0.159
635.62	0.159
635.82	0.159
636.02	0.158
636.22	0.158
636.42	0.158
636.62	0.158
636.82	0.158
637.02	0.157
637.22	0.157
637.42	0.157
637.62	0.156
637.82	0.156
638.02	0.156
638.22	0.155
638.42	0.155
638.62	0.155
638.82	0.154
639.02	0.154
639.22	0.154
639.42	0.153
639.62	0.153
639.82	0.152
640.02	0.152
640.22	0.153
640.42	0.152
640.62	0.152
640.82	0.152
641.02	0.151
641.22	0.152
641.42	0.151
641.61	0.152
641.81	0.152
642.01	0.151
642.21	0.151
642.41	0.151
642.61	0.151
642.81	0.150
643.01	0.150
643.21	0.150
643.41	0.149
643.61	0.149
643.81	0.148
644.01	0.147
644.21	0.147
644.41	0.148
644.61	0.148
644.81	0.148
645.01	0.148
645.21	0.148
645.41	0.148
645.61	0.148
645.81	0.147
646.01	0.147
646.21	0.147
646.40	0.147
646.60	0.147
646.80	0.147
647.00	0.146
647.20	0.146
647.40	0.146
647.60	0.146
647.80	0.145
648.00	0.146
648.20	0.145
648.40	0.145
648.60	0.144
648.80	0.144
649.00	0.144
649.20	0.144
649.39	0.144
649.59	0.143
649.79	0.142
649.99	0.143
650.19	0.142
650.39	0.142
650.59	0.142
650.79	0.141
650.99	0.141
651.19	0.140
651.39	0.141
651.58	0.141
651.78	0.141
651.98	0.141
652.18	0.140
652.38	0.140
652.58	0.141
652.78	0.140
652.98	0.140
653.18	0.139
653.38	0.139
653.57	0.139
653.77	0.139
653.97	0.138
654.17	0.138
654.37	0.137
654.57	0.138
654.77	0.137
654.97	0.137
655.16	0.137
655.36	0.137
655.56	0.137
655.76	0.136
655.96	0.137
656.16	0.136
656.36	0.136
656.56	0.136
656.75	0.136
656.95	0.135
657.15	0.135
657.35	0.135
657.55	0.134
657.75	0.135
657.95	0.135
658.14	0.135
658.34	0.135
658.54	0.135
658.74	0.134
658.94	0.134
659.14	0.134
659.34	0.133
659.53	0.133
659.73	0.132
659.93	0.131
660.13	0.131
660.33	0.131
660.53	0.130
660.72	0.131
660.92	0.131
661.12	0.130
661.32	0.130
661.52	0.130
661.72	0.130
661.91	0.130
662.11	0.130
662.31	0.130
662.51	0.129
662.71	0.129
662.90	0.128
663.10	0.128
663.30	0.128
663.50	0.128
663.70	0.128
663.90	0.128
664.09	0.127
664.29	0.127
664.49	0.126
664.69	0.126
664.89	0.126
665.08	0.126
665.28	0.126
665.48	0.126
665.68	0.125
665.88	0.125
666.07	0.125
666.27	0.125
666.47	0.124
666.67	0.125
666.87	0.125
667.06	0.125
667.26	0.124
667.46	0.124
667.66	0.124
667.85	0.124
668.05	0.124
668.25	0.123
668.45	0.124
668.65	0.124
668.84	0.123
669.04	0.123
669.24	0.123
669.44	0.122
669.63	0.122
669.83	0.121
670.03	0.121
670.23	0.120
670.42	0.120
670.62	0.119
670.82	0.119
671.02	0.118
671.22	0.118
671.41	0.118
671.61	0.118
671.81	0.118
672.01	0.119
672.20	0.118
672.40	0.118
672.60	0.118
672.80	0.119
672.99	0.119
673.19	0.118
673.39	0.119
673.58	0.118
673.78	0.118
673.98	0.118
674.18	0.117
674.37	0.117
674.57	0.117
674.77	0.117
674.97	0.117
675.16	0.117
675.36	0.116
675.56	0.116
675.75	0.115
675.95	0.115
676.15	0.115
676.35	0.115
676.54	0.115
676.74	0.114
676.94	0.115
677.13	0.114
677.33	0.114
677.53	0.114
677.73	0.114
677.92	0.113
678.12	0.113
678.32	0.113
678.51	0.112
678.71	0.112
678.91	0.112
679.11	0.111
679.30	0.111
679.50	0.111
679.70	0.111
679.89	0.111
680.09	0.111
680.29	0.110
680.48	0.111
680.68	0.110
680.88	0.110
681.07	0.110
681.27	0.110
681.47	0.110
681.66	0.110
681.86	0.109
682.06	0.109
682.25	0.109
682.45	0.108
682.65	0.108
682.84	0.108
683.04	0.108
683.24	0.107
683.43	0.108
683.63	0.107
683.83	0.107
684.02	0.107
684.22	0.107
684.42	0.107
684.61	0.107
684.81	0.107
685.01	0.107
685.20	0.106
685.40	0.106
685.60	0.106
685.79	0.106
685.99	0.106
686.19	0.106
686.38	0.106
686.58	0.106
686.77	0.106
686.97	0.105
687.17	0.105
687.36	0.105
687.56	0.105
687.76	0.104
687.95	0.104
688.15	0.104
688.34	0.104
688.54	0.104
688.74	0.103
688.93	0.103
689.13	0.103
689.33	0.103
689.52	0.103
689.72	0.103
689.91	0.103
690.11	0.102
690.31	0.102
690.50	0.102
690.70	0.102
690.89	0.102
691.09	0.101
691.29	0.101
691.48	0.101
691.68	0.101
691.87	0.101
692.07	0.101
692.27	0.101
692.46	0.101
692.66	0.101
692.85	0.100
693.05	0.100
693.25	0.100
693.44	0.099
693.64	0.099
693.83	0.099
694.03	0.098
694.22	0.098
694.42	0.098
694.62	0.098
694.81	0.098
695.01	0.098
695.20	0.098
695.40	0.098
695.59	0.098
695.79	0.097
695.99	0.097
696.18	0.098
696.38	0.098
696.57	0.098
696.77	0.097
696.96	0.097
697.16	0.097
697.36	0.097
697.55	0.097
697.75	0.097
697.94	0.096
698.14	0.097
698.33	0.096
698.53	0.096
698.72	0.096
698.92	0.096
699.11	0.096
699.31	0.096
699.51	0.096
699.70	0.095
699.90	0.096
700.09	0.096
700.29	0.095
700.48	0.095
700.68	0.095
700.87	0.095
701.07	0.095
701.26	0.095
701.46	0.094
701.65	0.094
701.85	0.094
702.04	0.094
702.24	0.094
702.43	0.093
702.63	0.093
702.82	0.093
703.02	0.093
703.21	0.093
703.41	0.093
703.60	0.092
703.80	0.092
703.99	0.092
704.19	0.092
704.38	0.092
704.58	0.091
704.77	0.092
704.97	0.091
705.16	0.091
705.36	0.091
705.55	0.091
705.75	0.091
705.94	0.091
706.14	0.091
706.33	0.091
706.53	0.091
706.72	0.091
706.92	0.090
707.11	0.090
707.31	0.090
707.50	0.090
707.70	0.090
707.89	0.090
708.09	0.090
708.28	0.090
708.48	0.090
708.67	0.090
708.86	0.090
709.06	0.090
709.25	0.090
709.45	0.090
709.64	0.090
709.84	0.090
710.03	0.090
710.23	0.090
710.42	0.089
710.62	0.089
710.81	0.089
711.00	0.089
711.20	0.089
711.39	0.089
711.59	0.088
711.78	0.088
711.98	0.088
712.17	0.088
712.37	0.089
712.56	0.089
712.75	0.089
712.95	0.089
713.14	0.089
713.34	0.089
713.53	0.090
713.73	0.090
713.92	0.089
714.11	0.089
714.31	0.089
714.50	0.089
714.70	0.088
714.89	0.088
715.08	0.088
715.28	0.088
715.47	0.088
715.67	0.088
715.86	0.088
716.06	0.088
716.25	0.088
716.44	0.088
716.64	0.088
716.83	0.088
717.03	0.087
717.22	0.087
717.41	0.087
717.61	0.086
717.80	0.086
717.99	0.086
718.19	0.086
718.38	0.086
718.58	0.086
718.77	0.086
718.96	0.086
719.16	0.086
719.35	0.086
719.55	0.086
719.74	0.086
719.93	0.086
720.13	0.086
720.32	0.085
720.51	0.085
720.71	0.086
720.90	0.086
721.10	0.086
721.29	0.085
721.48	0.085
721.68	0.085
721.87	0.085
722.06	0.085
722.26	0.086
722.45	0.085
722.64	0.086
722.84	0.086
723.03	0.086
723.22	0.086
723.42	0.086
723.61	0.086
723.80	0.086
724.00	0.086
724.19	0.086
724.38	0.086
724.58	0.086
724.77	0.085
724.96	0.085
725.16	0.085
725.35	0.085
725.54	0.085
725.74	0.085
725.93	0.085
726.12	0.085
726.32	0.086
726.51	0.086
726.70	0.086
726.90	0.087
727.09	0.086
727.28	0.086
727.48	0.086
727.67	0.086
727.86	0.086
728.06	0.086
728.25	0.086
728.44	0.086
728.64	0.086
728.83	0.086
729.02	0.085
729.21	0.085
729.41	0.085
729.60	0.085
729.79	0.085
729.99	0.085
730.18	0.085
730.37	0.085
730.56	0.085
730.76	0.085
730.95	0.085
731.14	0.085
731.34	0.085
731.53	0.085
731.72	0.085
731.91	0.085
732.11	0.085
732.30	0.085
732.49	0.085
732.69	0.085
732.88	0.085
733.07	0.085
733.26	0.086
733.46	0.086
733.65	0.086
733.84	0.085
734.03	0.086
734.23	0.086
734.42	0.086
734.61	0.085
734.80	0.085
735.00	0.085
735.19	0.085
735.38	0.085
735.57	0.085
735.77	0.085
735.96	0.085
736.15	0.085
736.34	0.085
736.54	0.086
736.73	0.086
736.92	0.086
737.11	0.086
737.31	0.086
737.50	0.086
737.69	0.086
737.88	0.086
738.07	0.085
738.27	0.085
738.46	0.086
738.65	0.085
738.84	0.085
739.04	0.085
739.23	0.085
739.42	0.085
739.61	0.085
739.80	0.085
740.00	0.085
740.19	0.085
740.38	0.085
740.57	0.085
740.76	0.085
740.96	0.084
741.15	0.084
741.34	0.084
741.53	0.084
741.72	0.084
741.92	0.084
742.11	0.084
742.30	0.084
742.49	0.084
742.68	0.085
742.88	0.085
743.07	0.085
743.26	0.085
743.45	0.085
743.64	0.084
743.84	0.084
744.03	0.084
744.22	0.084
744.41	0.084
744.60	0.084
744.79	0.084
744.99	0.084
745.18	0.084
745.37	0.083
745.56	0.083
745.75	0.083
745.94	0.083
746.14	0.083
746.33	0.084
746.52	0.084
746.71	0.084
746.90	0.083
747.09	0.083
747.28	0.083
747.48	0.083
747.67	0.083
747.86	0.083
748.05	0.083
748.24	0.083
748.43	0.083
748.62	0.083
748.82	0.083
749.01	0.083
749.20	0.083
749.39	0.083
749.58	0.083
749.77	0.082
749.96	0.083
750.16	0.083
750.35	0.082
750.54	0.083
750.73	0.083
750.92	0.083
751.11	0.082
751.30	0.082
751.49	0.082
751.68	0.082
751.88	0.082
752.07	0.081
752.26	0.081
752.45	0.081
752.64	0.081
752.83	0.081
753.02	0.081
753.21	0.081
753.40	0.081
753.60	0.081
753.79	0.081
753.98	0.081
754.17	0.081
754.36	0.081
754.55	0.080
754.74	0.081
754.93	0.080
755.12	0.080
755.31	0.081
755.50	0.080
755.70	0.080
755.89	0.080
756.08	0.081
756.27	0.080
756.46	0.081
756.65	0.080
756.84	0.080
757.03	0.080
757.22	0.079
757.41	0.080
757.60	0.080
757.79	0.080
757.98	0.080
758.17	0.080
758.36	0.080
758.56	0.080
758.75	0.079
758.94	0.079
759.13	0.079
759.32	0.079
759.51	0.079
759.70	0.079
759.89	0.078
760.08	0.078
760.27	0.078
760.46	0.078
760.65	0.078
760.84	0.079
761.03	0.079
761.22	0.079
761.41	0.079
761.60	0.079
761.79	0.079
761.98	0.079
762.17	0.079
762.36	0.079
762.55	0.078
762.74	0.078
762.93	0.078
763.12	0.078
763.31	0.078
763.50	0.078
763.69	0.078
763.88	0.078
764.07	0.078
764.26	0.078
764.45	0.078
764.64	0.078
764.83	0.077
765.02	0.078
765.21	0.077
765.40	0.078
765.59	0.078
765.78	0.078
765.97	0.078
766.16	0.078
766.35	0.078
766.54	0.078
766.73	0.078
766.92	0.078
767.11	0.078
767.30	0.078
767.49	0.078
767.68	0.078
767.87	0.078
768.06	0.078
768.25	0.078
768.44	0.079
768.63	0.078
768.82	0.078
769.01	0.078
769.20	0.077
769.39	0.078
769.58	0.078
769.77	0.078
769.96	0.078
770.15	0.078
770.34	0.077
770.53	0.077
770.72	0.077
770.91	0.076
771.10	0.077
771.29	0.076
771.47	0.076
771.66	0.076
771.85	0.076
772.04	0.076
772.23	0.076
772.42	0.075
772.61	0.076
772.80	0.076
772.99	0.076
773.18	0.075
773.37	0.076
773.56	0.076
773.75	0.076
773.94	0.076
774.13	0.075
774.31	0.076
774.50	0.076
774.69	0.076
774.88	0.076
775.07	0.076
775.26	0.076
775.45	0.075
775.64	0.075
775.83	0.075
776.02	0.075
776.21	0.075
776.40	0.075
776.58	0.075
776.77	0.075
776.96	0.075
777.15	0.075
777.34	0.075
777.53	0.075
777.72	0.075
777.91	0.075
778.10	0.075
778.28	0.075
778.47	0.075
778.66	0.075
778.85	0.075
779.04	0.074
779.23	0.074
779.42	0.074
779.61	0.074
779.79	0.074
779.98	0.074
780.17	0.074
780.36	0.074
780.55	0.074
780.74	0.073
780.93	0.073
781.12	0.073
781.30	0.073
781.49	0.073
781.68	0.073
781.87	0.074
782.06	0.073
782.25	0.073
782.44	0.074
782.62	0.074
782.81	0.074
783.00	0.074
783.19	0.074
783.38	0.074
783.57	0.074
783.75	0.073
783.94	0.074
784.13	0.074
784.32	0.073
784.51	0.073
784.70	0.073
784.88	0.073
785.07	0.073
785.26	0.073
785.45	0.073
785.64	0.072
785.83	0.073
786.01	0.072
786.20	0.072
786.39	0.073
786.58	0.073
786.77	0.072
786.95	0.072
787.14	0.073
787.33	0.073
787.52	0.072
787.71	0.072
787.90	0.072
788.08	0.072
788.27	0.072
788.46	0.072
788.65	0.072
788.84	0.072
789.02	0.072
789.21	0.072
789.40	0.072
789.59	0.072
789.77	0.073
789.96	0.073
790.15	0.073
790.34	0.073
790.53	0.072
790.71	0.072
790.90	0.072
791.09	0.072
791.28	0.072
791.46	0.072
791.65	0.072
791.84	0.072
792.03	0.072
792.22	0.071
792.40	0.071
792.59	0.072
792.78	0.072
792.97	0.072
793.15	0.072
793.34	0.072
793.53	0.072
793.72	0.072
793.90	0.072
794.09	0.072
794.28	0.072
794.47	0.072
794.65	0.071
794.84	0.072
795.03	0.072
795.22	0.072
795.40	0.071
795.59	0.071
795.78	0.071
795.97	0.071
796.15	0.072
796.34	0.071
796.53	0.072
796.71	0.072
796.90	0.072
797.09	0.072
797.28	0.071
797.46	0.071
797.65	0.072
797.84	0.071
798.02	0.071
798.21	0.071
798.40	0.071
798.59	0.070
798.77	0.070
798.96	0.070
799.15	0.069
799.33	0.070
799.52	0.070
799.71	0.070
799.90	0.070
800.08	0.070
800.27	0.070
800.46	0.070
800.64	0.070
800.83	0.070
801.02	0.070
801.20	0.071
801.39	0.070
801.58	0.070
801.76	0.070
801.95	0.071
802.14	0.070
802.32	0.070
802.51	0.070
802.70	0.070
802.88	0.070
803.07	0.070
803.26	0.069
803.44	0.069
803.63	0.070
803.82	0.069
804.00	0.069
804.19	0.069
804.38	0.069
804.56	0.070
804.75	0.070
804.94	0.070
805.12	0.070
805.31	0.070
805.50	0.070
805.68	0.070
805.87	0.070
806.06	0.070
806.24	0.070
806.43	0.070
806.62	0.070
806.80	0.070
806.99	0.070
807.17	0.070
807.36	0.070
807.55	0.070
807.73	0.070
807.92	0.070
808.11	0.070
808.29	0.069
808.48	0.069
808.66	0.069
808.85	0.069
809.04	0.069
809.22	0.069
809.41	0.069
809.59	0.069
809.78	0.069
809.97	0.068
810.15	0.069
810.34	0.068
810.53	0.069
810.71	0.068
810.90	0.069
811.08	0.068
811.27	0.068
811.45	0.068
811.64	0.068
811.83	0.068
812.01	0.069
812.20	0.068
812.38	0.069
812.57	0.069
812.76	0.069
812.94	0.069
813.13	0.068
813.31	0.068
813.50	0.068
813.68	0.068
813.87	0.068
814.06	0.068
814.24	0.068
814.43	0.068
814.61	0.068
814.80	0.068
814.98	0.069
815.17	0.069
815.36	0.069
815.54	0.069
815.73	0.069
815.91	0.069
816.10	0.069
816.28	0.069
816.47	0.069
816.65	0.069
816.84	0.069
817.03	0.069
817.21	0.069
817.40	0.069
817.58	0.069
817.77	0.069
817.95	0.069
818.14	0.069
818.32	0.069
818.51	0.069
818.69	0.069
818.88	0.069
819.06	0.069
819.25	0.069
819.43	0.069
819.62	0.069
819.80	0.069
819.99	0.070
820.18	0.069
820.36	0.069
820.55	0.069
820.73	0.070
820.92	0.070
821.10	0.070
821.29	0.070
821.47	0.069
821.66	0.069
821.84	0.069
822.03	0.069
822.21	0.069
822.40	0.069
822.58	0.069
822.77	0.068
822.95	0.069
823.14	0.069
823.32	0.069
823.50	0.069
823.69	0.069
823.87	0.069
824.06	0.070
824.24	0.070
824.43	0.070
824.61	0.070
824.80	0.071
824.98	0.071
825.17	0.071
825.35	0.071
825.54	0.071
825.72	0.070
825.91	0.070
826.09	0.070
826.28	0.070
826.46	0.070
826.64	0.070
826.83	0.070
827.01	0.071
827.20	0.071
827.38	0.071
827.57	0.071
827.75	0.071
827.94	0.072
828.12	0.072
828.31	0.072
828.49	0.072
828.67	0.073
828.86	0.072
829.04	0.072
829.23	0.073
829.41	0.073
829.60	0.073
829.78	0.073
829.96	0.074
830.15	0.073
830.33	0.073
830.52	0.073
830.70	0.073
830.88	0.073
831.07	0.074
831.25	0.074
831.44	0.073
831.62	0.073
831.81	0.073
831.99	0.073
832.17	0.073
832.36	0.074
832.54	0.074
832.73	0.074
832.91	0.074
833.09	0.074
833.28	0.074
833.46	0.074
833.65	0.075
833.83	0.075
834.01	0.075
834.20	0.075
834.38	0.074
834.56	0.075
834.75	0.075
834.93	0.075
835.12	0.075
835.30	0.075
835.48	0.075
835.67	0.074
835.85	0.075
836.03	0.075
836.22	0.075
836.40	0.075
836.59	0.075
836.77	0.075
836.95	0.076
837.14	0.075
837.32	0.075
837.50	0.075
837.69	0.075
837.87	0.075
838.05	0.075
838.24	0.075
838.42	0.075
838.60	0.075
838.79	0.076
838.97	0.075
839.15	0.076
839.34	0.076
839.52	0.076
839.70	0.076
839.89	0.076
840.07	0.076
840.25	0.076
840.44	0.076
840.62	0.076
840.80	0.076
840.99	0.076
841.17	0.076
841.35	0.076
841.54	0.076
841.72	0.076
841.90	0.076
842.09	0.076
842.27	0.076
842.45	0.077
842.64	0.077
842.82	0.077
843.00	0.077
843.19	0.077
843.37	0.077
843.55	0.077
843.73	0.076
843.92	0.076
844.10	0.077
844.28	0.077
844.47	0.077
844.65	0.076
844.83	0.077
845.01	0.077
845.20	0.077
845.38	0.077
845.56	0.077
845.75	0.077
845.93	0.077
846.11	0.077
846.29	0.077
846.48	0.077
846.66	0.077
846.84	0.077
847.02	0.077
847.21	0.077
847.39	0.077
847.57	0.077
847.76	0.077
847.94	0.077
848.12	0.077
848.30	0.077
848.49	0.077
848.67	0.077
848.85	0.077
849.03	0.077
849.22	0.077
849.40	0.078
849.58	0.078
849.76	0.078
849.95	0.078
850.13	0.078
850.31	0.078
850.49	0.078
850.67	0.078
850.86	0.078
851.04	0.078
851.22	0.077
851.40	0.077
851.59	0.077
851.77	0.077
851.95	0.077
852.13	0.077
852.31	0.077
852.50	0.078
852.68	0.078
852.86	0.078
853.04	0.078
853.23	0.078
853.41	0.078
853.59	0.078
853.77	0.078
853.95	0.078
854.14	0.078
854.32	0.078
854.50	0.077
854.68	0.077
854.86	0.077
855.04	0.078
855.23	0.078
855.41	0.078
855.59	0.078
855.77	0.078
855.95	0.079
856.14	0.079
856.32	0.079
856.50	0.079
856.68	0.079
856.86	0.079
857.04	0.078
857.23	0.078
857.41	0.078
857.59	0.078
857.77	0.078
857.95	0.078
858.13	0.077
858.32	0.078
858.50	0.078
858.68	0.077
858.86	0.077
859.04	0.078
859.22	0.078
859.41	0.078
859.59	0.078
859.77	0.078
859.95	0.078
860.13	0.079
860.31	0.078
860.49	0.078
860.68	0.078
860.86	0.079
861.04	0.078
861.22	0.078
861.40	0.078
861.58	0.078
861.76	0.078
861.94	0.078
862.13	0.078
862.31	0.078
862.49	0.078
862.67	0.078
862.85	0.079
863.03	0.079
863.21	0.079
863.39	0.079
863.57	0.079
863.76	0.079
863.94	0.079
864.12	0.079
864.30	0.079
864.48	0.079
864.66	0.080
864.84	0.080
865.02	0.080
865.20	0.079
865.38	0.080
865.57	0.080
865.75	0.080
865.93	0.080
866.11	0.080
866.29	0.080
866.47	0.081
866.65	0.080
866.83	0.080
867.01	0.080
867.19	0.080
867.37	0.080
867.55	0.080
867.73	0.080
867.92	0.079
868.10	0.080
868.28	0.079
868.46	0.079
868.64	0.079
868.82	0.080
869.00	0.080
869.18	0.080
869.36	0.080
869.54	0.080
869.72	0.080
869.90	0.080
870.08	0.080
870.26	0.080
870.44	0.080
870.62	0.080
870.80	0.080
870.98	0.080
871.16	0.080
871.34	0.080
871.53	0.080
871.71	0.080
871.89	0.080
872.07	0.080
872.25	0.080
872.43	0.080
872.61	0.081
872.79	0.081
872.97	0.081
873.15	0.081
873.33	0.082
873.51	0.081
873.69	0.081
873.87	0.081
874.05	0.081
874.23	0.081
874.41	0.081
874.59	0.082
874.77	0.081
874.95	0.081
875.13	0.081
875.31	0.081
875.49	0.081
875.67	0.081
875.85	0.081
876.03	0.082
876.21	0.082
876.39	0.082
876.57	0.082
876.75	0.083
876.93	0.082
877.11	0.082
877.29	0.082
877.47	0.082
877.65	0.083
877.82	0.083
878.00	0.082
878.18	0.083
878.36	0.083
878.54	0.083
878.72	0.082
878.90	0.082
879.08	0.082
879.26	0.082
879.44	0.083
879.62	0.083
879.80	0.083
879.98	0.083
880.16	0.082
880.34	0.082
880.52	0.082
880.70	0.082
880.88	0.082
881.06	0.082
881.24	0.082
881.42	0.082
881.59	0.082
881.77	0.082
881.95	0.082
882.13	0.082
882.31	0.082
882.49	0.082
882.67	0.083
882.85	0.083
883.03	0.082
883.21	0.083
883.39	0.083
883.57	0.083
883.75	0.083
883.92	0.083
884.10	0.084
884.28	0.084
884.46	0.084
884.64	0.083
884.82	0.083
885.00	0.083
885.18	0.083
885.36	0.084
885.54	0.083
885.71	0.084
885.89	0.084
886.07	0.084
886.25	0.084
886.43	0.083
886.61	0.084
886.79	0.084
886.97	0.084
887.15	0.084
887.32	0.084
887.50	0.084
887.68	0.084
887.86	0.084
888.04	0.084
888.22	0.084
888.40	0.084
888.57	0.084
888.75	0.084
888.93	0.084
889.11	0.084
889.29	0.084
889.47	0.084
889.65	0.084
889.82	0.084
890.00	0.085
890.18	0.084
890.36	0.084
890.54	0.084
890.72	0.084
890.90	0.085
891.07	0.085
891.25	0.085
891.43	0.084
891.61	0.085
891.79	0.085
891.97	0.085
892.14	0.085
892.32	0.085
892.50	0.085
892.68	0.085
892.86	0.085
893.03	0.085
893.21	0.085
893.39	0.086
893.57	0.086
893.75	0.086
893.93	0.086
894.10	0.086
894.28	0.086
894.46	0.086
894.64	0.086
894.82	0.085
894.99	0.086
895.17	0.086
895.35	0.086
895.53	0.086
895.71	0.085
895.88	0.085
896.06	0.085
896.24	0.085
896.42	0.085
896.59	0.085
896.77	0.086
896.95	0.085
897.13	0.086
897.31	0.086
897.48	0.086
897.66	0.086
897.84	0.086
898.02	0.086
898.19	0.086
898.37	0.087
898.55	0.087
898.73	0.087
898.91	0.087
899.08	0.087
899.26	0.087
899.44	0.087
899.62	0.087
899.79	0.088
899.97	0.088
900.15	0.088
900.33	0.088
900.50	0.088
900.68	0.087
900.86	0.088
901.04	0.088
901.21	0.088
901.39	0.088
901.57	0.088
901.74	0.087
901.92	0.087
902.10	0.088
902.28	0.088
902.45	0.088
902.63	0.088
902.81	0.088
902.99	0.088
903.16	0.088
903.34	0.088
903.52	0.088
903.69	0.088
903.87	0.088
904.05	0.089
904.22	0.089
904.40	0.089
904.58	0.089
904.76	0.089
904.93	0.089
905.11	0.089
905.29	0.089
905.46	0.089
905.64	0.089
905.82	0.089
905.99	0.089
906.17	0.089
906.35	0.089
906.53	0.089
906.70	0.089
906.88	0.089
907.06	0.089
907.23	0.089
907.41	0.090
907.59	0.089
907.76	0.090
907.94	0.090
908.12	0.090
908.29	0.090
908.47	0.091
908.65	0.091
908.82	0.091
909.00	0.091
909.18	0.091
909.35	0.091
909.53	0.091
909.71	0.091
909.88	0.091
910.06	0.091
910.23	0.091
910.41	0.091
910.59	0.090
910.76	0.090
910.94	0.090
911.12	0.090
911.29	0.090
911.47	0.090
911.65	0.091
911.82	0.091
912.00	0.091
912.17	0.091
912.35	0.091
912.53	0.091
912.70	0.092
912.88	0.092
913.06	0.092
913.23	0.092
913.41	0.092
913.58	0.092
913.76	0.093
913.94	0.093
914.11	0.093
914.29	0.093
914.46	0.093
914.64	0.093
914.82	0.093
914.99	0.094
915.17	0.094
915.34	0.094
915.52	0.094
915.70	0.094
915.87	0.094
916.05	0.095
916.22	0.094
916.40	0.094
916.57	0.095
916.75	0.095
916.93	0.094
917.10	0.094
917.28	0.094
917.45	0.094
917.63	0.094
917.80	0.094
917.98	0.094
918.16	0.095
918.33	0.095
918.51	0.095
918.68	0.095
918.86	0.096
919.03	0.096
919.21	0.096
919.39	0.096
919.56	0.097
919.74	0.097
919.91	0.097
920.09	0.097
920.26	0.098
920.44	0.098
920.61	0.098
920.79	0.098
920.96	0.098
921.14	0.098
921.31	0.099
921.49	0.099
921.67	0.099
921.84	0.099
922.02	0.099
922.19	0.099
922.37	0.099
922.54	0.099
922.72	0.099
922.89	0.100
923.07	0.100
923.24	0.100
923.42	0.100
923.59	0.101
923.77	0.102
923.94	0.102
924.12	0.102
924.29	0.103
924.47	0.103
924.64	0.104
924.82	0.104
924.99	0.104
925.17	0.105
925.34	0.105
925.52	0.105
925.69	0.105
925.87	0.105
926.04	0.106
926.22	0.106
926.39	0.106
926.57	0.106
926.74	0.106
926.91	0.107
927.09	0.107
927.26	0.107
927.44	0.107
927.61	0.108
927.79	0.108
927.96	0.109
928.14	0.109
928.31	0.109
928.49	0.109
928.66	0.110
928.84	0.110
929.01	0.111
929.18	0.111
929.36	0.111
929.53	0.112
929.71	0.112
929.88	0.113
930.06	0.113
930.23	0.113
930.41	0.114
930.58	0.115
930.75	0.115
930.93	0.116
931.10	0.116
931.28	0.117
931.45	0.117
931.63	0.117
931.80	0.117
931.97	0.118
932.15	0.119
932.32	0.119
932.50	0.119
932.67	0.119
932.84	0.120
933.02	0.121
933.19	0.121
933.37	0.122
933.54	0.122
933.71	0.123
933.89	0.124
934.06	0.124
934.24	0.125
934.41	0.125
934.58	0.126
934.76	0.126
934.93	0.127
935.11	0.127
935.28	0.127
935.45	0.128
935.63	0.128
935.80	0.128
935.98	0.129
936.15	0.129
936.32	0.129
936.50	0.130
936.67	0.130
936.84	0.130
937.02	0.132
937.19	0.132
937.36	0.133
937.54	0.133
937.71	0.134
937.89	0.134
938.06	0.135
938.23	0.135
938.41	0.136
938.58	0.137
938.75	0.137
938.93	0.137
939.10	0.137
939.27	0.138
939.45	0.138
939.62	0.139
939.79	0.140
939.97	0.140
940.14	0.141
940.31	0.142
940.49	0.142
940.66	0.143
940.83	0.143
941.01	0.144
941.18	0.145
941.35	0.146
941.53	0.147
941.70	0.147
941.87	0.148
942.05	0.148
942.22	0.149
942.39	0.150
942.57	0.150
942.74	0.151
942.91	0.151
943.08	0.152
943.26	0.152
943.43	0.153
943.60	0.153
943.78	0.154
943.95	0.155
944.12	0.155
944.29	0.156
944.47	0.156
944.64	0.157
944.81	0.158
944.99	0.159
945.16	0.160
945.33	0.160
945.50	0.161
945.68	0.162
945.85	0.162
946.02	0.164
946.20	0.165
946.37	0.166
946.54	0.167
946.71	0.168
946.89	0.168
947.06	0.169
947.23	0.170
947.40	0.172
947.58	0.172
947.75	0.173
947.92	0.174
948.09	0.174
948.27	0.176
948.44	0.177
948.61	0.178
948.78	0.178
948.96	0.180
949.13	0.180
949.30	0.181
949.47	0.181
949.65	0.183
949.82	0.185
949.99	0.185
950.16	0.187
950.33	0.187
950.51	0.189
950.68	0.190
950.85	0.192
951.02	0.193
951.20	0.194
951.37	0.196
951.54	0.197
951.71	0.198
951.88	0.199
952.06	0.200
952.23	0.201
952.40	0.202
952.57	0.204
952.74	0.205
952.92	0.206
953.09	0.207
953.26	0.208
953.43	0.209
953.60	0.210
953.77	0.211
953.95	0.212
954.12	0.214
954.29	0.215
954.46	0.217
954.63	0.218
954.81	0.218
954.98	0.219
955.15	0.222
955.32	0.223
955.49	0.223
955.66	0.224
955.84	0.226
956.01	0.226
956.18	0.228
956.35	0.229
956.52	0.230
956.69	0.232
956.87	0.231
957.04	0.232
957.21	0.234
957.38	0.235
957.55	0.236
957.72	0.237
957.89	0.238
958.07	0.238
958.24	0.240
958.41	0.242
958.58	0.241
958.75	0.242
958.92	0.243
959.09	0.243
959.26	0.244
959.44	0.244
959.61	0.246
959.78	0.246
959.95	0.248
960.12	0.248
960.29	0.250
960.46	0.250
960.63	0.250
960.81	0.251
960.98	0.252
961.15	0.252
961.32	0.253
961.49	0.252
961.66	0.254
961.83	0.255
962.00	0.254
962.17	0.255
962.34	0.255
962.52	0.256
962.69	0.257
962.86	0.257
963.03	0.257
963.20	0.258
963.37	0.257
963.54	0.257
963.71	0.257
963.88	0.257
964.05	0.258
964.22	0.259
964.39	0.257
964.56	0.257
964.74	0.258
964.91	0.258
965.08	0.259
965.25	0.259
965.42	0.260
965.59	0.261
965.76	0.261
965.93	0.262
966.10	0.260
966.27	0.261
966.44	0.261
966.61	0.263
966.78	0.262
966.95	0.261
967.12	0.263
967.29	0.264
967.46	0.264
967.63	0.263
967.80	0.264
967.97	0.263
968.14	0.263
968.32	0.264
968.49	0.264
968.66	0.263
968.83	0.264
969.00	0.264
969.17	0.264
969.34	0.265
969.51	0.266
969.68	0.265
969.85	0.265
970.02	0.265
970.19	0.266
970.36	0.266
970.53	0.266
970.70	0.264
970.87	0.264
971.04	0.263
971.21	0.264
971.38	0.264
971.55	0.264
971.72	0.264
971.89	0.265
972.06	0.263
972.23	0.264
972.40	0.264
972.57	0.263
972.74	0.263
972.91	0.264
973.07	0.264
973.24	0.263
973.41	0.264
973.58	0.263
973.75	0.276
973.92	0.264
974.09	0.264
974.26	0.264
974.43	0.263
974.60	0.264
974.77	0.265
974.94	0.265
975.11	0.266
975.28	0.266
975.45	0.264
975.62	0.265
975.79	0.266
975.96	0.265
976.13	0.264
976.30	0.265
976.47	0.263
976.64	0.263
976.80	0.263
976.97	0.263
977.14	0.263
977.31	0.263
977.48	0.264
977.65	0.263
977.82	0.261
977.99	0.262
978.16	0.262
978.33	0.263
978.50	0.262
978.67	0.263
978.83	0.262
979.00	0.262
979.17	0.262
979.34	0.261
979.51	0.261
979.68	0.262
979.85	0.261
980.02	0.262
980.19	0.260
980.36	0.261
980.52	0.262
980.69	0.260
980.86	0.261
981.03	0.260
981.20	0.259
981.37	0.260
981.54	0.260
981.71	0.259
981.88	0.260
982.04	0.260
982.21	0.259
982.38	0.261
982.55	0.260
982.72	0.259
982.89	0.260
983.06	0.259
983.22	0.258
983.39	0.258
983.56	0.258
983.73	0.257
983.90	0.256
984.07	0.258
984.24	0.256
984.40	0.256
984.57	0.254
984.74	0.256
984.91	0.257
985.08	0.255
985.25	0.253
985.41	0.254
985.58	0.254
985.75	0.255
985.92	0.254
986.09	0.253
986.26	0.252
986.42	0.252
986.59	0.250
986.76	0.252
986.93	0.252
987.10	0.252
987.27	0.250
987.43	0.249
987.60	0.251
987.77	0.250
987.94	0.248
988.11	0.249
988.27	0.249
988.44	0.249
988.61	0.248
988.78	0.246
988.95	0.246
989.11	0.248
989.28	0.246
989.45	0.245
989.62	0.245
989.79	0.245
989.95	0.244
990.12	0.246
990.29	0.246
990.46	0.244
990.62	0.242
990.79	0.243
990.96	0.243
991.13	0.244
991.30	0.242
991.46	0.242
991.63	0.241
991.80	0.240
991.97	0.241
992.13	0.241
992.30	0.242
992.47	0.240
992.64	0.240
992.80	0.240
992.97	0.240
993.14	0.238
993.31	0.234
993.47	0.237
993.64	0.235
993.81	0.234
993.98	0.235
994.14	0.234
994.31	0.233
994.48	0.234
994.64	0.234
994.81	0.232
994.98	0.232
995.15	0.230
995.31	0.230
995.48	0.230
995.65	0.232
995.82	0.229
995.98	0.229
996.15	0.230
996.32	0.232
996.48	0.230
996.65	0.230
996.82	0.228
996.99	0.229
997.15	0.228
997.32	0.229
997.49	0.227
997.65	0.228
997.82	0.227
997.99	0.225
998.15	0.226
998.32	0.228
998.49	0.227
998.65	0.227
998.82	0.226
998.99	0.224
999.15	0.224
999.32	0.223
999.49	0.223
999.65	0.223
999.82	0.220
999.99	0.221
1000.15	0.220
1000.32	0.220
1000.49	0.220
1000.65	0.218
1000.82	0.218
1000.99	0.218
1001.15	0.219
1001.32	0.217
1001.49	0.218
1001.65	0.218
1001.82	0.220
1001.99	0.217
1002.15	0.217
1002.32	0.217
1002.49	0.217
1002.65	0.216
1002.82	0.215
1002.99	0.214
1003.15	0.216
1003.32	0.215
1003.48	0.216
1003.65	0.215
1003.82	0.214
1003.98	0.211
1004.15	0.211
1004.32	0.212
1004.48	0.212
1004.65	0.212
1004.81	0.210
1004.98	0.209
1005.15	0.210
1005.31	0.209
1005.48	0.207
1005.64	0.207
1005.81	0.210
1005.98	0.206
1006.14	0.205
1006.31	0.206
1006.47	0.205
1006.64	0.203
1006.81	0.203
1006.97	0.203
1007.14	0.203
1007.30	0.204
1007.47	0.203
1007.63	0.201
1007.80	0.200
1007.97	0.199
1008.13	0.199
1008.30	0.198
1008.46	0.198
1008.63	0.197
1008.79	0.197
1008.96	0.197
1009.13	0.198
1009.29	0.195
1009.46	0.195
1009.62	0.195
1009.79	0.194
1009.95	0.195
1010.12	0.195
1010.28	0.196
1010.45	0.195
1010.62	0.195
1010.78	0.193
1010.95	0.192
1011.11	0.193
1011.28	0.192
1011.44	0.194
1011.61	0.191
1011.77	0.191
1011.94	0.191
1012.10	0.190
1012.27	0.190
1012.43	0.190
1012.60	0.188
1012.76	0.189
1012.93	0.189
1013.10	0.187
1013.26	0.185
1013.43	0.187
1013.59	0.193
1013.76	0.186
1013.92	0.184
1014.09	0.183
1014.25	0.184
1014.42	0.185
1014.58	0.184
1014.75	0.187
1014.91	0.186
1015.08	0.188
1015.24	0.184
1015.41	0.186
1015.57	0.185
1015.73	0.184
1015.90	0.182
1016.06	0.185
1016.23	0.182
1016.39	0.183
1016.56	0.182
1016.72	0.181
1016.89	0.181
1017.05	0.183
1017.22	0.180
1017.38	0.180
1017.55	0.178
1017.71	0.180
1017.88	0.179
1018.04	0.181
1018.21	0.177
1018.37	0.177
1018.53	0.177
1018.70	0.175
1018.86	0.174
1019.03	0.176
1019.19	0.174
1019.36	0.175
1019.52	0.176
1019.69	0.176
1019.85	0.175
1020.01	0.174
1020.18	0.173
1020.34	0.173
1020.51	0.173
1020.67	0.175
1020.84	0.173
1021.00	0.174
1021.16	0.171
1021.33	0.171
1021.49	0.170
1021.66	0.170
1021.82	0.169
1021.98	0.169
1022.15	0.169
1022.31	0.169
1022.48	0.168
1022.64	0.169
1022.80	0.167
1022.97	0.166
1023.13	0.165
1023.30	0.166
1023.46	0.166
1023.62	0.164
1023.79	0.164
1023.95	0.164
1024.12	0.163
1024.28	0.163
1024.44	0.163
1024.61	0.162
1024.77	0.162
1024.93	0.161
1025.10	0.162
1025.26	0.161
1025.43	0.162
1025.59	0.157
1025.75	0.161
1025.92	0.159
1026.08	0.158
1026.24	0.158
1026.41	0.159
1026.57	0.156
1026.73	0.154
1026.90	0.155
1027.06	0.153
1027.23	0.154
1027.39	0.154
1027.55	0.154
1027.72	0.153
1027.88	0.152
1028.04	0.152
1028.21	0.152
1028.37	0.147
1028.53	0.153
1028.70	0.151
1028.86	0.150
1029.02	0.150
1029.19	0.151
1029.35	0.149
1029.51	0.149
1029.67	0.149
1029.84	0.151
1030.00	0.146
1030.16	0.147
1030.33	0.150
1030.49	0.147
1030.65	0.144
1030.82	0.159
1030.98	0.146
1031.14	0.146
1031.31	0.146
1031.47	0.143
1031.63	0.145
1031.79	0.145
1031.96	0.145
1032.12	0.146
1032.28	0.144
1032.45	0.148
1032.61	0.147
1032.77	0.147
1032.93	0.145
1033.10	0.146
1033.26	0.148
1033.42	0.146
1033.58	0.148
1033.75	0.148
1033.91	0.147
1034.07	0.150
1034.24	0.147
1034.40	0.144
1034.56	0.144
1034.72	0.144
1034.89	0.144
1035.05	0.142
1035.21	0.141
1035.37	0.139
1035.54	0.143
1035.70	0.139
1035.86	0.138
1036.02	0.140
1036.19	0.138
1036.35	0.136
1036.51	0.141
1036.67	0.139
1036.83	0.138
1037.00	0.138
1037.16	0.138
1037.32	0.138
1037.48	0.137
1037.65	0.141
1037.81	0.137
1037.97	0.137
1038.13	0.137
1038.29	0.135
1038.46	0.133
1038.62	0.136
1038.78	0.135
1038.94	0.131
1039.10	0.136
1039.27	0.132
1039.43	0.134
1039.59	0.134
1039.75	0.134
1039.91	0.133
1040.08	0.134
1040.24	0.137
1040.40	0.139
1040.56	0.137
1040.72	0.132
1040.89	0.136
1041.05	0.139
1041.21	0.137
1041.37	0.135
1041.53	0.140
1041.69	0.137
1041.86	0.135
1042.02	0.132
1042.18	0.132
1042.34	0.133
1042.50	0.137
1042.66	0.132
1042.83	0.130
1042.99	0.134
1043.15	0.130
1043.31	0.132
1043.47	0.137
1043.63	0.133
1043.79	0.131
1043.96	0.132
1044.12	0.136
1044.28	0.133
1044.44	0.135
1044.60	0.130
1044.76	0.128
1044.92	0.128
1045.09	0.128
1045.25	0.125
1045.41	0.127
1045.57	0.123
1045.73	0.124
1045.89	0.125
1046.05	0.125
1046.21	0.134
1046.38	0.131
1046.54	0.135
1046.70	0.129
1046.86	0.119
>>>>>End Processed Spectral Data<<<<<
