SpectraSuite Data File
++++++++++++++++++++++++++++++++++++
Date: Mon May 20 12:13:33 CDT 2013
User: Students
Dark Spectrum Present: Yes
Reference Spectrum Present: Yes
Number of Sampled Component Spectra: 1
Spectrometers: USB4H00887
Integration Time (usec): 60000 (USB4H00887)
Spectra Averaged: 5 (USB4H00887)
Boxcar Smoothing: 5 (USB4H00887)
Correct for Electrical Dark: No (USB4H00887)
Strobe/Lamp Enabled: No (USB4H00887)
Correct for Detector Non-linearity: No (USB4H00887)
Correct for Stray Light: No (USB4H00887)
Number of Pixels in Processed Spectrum: 3648
>>>>>Begin Processed Spectral Data<<<<<
345.83	-0.074
346.05	-0.074
346.26	-0.074
346.48	-0.000
346.70	0.157
346.92	0.106
347.14	0.090
347.35	0.092
347.57	0.724
347.79	-0.333
348.01	-0.255
348.23	-0.393
348.44	-0.000
348.66	0.678
348.88	-0.539
349.10	-0.292
349.32	0.175
349.53	-0.051
349.75	-0.090
349.97	-0.078
350.19	-0.059
350.41	-0.028
350.62	0.251
350.84	-0.000
351.06	0.002
351.28	-0.026
351.50	-0.202
351.71	-0.124
351.93	-0.110
352.15	-0.016
352.37	-0.045
352.58	-0.006
352.80	0.002
353.02	0.027
353.24	0.020
353.46	0.031
353.67	-0.036
353.89	0.021
354.11	0.018
354.33	0.037
354.54	0.048
354.76	0.117
354.98	0.246
355.20	0.239
355.41	0.100
355.63	0.265
355.85	0.124
356.07	-0.000
356.28	0.111
356.50	0.173
356.72	0.064
356.94	0.176
357.15	0.237
357.37	-0.000
357.59	0.125
357.81	0.063
358.02	0.101
358.24	0.063
358.46	0.129
358.68	0.122
358.89	0.078
359.11	-0.000
359.33	0.082
359.55	-0.543
359.76	0.104
359.98	0.089
360.20	0.105
360.42	0.084
360.63	0.101
360.85	0.088
361.07	0.326
361.29	0.064
361.50	0.197
361.72	0.080
361.94	0.303
362.15	0.114
362.37	0.077
362.59	0.079
362.81	0.142
363.02	0.275
363.24	0.364
363.46	0.200
363.68	0.255
363.89	0.144
364.11	0.183
364.33	0.196
364.54	0.142
364.76	0.185
364.98	0.186
365.20	0.185
365.41	0.093
365.63	0.124
365.85	0.103
366.06	0.273
366.28	0.304
366.50	0.220
366.71	0.084
366.93	0.105
367.15	0.087
367.37	0.096
367.58	0.123
367.80	0.174
368.02	0.486
368.23	0.136
368.45	0.151
368.67	0.131
368.88	0.137
369.10	-0.000
369.32	0.185
369.53	0.114
369.75	0.183
369.97	0.497
370.19	0.225
370.40	0.097
370.62	0.273
370.84	0.115
371.05	0.726
371.27	0.139
371.49	0.172
371.70	0.170
371.92	0.192
372.14	0.094
372.35	0.101
372.57	0.117
372.79	0.243
373.00	0.071
373.22	0.102
373.44	0.100
373.65	0.093
373.87	0.111
374.09	0.426
374.30	0.119
374.52	0.126
374.74	0.104
374.95	0.435
375.17	0.112
375.39	-0.000
375.60	0.123
375.82	0.222
376.04	0.092
376.25	0.098
376.47	0.059
376.68	0.140
376.90	0.089
377.12	0.161
377.33	0.106
377.55	0.282
377.77	0.148
377.98	0.220
378.20	0.126
378.42	0.157
378.63	0.218
378.85	-0.000
379.07	0.146
379.28	0.480
379.50	0.319
379.71	0.159
379.93	0.107
380.15	0.142
380.36	0.204
380.58	0.153
380.80	0.410
381.01	0.150
381.23	0.128
381.44	0.143
381.66	0.183
381.88	0.224
382.09	-0.098
382.31	0.163
382.53	0.168
382.74	-0.000
382.96	0.243
383.17	0.197
383.39	0.244
383.61	0.309
383.82	0.203
384.04	0.228
384.25	0.274
384.47	0.239
384.69	0.217
384.90	0.211
385.12	0.490
385.33	0.322
385.55	0.246
385.77	0.382
385.98	0.200
386.20	0.279
386.41	0.241
386.63	0.266
386.85	0.224
387.06	0.284
387.28	0.461
387.49	0.263
387.71	0.188
387.93	0.156
388.14	0.466
388.36	0.208
388.57	0.191
388.79	0.215
389.01	3.241
389.22	0.293
389.44	0.253
389.65	0.204
389.87	0.206
390.08	0.260
390.30	0.211
390.52	0.434
390.73	0.398
390.95	0.268
391.16	0.246
391.38	-0.000
391.59	0.294
391.81	0.254
392.03	0.230
392.24	0.265
392.46	0.201
392.67	0.179
392.89	0.235
393.10	0.353
393.32	0.242
393.53	0.264
393.75	0.159
393.97	0.194
394.18	0.257
394.40	0.225
394.61	0.242
394.83	0.211
395.04	0.251
395.26	0.177
395.47	0.255
395.69	0.213
395.91	0.249
396.12	0.289
396.34	0.263
396.55	0.172
396.77	0.250
396.98	0.735
397.20	0.304
397.41	0.345
397.63	0.249
397.84	0.234
398.06	0.222
398.27	0.203
398.49	0.255
398.71	0.190
398.92	0.232
399.14	0.302
399.35	0.368
399.57	0.339
399.78	0.230
400.00	0.225
400.21	0.283
400.43	0.241
400.64	0.272
400.86	0.590
401.07	0.333
401.29	0.289
401.50	0.298
401.72	0.423
401.93	0.283
402.15	0.335
402.36	0.300
402.58	0.245
402.79	0.266
403.01	0.427
403.22	0.318
403.44	0.226
403.65	0.367
403.87	0.402
404.08	0.324
404.30	0.509
404.51	0.283
404.73	0.347
404.94	0.311
405.16	0.319
405.37	0.252
405.59	0.449
405.80	0.285
406.02	0.330
406.23	0.338
406.45	0.360
406.66	0.374
406.88	0.263
407.09	0.386
407.31	0.303
407.52	0.377
407.74	0.309
407.95	0.378
408.17	0.345
408.38	0.369
408.60	0.248
408.81	0.407
409.03	0.303
409.24	0.303
409.45	0.351
409.67	0.332
409.88	0.294
410.10	0.374
410.31	0.306
410.53	0.304
410.74	0.403
410.96	0.389
411.17	0.415
411.39	0.340
411.60	0.316
411.82	0.356
412.03	0.355
412.24	0.338
412.46	0.475
412.67	0.413
412.89	0.403
413.10	0.407
413.32	0.375
413.53	0.421
413.75	0.428
413.96	0.332
414.17	0.440
414.39	0.453
414.60	0.379
414.82	0.493
415.03	0.380
415.25	0.420
415.46	0.297
415.68	0.413
415.89	0.717
416.10	0.601
416.32	0.350
416.53	0.402
416.75	0.373
416.96	0.430
417.18	0.373
417.39	0.358
417.60	0.359
417.82	0.500
418.03	0.433
418.25	0.373
418.46	0.384
418.67	0.347
418.89	0.378
419.10	0.393
419.32	0.518
419.53	0.476
419.75	0.411
419.96	0.369
420.17	0.445
420.39	0.427
420.60	0.442
420.82	0.535
421.03	0.444
421.24	0.373
421.46	0.407
421.67	0.440
421.89	0.383
422.10	0.406
422.31	0.393
422.53	0.541
422.74	0.418
422.96	0.338
423.17	0.374
423.38	0.440
423.60	0.383
423.81	0.466
424.03	0.411
424.24	0.456
424.45	0.461
424.67	0.460
424.88	0.412
425.09	0.440
425.31	0.413
425.52	0.425
425.74	0.470
425.95	0.504
426.16	0.405
426.38	0.458
426.59	0.417
426.80	0.464
427.02	0.493
427.23	0.397
427.45	0.505
427.66	0.492
427.87	0.408
428.09	0.434
428.30	0.467
428.51	0.459
428.73	0.504
428.94	0.458
429.15	0.444
429.37	0.429
429.58	0.452
429.79	0.420
430.01	0.490
430.22	0.474
430.44	0.489
430.65	0.449
430.86	0.478
431.08	0.464
431.29	0.439
431.50	0.512
431.72	0.650
431.93	0.540
432.14	0.419
432.36	0.455
432.57	0.472
432.78	0.489
433.00	0.451
433.21	0.446
433.42	0.536
433.64	0.473
433.85	0.532
434.06	0.444
434.28	0.470
434.49	0.486
434.70	0.503
434.92	0.508
435.13	0.531
435.34	0.547
435.56	0.525
435.77	0.528
435.98	0.648
436.20	0.550
436.41	0.480
436.62	0.475
436.83	0.537
437.05	0.593
437.26	0.524
437.47	0.478
437.69	0.519
437.90	0.477
438.11	0.475
438.33	0.508
438.54	0.521
438.75	0.634
438.97	0.618
439.18	0.480
439.39	0.499
439.60	0.534
439.82	0.502
440.03	0.466
440.24	0.641
440.46	0.503
440.67	0.491
440.88	0.524
441.10	0.497
441.31	0.494
441.52	0.530
441.73	0.584
441.95	0.529
442.16	0.496
442.37	0.702
442.58	0.476
442.80	0.465
443.01	0.578
443.22	0.537
443.44	0.469
443.65	0.538
443.86	0.540
444.07	0.567
444.29	0.507
444.50	0.620
444.71	0.500
444.92	0.475
445.14	0.579
445.35	0.609
445.56	0.498
445.78	0.574
445.99	0.573
446.20	0.503
446.41	0.558
446.63	0.558
446.84	0.528
447.05	0.531
447.26	0.617
447.48	0.546
447.69	0.521
447.90	0.577
448.11	0.524
448.33	0.542
448.54	0.563
448.75	0.582
448.96	0.580
449.18	0.606
449.39	0.550
449.60	0.539
449.81	0.622
450.03	0.555
450.24	0.595
450.45	0.565
450.66	0.551
450.87	0.569
451.09	0.538
451.30	0.531
451.51	0.577
451.72	0.591
451.94	0.605
452.15	0.650
452.36	0.562
452.57	0.579
452.78	0.582
453.00	0.609
453.21	0.573
453.42	0.558
453.63	0.623
453.85	0.599
454.06	0.594
454.27	0.674
454.48	0.610
454.69	0.561
454.91	0.603
455.12	0.537
455.33	0.587
455.54	0.597
455.75	0.582
455.97	0.597
456.18	0.595
456.39	0.601
456.60	0.618
456.81	0.583
457.03	0.595
457.24	0.595
457.45	0.651
457.66	0.617
457.87	0.591
458.09	0.604
458.30	0.547
458.51	0.629
458.72	0.643
458.93	0.649
459.15	0.583
459.36	0.621
459.57	0.638
459.78	0.672
459.99	0.615
460.20	0.590
460.42	0.642
460.63	0.615
460.84	0.595
461.05	0.608
461.26	0.644
461.47	0.596
461.69	0.628
461.90	0.651
462.11	0.621
462.32	0.654
462.53	0.616
462.74	0.673
462.96	0.602
463.17	0.599
463.38	0.623
463.59	0.685
463.80	0.591
464.01	0.606
464.23	0.654
464.44	0.634
464.65	0.638
464.86	0.654
465.07	0.657
465.28	0.637
465.49	0.654
465.71	0.628
465.92	0.657
466.13	0.686
466.34	0.645
466.55	0.682
466.76	0.659
466.97	0.675
467.19	0.666
467.40	0.690
467.61	0.693
467.82	0.644
468.03	0.631
468.24	0.673
468.45	0.694
468.66	0.688
468.88	0.689
469.09	0.688
469.30	0.716
469.51	0.673
469.72	0.692
469.93	0.675
470.14	0.661
470.35	0.714
470.57	0.688
470.78	0.653
470.99	0.729
471.20	0.695
471.41	0.673
471.62	0.707
471.83	0.696
472.04	0.719
472.25	0.745
472.47	0.693
472.68	0.697
472.89	0.700
473.10	0.725
473.31	0.698
473.52	0.738
473.73	0.749
473.94	0.700
474.15	0.710
474.36	0.709
474.57	0.723
474.79	0.710
475.00	0.715
475.21	0.707
475.42	0.764
475.63	0.703
475.84	0.719
476.05	0.723
476.26	0.703
476.47	0.721
476.68	0.748
476.89	0.706
477.10	0.733
477.32	0.724
477.53	0.753
477.74	0.705
477.95	0.729
478.16	0.701
478.37	0.725
478.58	0.726
478.79	0.738
479.00	0.739
479.21	0.713
479.42	0.738
479.63	0.739
479.84	0.718
480.05	0.720
480.26	0.738
480.47	0.749
480.69	0.751
480.90	0.734
481.11	0.734
481.32	0.770
481.53	0.737
481.74	0.770
481.95	0.752
482.16	0.760
482.37	0.765
482.58	0.745
482.79	0.757
483.00	0.776
483.21	0.743
483.42	0.724
483.63	0.770
483.84	0.786
484.05	0.778
484.26	0.762
484.47	0.762
484.68	0.739
484.89	0.743
485.10	0.769
485.31	0.756
485.52	0.759
485.73	0.761
485.94	0.787
486.15	0.757
486.37	0.767
486.58	0.743
486.79	0.751
487.00	0.780
487.21	0.774
487.42	0.771
487.63	0.775
487.84	0.787
488.05	0.785
488.26	0.760
488.47	0.765
488.68	0.782
488.89	0.770
489.10	0.765
489.31	0.771
489.52	0.792
489.73	0.774
489.94	0.793
490.15	0.767
490.36	0.791
490.57	0.765
490.78	0.755
490.99	0.778
491.20	0.821
491.41	0.800
491.62	0.766
491.83	0.783
492.04	0.778
492.25	0.785
492.45	0.786
492.66	0.799
492.87	0.791
493.08	0.784
493.29	0.774
493.50	0.769
493.71	0.774
493.92	0.772
494.13	0.781
494.34	0.796
494.55	0.797
494.76	0.816
494.97	0.813
495.18	0.794
495.39	0.803
495.60	0.776
495.81	0.777
496.02	0.789
496.23	0.788
496.44	0.807
496.65	0.800
496.86	0.805
497.07	0.817
497.28	0.813
497.49	0.785
497.70	0.786
497.91	0.795
498.12	0.784
498.32	0.808
498.53	0.797
498.74	0.792
498.95	0.807
499.16	0.781
499.37	0.785
499.58	0.792
499.79	0.809
500.00	0.808
500.21	0.825
500.42	0.795
500.63	0.797
500.84	0.808
501.05	0.797
501.26	0.812
501.46	0.833
501.67	0.812
501.88	0.813
502.09	0.799
502.30	0.803
502.51	0.829
502.72	0.803
502.93	0.810
503.14	0.823
503.35	0.806
503.56	0.804
503.77	0.822
503.97	0.809
504.18	0.807
504.39	0.827
504.60	0.809
504.81	0.825
505.02	0.820
505.23	0.821
505.44	0.811
505.65	0.814
505.86	0.803
506.07	0.839
506.27	0.816
506.48	0.818
506.69	0.808
506.90	0.821
507.11	0.820
507.32	0.807
507.53	0.812
507.74	0.807
507.95	0.815
508.15	0.819
508.36	0.823
508.57	0.828
508.78	0.820
508.99	0.822
509.20	0.806
509.41	0.820
509.62	0.811
509.82	0.810
510.03	0.816
510.24	0.816
510.45	0.830
510.66	0.826
510.87	0.823
511.08	0.802
511.29	0.824
511.49	0.812
511.70	0.838
511.91	0.801
512.12	0.800
512.33	0.819
512.54	0.827
512.75	0.817
512.95	0.830
513.16	0.827
513.37	0.813
513.58	0.834
513.79	0.813
514.00	0.816
514.20	0.828
514.41	0.822
514.62	0.802
514.83	0.827
515.04	0.819
515.25	0.806
515.46	0.812
515.66	0.813
515.87	0.820
516.08	0.802
516.29	0.816
516.50	0.804
516.71	0.801
516.91	0.807
517.12	0.816
517.33	0.808
517.54	0.801
517.75	0.803
517.95	0.810
518.16	0.816
518.37	0.798
518.58	0.801
518.79	0.785
519.00	0.801
519.20	0.805
519.41	0.790
519.62	0.802
519.83	0.809
520.04	0.788
520.24	0.787
520.45	0.791
520.66	0.804
520.87	0.781
521.08	0.781
521.28	0.784
521.49	0.793
521.70	0.774
521.91	0.781
522.12	0.769
522.32	0.781
522.53	0.770
522.74	0.764
522.95	0.769
523.16	0.771
523.36	0.776
523.57	0.765
523.78	0.762
523.99	0.765
524.20	0.762
524.40	0.769
524.61	0.772
524.82	0.756
525.03	0.759
525.23	0.759
525.44	0.749
525.65	0.747
525.86	0.759
526.06	0.742
526.27	0.742
526.48	0.747
526.69	0.736
526.90	0.738
527.10	0.759
527.31	0.732
527.52	0.728
527.73	0.723
527.93	0.731
528.14	0.735
528.35	0.729
528.56	0.730
528.76	0.725
528.97	0.719
529.18	0.713
529.39	0.714
529.59	0.716
529.80	0.734
530.01	0.718
530.22	0.717
530.42	0.697
530.63	0.709
530.84	0.694
531.05	0.703
531.25	0.705
531.46	0.700
531.67	0.685
531.88	0.696
532.08	0.691
532.29	0.688
532.50	0.682
532.70	0.677
532.91	0.670
533.12	0.672
533.33	0.687
533.53	0.669
533.74	0.667
533.95	0.672
534.15	0.665
534.36	0.665
534.57	0.653
534.78	0.654
534.98	0.660
535.19	0.641
535.40	0.641
535.60	0.653
535.81	0.640
536.02	0.642
536.23	0.636
536.43	0.637
536.64	0.629
536.85	0.636
537.05	0.641
537.26	0.626
537.47	0.628
537.67	0.622
537.88	0.618
538.09	0.623
538.30	0.616
538.50	0.609
538.71	0.617
538.92	0.608
539.12	0.605
539.33	0.603
539.54	0.602
539.74	0.606
539.95	0.599
540.16	0.597
540.36	0.591
540.57	0.591
540.78	0.587
540.98	0.586
541.19	0.584
541.40	0.575
541.60	0.582
541.81	0.579
542.02	0.578
542.22	0.571
542.43	0.567
542.64	0.564
542.84	0.564
543.05	0.557
543.26	0.558
543.46	0.560
543.67	0.560
543.88	0.558
544.08	0.551
544.29	0.548
544.50	0.547
544.70	0.549
544.91	0.543
545.12	0.544
545.32	0.541
545.53	0.544
545.74	0.536
545.94	0.533
546.15	0.531
546.35	0.528
546.56	0.527
546.77	0.526
546.97	0.523
547.18	0.517
547.39	0.518
547.59	0.516
547.80	0.512
548.01	0.515
548.21	0.511
548.42	0.505
548.62	0.505
548.83	0.503
549.04	0.499
549.24	0.494
549.45	0.493
549.65	0.490
549.86	0.487
550.07	0.487
550.27	0.486
550.48	0.492
550.69	0.481
550.89	0.482
551.10	0.479
551.30	0.478
551.51	0.479
551.72	0.472
551.92	0.474
552.13	0.473
552.33	0.474
552.54	0.470
552.75	0.465
552.95	0.466
553.16	0.463
553.36	0.461
553.57	0.460
553.78	0.458
553.98	0.459
554.19	0.452
554.39	0.450
554.60	0.452
554.80	0.452
555.01	0.447
555.22	0.449
555.42	0.446
555.63	0.442
555.83	0.445
556.04	0.440
556.25	0.442
556.45	0.435
556.66	0.433
556.86	0.436
557.07	0.434
557.27	0.433
557.48	0.428
557.68	0.427
557.89	0.427
558.10	0.424
558.30	0.422
558.51	0.421
558.71	0.418
558.92	0.415
559.12	0.417
559.33	0.420
559.54	0.417
559.74	0.413
559.95	0.411
560.15	0.411
560.36	0.409
560.56	0.405
560.77	0.405
560.97	0.406
561.18	0.401
561.38	0.400
561.59	0.403
561.79	0.399
562.00	0.398
562.21	0.396
562.41	0.395
562.62	0.394
562.82	0.393
563.03	0.389
563.23	0.390
563.44	0.389
563.64	0.387
563.85	0.388
564.05	0.382
564.26	0.381
564.46	0.381
564.67	0.381
564.87	0.378
565.08	0.375
565.28	0.376
565.49	0.376
565.69	0.375
565.90	0.372
566.10	0.375
566.31	0.369
566.51	0.371
566.72	0.371
566.92	0.366
567.13	0.366
567.33	0.365
567.54	0.364
567.74	0.363
567.95	0.360
568.15	0.362
568.36	0.361
568.56	0.361
568.77	0.356
568.97	0.355
569.18	0.355
569.38	0.353
569.59	0.354
569.79	0.351
570.00	0.349
570.20	0.348
570.41	0.346
570.61	0.344
570.82	0.345
571.02	0.342
571.23	0.344
571.43	0.340
571.64	0.339
571.84	0.339
572.05	0.337
572.25	0.337
572.45	0.336
572.66	0.333
572.86	0.333
573.07	0.332
573.27	0.333
573.48	0.332
573.68	0.329
573.89	0.329
574.09	0.329
574.30	0.328
574.50	0.327
574.70	0.327
574.91	0.325
575.11	0.325
575.32	0.325
575.52	0.320
575.73	0.320
575.93	0.319
576.14	0.318
576.34	0.317
576.54	0.316
576.75	0.315
576.95	0.314
577.16	0.312
577.36	0.311
577.57	0.311
577.77	0.310
577.97	0.307
578.18	0.309
578.38	0.306
578.59	0.304
578.79	0.303
579.00	0.304
579.20	0.303
579.40	0.302
579.61	0.302
579.81	0.301
580.02	0.299
580.22	0.299
580.42	0.298
580.63	0.299
580.83	0.298
581.04	0.296
581.24	0.296
581.45	0.295
581.65	0.294
581.85	0.293
582.06	0.292
582.26	0.292
582.47	0.291
582.67	0.290
582.87	0.289
583.08	0.287
583.28	0.287
583.48	0.285
583.69	0.282
583.89	0.283
584.10	0.284
584.30	0.282
584.50	0.281
584.71	0.280
584.91	0.280
585.12	0.278
585.32	0.280
585.52	0.277
585.73	0.277
585.93	0.276
586.13	0.275
586.34	0.274
586.54	0.274
586.75	0.272
586.95	0.272
587.15	0.271
587.36	0.270
587.56	0.270
587.76	0.269
587.97	0.268
588.17	0.267
588.37	0.267
588.58	0.268
588.78	0.265
588.98	0.265
589.19	0.264
589.39	0.262
589.60	0.264
589.80	0.262
590.00	0.262
590.21	0.262
590.41	0.261
590.61	0.261
590.82	0.260
591.02	0.260
591.22	0.258
591.43	0.259
591.63	0.257
591.83	0.257
592.04	0.256
592.24	0.257
592.44	0.254
592.65	0.253
592.85	0.253
593.05	0.254
593.26	0.252
593.46	0.252
593.66	0.251
593.86	0.251
594.07	0.249
594.27	0.249
594.47	0.247
594.68	0.246
594.88	0.247
595.08	0.247
595.29	0.247
595.49	0.245
595.69	0.244
595.90	0.243
596.10	0.243
596.30	0.243
596.50	0.242
596.71	0.242
596.91	0.241
597.11	0.241
597.32	0.240
597.52	0.240
597.72	0.239
597.93	0.239
598.13	0.237
598.33	0.238
598.53	0.237
598.74	0.237
598.94	0.236
599.14	0.235
599.35	0.235
599.55	0.235
599.75	0.234
599.95	0.233
600.16	0.233
600.36	0.231
600.56	0.232
600.76	0.231
600.97	0.229
601.17	0.229
601.37	0.230
601.58	0.228
601.78	0.229
601.98	0.228
602.18	0.227
602.39	0.227
602.59	0.227
602.79	0.226
602.99	0.226
603.20	0.225
603.40	0.225
603.60	0.225
603.80	0.224
604.01	0.224
604.21	0.223
604.41	0.222
604.61	0.222
604.82	0.221
605.02	0.222
605.22	0.221
605.42	0.221
605.62	0.221
605.83	0.220
606.03	0.219
606.23	0.219
606.43	0.219
606.64	0.219
606.84	0.218
607.04	0.218
607.24	0.218
607.45	0.218
607.65	0.217
607.85	0.218
608.05	0.217
608.25	0.216
608.46	0.216
608.66	0.216
608.86	0.215
609.06	0.214
609.26	0.213
609.47	0.213
609.67	0.212
609.87	0.213
610.07	0.212
610.28	0.210
610.48	0.210
610.68	0.210
610.88	0.208
611.08	0.209
611.29	0.208
611.49	0.209
611.69	0.209
611.89	0.208
612.09	0.207
612.29	0.207
612.50	0.207
612.70	0.207
612.90	0.205
613.10	0.205
613.30	0.204
613.51	0.204
613.71	0.203
613.91	0.207
614.11	0.202
614.31	0.202
614.51	0.202
614.72	0.201
614.92	0.201
615.12	0.201
615.32	0.201
615.52	0.200
615.72	0.201
615.93	0.201
616.13	0.200
616.33	0.200
616.53	0.199
616.73	0.200
616.93	0.199
617.14	0.199
617.34	0.199
617.54	0.199
617.74	0.199
617.94	0.198
618.14	0.198
618.34	0.197
618.55	0.197
618.75	0.198
618.95	0.198
619.15	0.198
619.35	0.196
619.55	0.196
619.75	0.196
619.96	0.195
620.16	0.196
620.36	0.196
620.56	0.195
620.76	0.195
620.96	0.195
621.16	0.194
621.36	0.194
621.57	0.195
621.77	0.195
621.97	0.194
622.17	0.193
622.37	0.193
622.57	0.193
622.77	0.192
622.97	0.191
623.18	0.191
623.38	0.192
623.58	0.191
623.78	0.190
623.98	0.189
624.18	0.189
624.38	0.189
624.58	0.189
624.78	0.189
624.98	0.189
625.19	0.188
625.39	0.188
625.59	0.187
625.79	0.188
625.99	0.187
626.19	0.187
626.39	0.187
626.59	0.187
626.79	0.186
626.99	0.186
627.19	0.186
627.40	0.187
627.60	0.186
627.80	0.186
628.00	0.186
628.20	0.185
628.40	0.185
628.60	0.186
628.80	0.185
629.00	0.185
629.20	0.184
629.40	0.185
629.60	0.183
629.80	0.184
630.00	0.184
630.20	0.184
630.41	0.182
630.61	0.182
630.81	0.182
631.01	0.182
631.21	0.181
631.41	0.181
631.61	0.181
631.81	0.181
632.01	0.180
632.21	0.180
632.41	0.179
632.61	0.179
632.81	0.179
633.01	0.180
633.21	0.179
633.41	0.179
633.61	0.178
633.81	0.178
634.01	0.177
634.21	0.178
634.41	0.177
634.61	0.177
634.81	0.177
635.01	0.176
635.22	0.176
635.42	0.176
635.62	0.176
635.82	0.176
636.02	0.175
636.22	0.175
636.42	0.174
636.62	0.175
636.82	0.175
637.02	0.174
637.22	0.175
637.42	0.174
637.62	0.173
637.82	0.173
638.02	0.172
638.22	0.173
638.42	0.172
638.62	0.172
638.82	0.171
639.02	0.171
639.22	0.171
639.42	0.170
639.62	0.170
639.82	0.169
640.02	0.169
640.22	0.169
640.42	0.169
640.62	0.169
640.82	0.168
641.02	0.168
641.22	0.168
641.42	0.167
641.61	0.167
641.81	0.168
642.01	0.168
642.21	0.169
642.41	0.168
642.61	0.168
642.81	0.167
643.01	0.167
643.21	0.167
643.41	0.168
643.61	0.167
643.81	0.167
644.01	0.165
644.21	0.165
644.41	0.165
644.61	0.165
644.81	0.165
645.01	0.165
645.21	0.164
645.41	0.164
645.61	0.163
645.81	0.163
646.01	0.162
646.21	0.163
646.40	0.163
646.60	0.163
646.80	0.163
647.00	0.162
647.20	0.161
647.40	0.162
647.60	0.162
647.80	0.162
648.00	0.162
648.20	0.161
648.40	0.161
648.60	0.160
648.80	0.160
649.00	0.161
649.20	0.161
649.39	0.160
649.59	0.160
649.79	0.159
649.99	0.159
650.19	0.158
650.39	0.158
650.59	0.158
650.79	0.158
650.99	0.157
651.19	0.156
651.39	0.156
651.58	0.156
651.78	0.155
651.98	0.155
652.18	0.155
652.38	0.155
652.58	0.155
652.78	0.154
652.98	0.154
653.18	0.155
653.38	0.155
653.57	0.154
653.77	0.155
653.97	0.154
654.17	0.154
654.37	0.154
654.57	0.154
654.77	0.154
654.97	0.153
655.16	0.153
655.36	0.152
655.56	0.151
655.76	0.151
655.96	0.151
656.16	0.150
656.36	0.151
656.56	0.150
656.75	0.150
656.95	0.150
657.15	0.150
657.35	0.150
657.55	0.149
657.75	0.150
657.95	0.150
658.14	0.150
658.34	0.150
658.54	0.149
658.74	0.149
658.94	0.148
659.14	0.148
659.34	0.148
659.53	0.148
659.73	0.147
659.93	0.147
660.13	0.147
660.33	0.147
660.53	0.146
660.72	0.147
660.92	0.147
661.12	0.146
661.32	0.146
661.52	0.145
661.72	0.145
661.91	0.144
662.11	0.144
662.31	0.144
662.51	0.144
662.71	0.143
662.90	0.142
663.10	0.142
663.30	0.142
663.50	0.142
663.70	0.142
663.90	0.141
664.09	0.141
664.29	0.141
664.49	0.140
664.69	0.140
664.89	0.140
665.08	0.140
665.28	0.140
665.48	0.140
665.68	0.139
665.88	0.139
666.07	0.139
666.27	0.139
666.47	0.138
666.67	0.139
666.87	0.138
667.06	0.138
667.26	0.137
667.46	0.137
667.66	0.137
667.85	0.137
668.05	0.137
668.25	0.137
668.45	0.137
668.65	0.137
668.84	0.137
669.04	0.137
669.24	0.137
669.44	0.136
669.63	0.136
669.83	0.136
670.03	0.135
670.23	0.134
670.42	0.134
670.62	0.134
670.82	0.133
671.02	0.133
671.22	0.132
671.41	0.132
671.61	0.132
671.81	0.132
672.01	0.132
672.20	0.132
672.40	0.132
672.60	0.131
672.80	0.131
672.99	0.131
673.19	0.130
673.39	0.130
673.58	0.130
673.78	0.130
673.98	0.130
674.18	0.129
674.37	0.129
674.57	0.129
674.77	0.129
674.97	0.129
675.16	0.129
675.36	0.129
675.56	0.129
675.75	0.128
675.95	0.128
676.15	0.128
676.35	0.128
676.54	0.127
676.74	0.127
676.94	0.127
677.13	0.126
677.33	0.126
677.53	0.125
677.73	0.126
677.92	0.125
678.12	0.125
678.32	0.125
678.51	0.125
678.71	0.125
678.91	0.124
679.11	0.123
679.30	0.124
679.50	0.123
679.70	0.123
679.89	0.123
680.09	0.123
680.29	0.122
680.48	0.122
680.68	0.122
680.88	0.122
681.07	0.122
681.27	0.122
681.47	0.121
681.66	0.121
681.86	0.121
682.06	0.121
682.25	0.121
682.45	0.121
682.65	0.121
682.84	0.120
683.04	0.120
683.24	0.120
683.43	0.120
683.63	0.120
683.83	0.120
684.02	0.119
684.22	0.119
684.42	0.118
684.61	0.118
684.81	0.118
685.01	0.118
685.20	0.117
685.40	0.118
685.60	0.117
685.79	0.117
685.99	0.117
686.19	0.117
686.38	0.117
686.58	0.117
686.77	0.117
686.97	0.116
687.17	0.116
687.36	0.116
687.56	0.116
687.76	0.116
687.95	0.116
688.15	0.116
688.34	0.115
688.54	0.115
688.74	0.114
688.93	0.114
689.13	0.114
689.33	0.114
689.52	0.113
689.72	0.113
689.91	0.112
690.11	0.112
690.31	0.112
690.50	0.112
690.70	0.112
690.89	0.112
691.09	0.112
691.29	0.112
691.48	0.112
691.68	0.112
691.87	0.112
692.07	0.112
692.27	0.111
692.46	0.111
692.66	0.111
692.85	0.110
693.05	0.110
693.25	0.110
693.44	0.110
693.64	0.110
693.83	0.110
694.03	0.109
694.22	0.109
694.42	0.109
694.62	0.109
694.81	0.109
695.01	0.109
695.20	0.109
695.40	0.108
695.59	0.108
695.79	0.108
695.99	0.108
696.18	0.108
696.38	0.108
696.57	0.108
696.77	0.107
696.96	0.108
697.16	0.108
697.36	0.108
697.55	0.107
697.75	0.107
697.94	0.107
698.14	0.107
698.33	0.106
698.53	0.106
698.72	0.106
698.92	0.106
699.11	0.105
699.31	0.105
699.51	0.105
699.70	0.105
699.90	0.105
700.09	0.105
700.29	0.104
700.48	0.104
700.68	0.104
700.87	0.104
701.07	0.104
701.26	0.103
701.46	0.103
701.65	0.103
701.85	0.103
702.04	0.103
702.24	0.102
702.43	0.103
702.63	0.103
702.82	0.102
703.02	0.102
703.21	0.102
703.41	0.102
703.60	0.102
703.80	0.101
703.99	0.101
704.19	0.101
704.38	0.101
704.58	0.100
704.77	0.101
704.97	0.100
705.16	0.101
705.36	0.101
705.55	0.100
705.75	0.100
705.94	0.100
706.14	0.100
706.33	0.100
706.53	0.100
706.72	0.100
706.92	0.099
707.11	0.099
707.31	0.099
707.50	0.099
707.70	0.099
707.89	0.099
708.09	0.099
708.28	0.099
708.48	0.099
708.67	0.099
708.86	0.099
709.06	0.099
709.25	0.099
709.45	0.099
709.64	0.099
709.84	0.099
710.03	0.098
710.23	0.098
710.42	0.098
710.62	0.098
710.81	0.098
711.00	0.098
711.20	0.098
711.39	0.097
711.59	0.097
711.78	0.097
711.98	0.097
712.17	0.097
712.37	0.097
712.56	0.097
712.75	0.097
712.95	0.097
713.14	0.097
713.34	0.097
713.53	0.097
713.73	0.097
713.92	0.096
714.11	0.096
714.31	0.096
714.50	0.096
714.70	0.096
714.89	0.096
715.08	0.096
715.28	0.096
715.47	0.096
715.67	0.096
715.86	0.096
716.06	0.096
716.25	0.096
716.44	0.096
716.64	0.095
716.83	0.095
717.03	0.095
717.22	0.095
717.41	0.095
717.61	0.094
717.80	0.095
717.99	0.095
718.19	0.095
718.38	0.095
718.58	0.094
718.77	0.094
718.96	0.094
719.16	0.094
719.35	0.094
719.55	0.093
719.74	0.093
719.93	0.093
720.13	0.093
720.32	0.093
720.51	0.092
720.71	0.093
720.90	0.093
721.10	0.093
721.29	0.093
721.48	0.092
721.68	0.092
721.87	0.092
722.06	0.092
722.26	0.093
722.45	0.092
722.64	0.092
722.84	0.092
723.03	0.093
723.22	0.093
723.42	0.093
723.61	0.093
723.80	0.093
724.00	0.093
724.19	0.093
724.38	0.093
724.58	0.093
724.77	0.093
724.96	0.093
725.16	0.093
725.35	0.093
725.54	0.093
725.74	0.093
725.93	0.093
726.12	0.093
726.32	0.093
726.51	0.093
726.70	0.093
726.90	0.093
727.09	0.093
727.28	0.093
727.48	0.092
727.67	0.092
727.86	0.092
728.06	0.092
728.25	0.092
728.44	0.092
728.64	0.092
728.83	0.092
729.02	0.092
729.21	0.092
729.41	0.092
729.60	0.092
729.79	0.092
729.99	0.092
730.18	0.092
730.37	0.091
730.56	0.091
730.76	0.091
730.95	0.091
731.14	0.091
731.34	0.091
731.53	0.092
731.72	0.091
731.91	0.091
732.11	0.091
732.30	0.091
732.49	0.092
732.69	0.092
732.88	0.092
733.07	0.092
733.26	0.092
733.46	0.092
733.65	0.092
733.84	0.092
734.03	0.092
734.23	0.092
734.42	0.092
734.61	0.092
734.80	0.092
735.00	0.092
735.19	0.092
735.38	0.092
735.57	0.092
735.77	0.092
735.96	0.092
736.15	0.092
736.34	0.092
736.54	0.092
736.73	0.092
736.92	0.092
737.11	0.092
737.31	0.092
737.50	0.092
737.69	0.092
737.88	0.091
738.07	0.092
738.27	0.092
738.46	0.092
738.65	0.091
738.84	0.091
739.04	0.091
739.23	0.091
739.42	0.091
739.61	0.091
739.80	0.091
740.00	0.091
740.19	0.091
740.38	0.091
740.57	0.091
740.76	0.090
740.96	0.090
741.15	0.090
741.34	0.090
741.53	0.090
741.72	0.090
741.92	0.090
742.11	0.090
742.30	0.090
742.49	0.090
742.68	0.090
742.88	0.091
743.07	0.090
743.26	0.090
743.45	0.090
743.64	0.090
743.84	0.089
744.03	0.089
744.22	0.090
744.41	0.089
744.60	0.088
744.79	0.088
744.99	0.088
745.18	0.088
745.37	0.088
745.56	0.088
745.75	0.088
745.94	0.088
746.14	0.088
746.33	0.088
746.52	0.089
746.71	0.089
746.90	0.088
747.09	0.089
747.28	0.088
747.48	0.088
747.67	0.088
747.86	0.088
748.05	0.089
748.24	0.088
748.43	0.088
748.62	0.088
748.82	0.087
749.01	0.087
749.20	0.087
749.39	0.087
749.58	0.088
749.77	0.088
749.96	0.087
750.16	0.087
750.35	0.087
750.54	0.087
750.73	0.087
750.92	0.087
751.11	0.087
751.30	0.087
751.49	0.087
751.68	0.087
751.88	0.086
752.07	0.086
752.26	0.086
752.45	0.086
752.64	0.086
752.83	0.086
753.02	0.086
753.21	0.086
753.40	0.085
753.60	0.086
753.79	0.086
753.98	0.086
754.17	0.086
754.36	0.086
754.55	0.086
754.74	0.085
754.93	0.085
755.12	0.085
755.31	0.086
755.50	0.086
755.70	0.085
755.89	0.085
756.08	0.085
756.27	0.085
756.46	0.085
756.65	0.085
756.84	0.085
757.03	0.085
757.22	0.084
757.41	0.084
757.60	0.084
757.79	0.085
757.98	0.084
758.17	0.085
758.36	0.084
758.56	0.084
758.75	0.084
758.94	0.084
759.13	0.084
759.32	0.084
759.51	0.083
759.70	0.084
759.89	0.083
760.08	0.083
760.27	0.083
760.46	0.083
760.65	0.083
760.84	0.083
761.03	0.083
761.22	0.084
761.41	0.084
761.60	0.083
761.79	0.083
761.98	0.083
762.17	0.083
762.36	0.083
762.55	0.083
762.74	0.083
762.93	0.083
763.12	0.082
763.31	0.082
763.50	0.082
763.69	0.082
763.88	0.082
764.07	0.082
764.26	0.082
764.45	0.082
764.64	0.082
764.83	0.082
765.02	0.082
765.21	0.082
765.40	0.082
765.59	0.082
765.78	0.082
765.97	0.082
766.16	0.082
766.35	0.082
766.54	0.083
766.73	0.083
766.92	0.082
767.11	0.082
767.30	0.082
767.49	0.082
767.68	0.082
767.87	0.082
768.06	0.082
768.25	0.082
768.44	0.082
768.63	0.081
768.82	0.081
769.01	0.081
769.20	0.081
769.39	0.081
769.58	0.081
769.77	0.081
769.96	0.081
770.15	0.081
770.34	0.081
770.53	0.081
770.72	0.081
770.91	0.080
771.10	0.081
771.29	0.080
771.47	0.080
771.66	0.080
771.85	0.080
772.04	0.079
772.23	0.080
772.42	0.079
772.61	0.079
772.80	0.079
772.99	0.079
773.18	0.079
773.37	0.079
773.56	0.079
773.75	0.080
773.94	0.080
774.13	0.079
774.31	0.080
774.50	0.080
774.69	0.080
774.88	0.080
775.07	0.080
775.26	0.080
775.45	0.079
775.64	0.079
775.83	0.079
776.02	0.078
776.21	0.079
776.40	0.079
776.58	0.078
776.77	0.078
776.96	0.079
777.15	0.079
777.34	0.079
777.53	0.079
777.72	0.079
777.91	0.079
778.10	0.079
778.28	0.079
778.47	0.079
778.66	0.079
778.85	0.078
779.04	0.078
779.23	0.078
779.42	0.078
779.61	0.077
779.79	0.077
779.98	0.077
780.17	0.077
780.36	0.077
780.55	0.077
780.74	0.077
780.93	0.077
781.12	0.077
781.30	0.077
781.49	0.077
781.68	0.077
781.87	0.077
782.06	0.077
782.25	0.077
782.44	0.077
782.62	0.077
782.81	0.078
783.00	0.077
783.19	0.078
783.38	0.078
783.57	0.077
783.75	0.077
783.94	0.077
784.13	0.077
784.32	0.076
784.51	0.076
784.70	0.076
784.88	0.076
785.07	0.076
785.26	0.076
785.45	0.076
785.64	0.076
785.83	0.077
786.01	0.076
786.20	0.076
786.39	0.076
786.58	0.076
786.77	0.076
786.95	0.076
787.14	0.076
787.33	0.076
787.52	0.076
787.71	0.076
787.90	0.076
788.08	0.076
788.27	0.075
788.46	0.075
788.65	0.075
788.84	0.075
789.02	0.075
789.21	0.075
789.40	0.075
789.59	0.075
789.77	0.076
789.96	0.075
790.15	0.075
790.34	0.075
790.53	0.075
790.71	0.075
790.90	0.075
791.09	0.074
791.28	0.075
791.46	0.075
791.65	0.074
791.84	0.074
792.03	0.074
792.22	0.074
792.40	0.074
792.59	0.074
792.78	0.074
792.97	0.075
793.15	0.075
793.34	0.075
793.53	0.075
793.72	0.075
793.90	0.075
794.09	0.075
794.28	0.075
794.47	0.075
794.65	0.075
794.84	0.075
795.03	0.074
795.22	0.074
795.40	0.074
795.59	0.073
795.78	0.073
795.97	0.074
796.15	0.074
796.34	0.074
796.53	0.074
796.71	0.074
796.90	0.074
797.09	0.074
797.28	0.074
797.46	0.075
797.65	0.075
797.84	0.075
798.02	0.075
798.21	0.074
798.40	0.074
798.59	0.074
798.77	0.074
798.96	0.074
799.15	0.073
799.33	0.074
799.52	0.073
799.71	0.073
799.90	0.073
800.08	0.073
800.27	0.073
800.46	0.072
800.64	0.072
800.83	0.073
801.02	0.073
801.20	0.073
801.39	0.073
801.58	0.073
801.76	0.073
801.95	0.073
802.14	0.073
802.32	0.073
802.51	0.073
802.70	0.073
802.88	0.073
803.07	0.073
803.26	0.073
803.44	0.072
803.63	0.073
803.82	0.072
804.00	0.072
804.19	0.072
804.38	0.073
804.56	0.073
804.75	0.073
804.94	0.073
805.12	0.073
805.31	0.073
805.50	0.073
805.68	0.072
805.87	0.072
806.06	0.072
806.24	0.072
806.43	0.072
806.62	0.072
806.80	0.072
806.99	0.072
807.17	0.072
807.36	0.072
807.55	0.072
807.73	0.072
807.92	0.072
808.11	0.072
808.29	0.071
808.48	0.071
808.66	0.071
808.85	0.071
809.04	0.071
809.22	0.071
809.41	0.071
809.59	0.071
809.78	0.071
809.97	0.071
810.15	0.071
810.34	0.071
810.53	0.071
810.71	0.071
810.90	0.072
811.08	0.071
811.27	0.071
811.45	0.071
811.64	0.071
811.83	0.071
812.01	0.071
812.20	0.071
812.38	0.071
812.57	0.071
812.76	0.071
812.94	0.071
813.13	0.071
813.31	0.071
813.50	0.071
813.68	0.071
813.87	0.071
814.06	0.071
814.24	0.071
814.43	0.071
814.61	0.071
814.80	0.071
814.98	0.071
815.17	0.071
815.36	0.071
815.54	0.071
815.73	0.071
815.91	0.071
816.10	0.071
816.28	0.071
816.47	0.071
816.65	0.071
816.84	0.071
817.03	0.072
817.21	0.072
817.40	0.072
817.58	0.071
817.77	0.071
817.95	0.071
818.14	0.071
818.32	0.071
818.51	0.071
818.69	0.072
818.88	0.071
819.06	0.071
819.25	0.071
819.43	0.071
819.62	0.071
819.80	0.071
819.99	0.072
820.18	0.072
820.36	0.072
820.55	0.072
820.73	0.072
820.92	0.072
821.10	0.072
821.29	0.072
821.47	0.072
821.66	0.072
821.84	0.072
822.03	0.072
822.21	0.072
822.40	0.071
822.58	0.072
822.77	0.072
822.95	0.072
823.14	0.072
823.32	0.072
823.50	0.072
823.69	0.072
823.87	0.072
824.06	0.072
824.24	0.073
824.43	0.073
824.61	0.072
824.80	0.073
824.98	0.073
825.17	0.073
825.35	0.073
825.54	0.073
825.72	0.073
825.91	0.073
826.09	0.073
826.28	0.073
826.46	0.074
826.64	0.074
826.83	0.074
827.01	0.074
827.20	0.073
827.38	0.073
827.57	0.074
827.75	0.074
827.94	0.074
828.12	0.074
828.31	0.074
828.49	0.074
828.67	0.074
828.86	0.074
829.04	0.074
829.23	0.075
829.41	0.075
829.60	0.075
829.78	0.076
829.96	0.076
830.15	0.076
830.33	0.076
830.52	0.076
830.70	0.076
830.88	0.076
831.07	0.076
831.25	0.076
831.44	0.076
831.62	0.076
831.81	0.076
831.99	0.076
832.17	0.076
832.36	0.076
832.54	0.076
832.73	0.076
832.91	0.076
833.09	0.076
833.28	0.076
833.46	0.076
833.65	0.076
833.83	0.076
834.01	0.076
834.20	0.076
834.38	0.076
834.56	0.077
834.75	0.077
834.93	0.077
835.12	0.077
835.30	0.077
835.48	0.077
835.67	0.077
835.85	0.077
836.03	0.077
836.22	0.077
836.40	0.077
836.59	0.077
836.77	0.077
836.95	0.077
837.14	0.077
837.32	0.077
837.50	0.077
837.69	0.077
837.87	0.077
838.05	0.078
838.24	0.078
838.42	0.078
838.60	0.078
838.79	0.079
838.97	0.078
839.15	0.078
839.34	0.079
839.52	0.079
839.70	0.079
839.89	0.079
840.07	0.079
840.25	0.079
840.44	0.078
840.62	0.078
840.80	0.078
840.99	0.079
841.17	0.078
841.35	0.078
841.54	0.078
841.72	0.079
841.90	0.078
842.09	0.078
842.27	0.079
842.45	0.079
842.64	0.079
842.82	0.079
843.00	0.079
843.19	0.079
843.37	0.078
843.55	0.078
843.73	0.078
843.92	0.078
844.10	0.078
844.28	0.078
844.47	0.078
844.65	0.078
844.83	0.078
845.01	0.079
845.20	0.079
845.38	0.079
845.56	0.079
845.75	0.079
845.93	0.079
846.11	0.079
846.29	0.079
846.48	0.079
846.66	0.079
846.84	0.079
847.02	0.079
847.21	0.079
847.39	0.079
847.57	0.079
847.76	0.079
847.94	0.079
848.12	0.079
848.30	0.079
848.49	0.079
848.67	0.079
848.85	0.079
849.03	0.080
849.22	0.080
849.40	0.080
849.58	0.080
849.76	0.080
849.95	0.080
850.13	0.080
850.31	0.080
850.49	0.080
850.67	0.080
850.86	0.080
851.04	0.080
851.22	0.080
851.40	0.080
851.59	0.080
851.77	0.080
851.95	0.080
852.13	0.080
852.31	0.080
852.50	0.080
852.68	0.080
852.86	0.080
853.04	0.080
853.23	0.080
853.41	0.080
853.59	0.080
853.77	0.079
853.95	0.079
854.14	0.079
854.32	0.079
854.50	0.079
854.68	0.079
854.86	0.079
855.04	0.079
855.23	0.079
855.41	0.080
855.59	0.080
855.77	0.080
855.95	0.080
856.14	0.080
856.32	0.080
856.50	0.079
856.68	0.080
856.86	0.080
857.04	0.079
857.23	0.079
857.41	0.079
857.59	0.079
857.77	0.079
857.95	0.079
858.13	0.079
858.32	0.079
858.50	0.080
858.68	0.079
858.86	0.079
859.04	0.080
859.22	0.080
859.41	0.080
859.59	0.080
859.77	0.080
859.95	0.080
860.13	0.080
860.31	0.080
860.49	0.080
860.68	0.080
860.86	0.081
861.04	0.080
861.22	0.080
861.40	0.080
861.58	0.080
861.76	0.080
861.94	0.080
862.13	0.080
862.31	0.080
862.49	0.081
862.67	0.081
862.85	0.081
863.03	0.081
863.21	0.081
863.39	0.081
863.57	0.081
863.76	0.081
863.94	0.081
864.12	0.081
864.30	0.081
864.48	0.081
864.66	0.081
864.84	0.082
865.02	0.082
865.20	0.082
865.38	0.081
865.57	0.081
865.75	0.082
865.93	0.082
866.11	0.082
866.29	0.082
866.47	0.082
866.65	0.082
866.83	0.082
867.01	0.082
867.19	0.082
867.37	0.082
867.55	0.082
867.73	0.082
867.92	0.082
868.10	0.082
868.28	0.082
868.46	0.082
868.64	0.082
868.82	0.082
869.00	0.082
869.18	0.082
869.36	0.082
869.54	0.082
869.72	0.082
869.90	0.082
870.08	0.082
870.26	0.082
870.44	0.082
870.62	0.081
870.80	0.081
870.98	0.082
871.16	0.082
871.34	0.082
871.53	0.081
871.71	0.081
871.89	0.081
872.07	0.081
872.25	0.082
872.43	0.082
872.61	0.082
872.79	0.082
872.97	0.083
873.15	0.083
873.33	0.083
873.51	0.083
873.69	0.084
873.87	0.084
874.05	0.084
874.23	0.084
874.41	0.084
874.59	0.084
874.77	0.084
874.95	0.083
875.13	0.083
875.31	0.083
875.49	0.083
875.67	0.083
875.85	0.083
876.03	0.083
876.21	0.083
876.39	0.083
876.57	0.083
876.75	0.084
876.93	0.083
877.11	0.084
877.29	0.083
877.47	0.083
877.65	0.084
877.82	0.084
878.00	0.083
878.18	0.084
878.36	0.083
878.54	0.084
878.72	0.083
878.90	0.083
879.08	0.083
879.26	0.084
879.44	0.084
879.62	0.084
879.80	0.084
879.98	0.084
880.16	0.084
880.34	0.084
880.52	0.084
880.70	0.084
880.88	0.084
881.06	0.084
881.24	0.084
881.42	0.084
881.59	0.084
881.77	0.083
881.95	0.083
882.13	0.083
882.31	0.083
882.49	0.083
882.67	0.083
882.85	0.083
883.03	0.083
883.21	0.084
883.39	0.083
883.57	0.084
883.75	0.084
883.92	0.084
884.10	0.085
884.28	0.085
884.46	0.085
884.64	0.085
884.82	0.085
885.00	0.085
885.18	0.085
885.36	0.086
885.54	0.086
885.71	0.086
885.89	0.086
886.07	0.086
886.25	0.086
886.43	0.086
886.61	0.086
886.79	0.086
886.97	0.086
887.15	0.086
887.32	0.086
887.50	0.086
887.68	0.086
887.86	0.086
888.04	0.086
888.22	0.086
888.40	0.086
888.57	0.086
888.75	0.086
888.93	0.086
889.11	0.086
889.29	0.087
889.47	0.087
889.65	0.087
889.82	0.087
890.00	0.087
890.18	0.087
890.36	0.087
890.54	0.087
890.72	0.087
890.90	0.087
891.07	0.087
891.25	0.086
891.43	0.086
891.61	0.087
891.79	0.087
891.97	0.086
892.14	0.086
892.32	0.086
892.50	0.086
892.68	0.086
892.86	0.087
893.03	0.087
893.21	0.087
893.39	0.087
893.57	0.087
893.75	0.087
893.93	0.087
894.10	0.087
894.28	0.087
894.46	0.087
894.64	0.087
894.82	0.087
894.99	0.087
895.17	0.087
895.35	0.087
895.53	0.087
895.71	0.087
895.88	0.088
896.06	0.088
896.24	0.088
896.42	0.088
896.59	0.088
896.77	0.088
896.95	0.088
897.13	0.088
897.31	0.089
897.48	0.089
897.66	0.089
897.84	0.089
898.02	0.089
898.19	0.089
898.37	0.089
898.55	0.089
898.73	0.089
898.91	0.089
899.08	0.089
899.26	0.089
899.44	0.089
899.62	0.089
899.79	0.089
899.97	0.089
900.15	0.089
900.33	0.089
900.50	0.089
900.68	0.089
900.86	0.089
901.04	0.089
901.21	0.089
901.39	0.089
901.57	0.090
901.74	0.089
901.92	0.089
902.10	0.089
902.28	0.089
902.45	0.089
902.63	0.089
902.81	0.089
902.99	0.090
903.16	0.090
903.34	0.090
903.52	0.089
903.69	0.089
903.87	0.090
904.05	0.090
904.22	0.090
904.40	0.090
904.58	0.090
904.76	0.090
904.93	0.090
905.11	0.090
905.29	0.091
905.46	0.090
905.64	0.091
905.82	0.091
905.99	0.090
906.17	0.090
906.35	0.090
906.53	0.091
906.70	0.091
906.88	0.091
907.06	0.091
907.23	0.091
907.41	0.091
907.59	0.091
907.76	0.091
907.94	0.092
908.12	0.092
908.29	0.092
908.47	0.092
908.65	0.092
908.82	0.092
909.00	0.092
909.18	0.092
909.35	0.092
909.53	0.092
909.71	0.092
909.88	0.092
910.06	0.092
910.23	0.092
910.41	0.093
910.59	0.093
910.76	0.092
910.94	0.092
911.12	0.092
911.29	0.092
911.47	0.093
911.65	0.093
911.82	0.093
912.00	0.093
912.17	0.093
912.35	0.094
912.53	0.094
912.70	0.094
912.88	0.094
913.06	0.095
913.23	0.095
913.41	0.095
913.58	0.095
913.76	0.095
913.94	0.095
914.11	0.095
914.29	0.095
914.46	0.095
914.64	0.095
914.82	0.095
914.99	0.095
915.17	0.095
915.34	0.095
915.52	0.095
915.70	0.095
915.87	0.095
916.05	0.095
916.22	0.095
916.40	0.095
916.57	0.096
916.75	0.096
916.93	0.096
917.10	0.096
917.28	0.096
917.45	0.096
917.63	0.096
917.80	0.096
917.98	0.096
918.16	0.096
918.33	0.097
918.51	0.097
918.68	0.097
918.86	0.097
919.03	0.097
919.21	0.098
919.39	0.098
919.56	0.099
919.74	0.099
919.91	0.099
920.09	0.099
920.26	0.099
920.44	0.099
920.61	0.099
920.79	0.099
920.96	0.099
921.14	0.099
921.31	0.100
921.49	0.100
921.67	0.100
921.84	0.101
922.02	0.101
922.19	0.101
922.37	0.101
922.54	0.101
922.72	0.102
922.89	0.102
923.07	0.103
923.24	0.103
923.42	0.103
923.59	0.103
923.77	0.103
923.94	0.104
924.12	0.104
924.29	0.105
924.47	0.105
924.64	0.105
924.82	0.105
924.99	0.106
925.17	0.106
925.34	0.106
925.52	0.106
925.69	0.107
925.87	0.107
926.04	0.107
926.22	0.107
926.39	0.107
926.57	0.108
926.74	0.108
926.91	0.108
927.09	0.109
927.26	0.108
927.44	0.109
927.61	0.110
927.79	0.110
927.96	0.110
928.14	0.111
928.31	0.111
928.49	0.111
928.66	0.112
928.84	0.113
929.01	0.112
929.18	0.113
929.36	0.114
929.53	0.114
929.71	0.115
929.88	0.115
930.06	0.115
930.23	0.116
930.41	0.116
930.58	0.117
930.75	0.117
930.93	0.118
931.10	0.117
931.28	0.118
931.45	0.119
931.63	0.119
931.80	0.119
931.97	0.120
932.15	0.120
932.32	0.120
932.50	0.121
932.67	0.121
932.84	0.122
933.02	0.123
933.19	0.123
933.37	0.123
933.54	0.124
933.71	0.124
933.89	0.125
934.06	0.125
934.24	0.126
934.41	0.126
934.58	0.127
934.76	0.127
934.93	0.128
935.11	0.128
935.28	0.128
935.45	0.129
935.63	0.129
935.80	0.130
935.98	0.130
936.15	0.130
936.32	0.131
936.50	0.131
936.67	0.132
936.84	0.132
937.02	0.133
937.19	0.134
937.36	0.134
937.54	0.134
937.71	0.135
937.89	0.135
938.06	0.136
938.23	0.137
938.41	0.138
938.58	0.138
938.75	0.138
938.93	0.139
939.10	0.139
939.27	0.139
939.45	0.141
939.62	0.141
939.79	0.142
939.97	0.142
940.14	0.143
940.31	0.143
940.49	0.144
940.66	0.144
940.83	0.145
941.01	0.146
941.18	0.147
941.35	0.148
941.53	0.148
941.70	0.149
941.87	0.149
942.05	0.150
942.22	0.151
942.39	0.152
942.57	0.152
942.74	0.153
942.91	0.153
943.08	0.154
943.26	0.154
943.43	0.155
943.60	0.156
943.78	0.156
943.95	0.157
944.12	0.157
944.29	0.158
944.47	0.159
944.64	0.159
944.81	0.161
944.99	0.161
945.16	0.162
945.33	0.163
945.50	0.164
945.68	0.165
945.85	0.165
946.02	0.167
946.20	0.167
946.37	0.168
946.54	0.169
946.71	0.170
946.89	0.170
947.06	0.170
947.23	0.171
947.40	0.173
947.58	0.173
947.75	0.174
947.92	0.175
948.09	0.175
948.27	0.176
948.44	0.178
948.61	0.179
948.78	0.180
948.96	0.181
949.13	0.182
949.30	0.183
949.47	0.184
949.65	0.185
949.82	0.187
949.99	0.187
950.16	0.189
950.33	0.190
950.51	0.191
950.68	0.192
950.85	0.193
951.02	0.194
951.20	0.195
951.37	0.197
951.54	0.198
951.71	0.199
951.88	0.200
952.06	0.201
952.23	0.202
952.40	0.204
952.57	0.205
952.74	0.206
952.92	0.207
953.09	0.209
953.26	0.210
953.43	0.211
953.60	0.212
953.77	0.213
953.95	0.214
954.12	0.216
954.29	0.216
954.46	0.219
954.63	0.220
954.81	0.221
954.98	0.221
955.15	0.224
955.32	0.225
955.49	0.225
955.66	0.226
955.84	0.228
956.01	0.228
956.18	0.230
956.35	0.232
956.52	0.231
956.69	0.233
956.87	0.233
957.04	0.234
957.21	0.237
957.38	0.237
957.55	0.238
957.72	0.239
957.89	0.240
958.07	0.239
958.24	0.242
958.41	0.244
958.58	0.243
958.75	0.244
958.92	0.245
959.09	0.246
959.26	0.246
959.44	0.247
959.61	0.248
959.78	0.249
959.95	0.250
960.12	0.250
960.29	0.252
960.46	0.251
960.63	0.252
960.81	0.252
960.98	0.253
961.15	0.254
961.32	0.254
961.49	0.254
961.66	0.255
961.83	0.256
962.00	0.256
962.17	0.257
962.34	0.257
962.52	0.257
962.69	0.258
962.86	0.258
963.03	0.259
963.20	0.260
963.37	0.259
963.54	0.260
963.71	0.260
963.88	0.259
964.05	0.260
964.22	0.261
964.39	0.260
964.56	0.260
964.74	0.261
964.91	0.261
965.08	0.261
965.25	0.261
965.42	0.261
965.59	0.262
965.76	0.262
965.93	0.263
966.10	0.262
966.27	0.263
966.44	0.262
966.61	0.263
966.78	0.262
966.95	0.262
967.12	0.263
967.29	0.265
967.46	0.265
967.63	0.264
967.80	0.266
967.97	0.265
968.14	0.265
968.32	0.266
968.49	0.267
968.66	0.266
968.83	0.267
969.00	0.267
969.17	0.267
969.34	0.267
969.51	0.268
969.68	0.267
969.85	0.267
970.02	0.267
970.19	0.267
970.36	0.267
970.53	0.268
970.70	0.266
970.87	0.266
971.04	0.265
971.21	0.267
971.38	0.266
971.55	0.267
971.72	0.266
971.89	0.267
972.06	0.267
972.23	0.267
972.40	0.267
972.57	0.266
972.74	0.266
972.91	0.268
973.07	0.268
973.24	0.267
973.41	0.267
973.58	0.266
973.75	0.279
973.92	0.267
974.09	0.266
974.26	0.266
974.43	0.265
974.60	0.266
974.77	0.266
974.94	0.265
975.11	0.266
975.28	0.267
975.45	0.265
975.62	0.266
975.79	0.267
975.96	0.266
976.13	0.265
976.30	0.267
976.47	0.265
976.64	0.266
976.80	0.267
976.97	0.266
977.14	0.266
977.31	0.266
977.48	0.266
977.65	0.266
977.82	0.265
977.99	0.267
978.16	0.266
978.33	0.266
978.50	0.264
978.67	0.264
978.83	0.264
979.00	0.264
979.17	0.264
979.34	0.264
979.51	0.263
979.68	0.264
979.85	0.263
980.02	0.264
980.19	0.262
980.36	0.263
980.52	0.265
980.69	0.263
980.86	0.263
981.03	0.263
981.20	0.261
981.37	0.262
981.54	0.262
981.71	0.260
981.88	0.262
982.04	0.261
982.21	0.260
982.38	0.261
982.55	0.260
982.72	0.259
982.89	0.260
983.06	0.259
983.22	0.258
983.39	0.259
983.56	0.259
983.73	0.258
983.90	0.258
984.07	0.259
984.24	0.258
984.40	0.258
984.57	0.256
984.74	0.259
984.91	0.259
985.08	0.257
985.25	0.254
985.41	0.255
985.58	0.255
985.75	0.257
985.92	0.255
986.09	0.255
986.26	0.254
986.42	0.253
986.59	0.252
986.76	0.254
986.93	0.255
987.10	0.255
987.27	0.252
987.43	0.250
987.60	0.252
987.77	0.251
987.94	0.250
988.11	0.251
988.27	0.251
988.44	0.250
988.61	0.249
988.78	0.247
988.95	0.248
989.11	0.250
989.28	0.248
989.45	0.247
989.62	0.247
989.79	0.247
989.95	0.246
990.12	0.247
990.29	0.247
990.46	0.245
990.62	0.244
990.79	0.244
990.96	0.244
991.13	0.245
991.30	0.244
991.46	0.243
991.63	0.242
991.80	0.241
991.97	0.241
992.13	0.241
992.30	0.243
992.47	0.240
992.64	0.241
992.80	0.240
992.97	0.241
993.14	0.238
993.31	0.236
993.47	0.239
993.64	0.236
993.81	0.236
993.98	0.237
994.14	0.235
994.31	0.235
994.48	0.236
994.64	0.236
994.81	0.235
994.98	0.235
995.15	0.233
995.31	0.233
995.48	0.232
995.65	0.235
995.82	0.232
995.98	0.231
996.15	0.232
996.32	0.233
996.48	0.231
996.65	0.230
996.82	0.228
996.99	0.229
997.15	0.229
997.32	0.230
997.49	0.228
997.65	0.228
997.82	0.227
997.99	0.225
998.15	0.226
998.32	0.228
998.49	0.227
998.65	0.227
998.82	0.226
998.99	0.224
999.15	0.224
999.32	0.224
999.49	0.224
999.65	0.225
999.82	0.223
999.99	0.223
1000.15	0.223
1000.32	0.223
1000.49	0.223
1000.65	0.221
1000.82	0.221
1000.99	0.222
1001.15	0.221
1001.32	0.220
1001.49	0.220
1001.65	0.220
1001.82	0.222
1001.99	0.219
1002.15	0.218
1002.32	0.218
1002.49	0.218
1002.65	0.217
1002.82	0.216
1002.99	0.215
1003.15	0.217
1003.32	0.216
1003.48	0.216
1003.65	0.215
1003.82	0.214
1003.98	0.211
1004.15	0.211
1004.32	0.211
1004.48	0.211
1004.65	0.213
1004.81	0.210
1004.98	0.209
1005.15	0.210
1005.31	0.210
1005.48	0.208
1005.64	0.208
1005.81	0.211
1005.98	0.208
1006.14	0.208
1006.31	0.208
1006.47	0.207
1006.64	0.205
1006.81	0.206
1006.97	0.206
1007.14	0.206
1007.30	0.207
1007.47	0.207
1007.63	0.204
1007.80	0.202
1007.97	0.202
1008.13	0.202
1008.30	0.202
1008.46	0.202
1008.63	0.199
1008.79	0.200
1008.96	0.200
1009.13	0.202
1009.29	0.199
1009.46	0.199
1009.62	0.199
1009.79	0.198
1009.95	0.198
1010.12	0.199
1010.28	0.199
1010.45	0.198
1010.62	0.197
1010.78	0.196
1010.95	0.194
1011.11	0.195
1011.28	0.194
1011.44	0.196
1011.61	0.194
1011.77	0.194
1011.94	0.193
1012.10	0.193
1012.27	0.192
1012.43	0.193
1012.60	0.192
1012.76	0.192
1012.93	0.191
1013.10	0.189
1013.26	0.187
1013.43	0.188
1013.59	0.196
1013.76	0.188
1013.92	0.188
1014.09	0.186
1014.25	0.187
1014.42	0.187
1014.58	0.188
1014.75	0.190
1014.91	0.189
1015.08	0.191
1015.24	0.187
1015.41	0.188
1015.57	0.188
1015.73	0.186
1015.90	0.185
1016.06	0.186
1016.23	0.185
1016.39	0.185
1016.56	0.184
1016.72	0.183
1016.89	0.183
1017.05	0.185
1017.22	0.182
1017.38	0.183
1017.55	0.181
1017.71	0.182
1017.88	0.182
1018.04	0.181
1018.21	0.179
1018.37	0.179
1018.53	0.179
1018.70	0.177
1018.86	0.176
1019.03	0.178
1019.19	0.176
1019.36	0.175
1019.52	0.177
1019.69	0.177
1019.85	0.176
1020.01	0.176
1020.18	0.174
1020.34	0.175
1020.51	0.174
1020.67	0.175
1020.84	0.174
1021.00	0.176
1021.16	0.173
1021.33	0.174
1021.49	0.173
1021.66	0.175
1021.82	0.172
1021.98	0.174
1022.15	0.173
1022.31	0.172
1022.48	0.171
1022.64	0.173
1022.80	0.170
1022.97	0.168
1023.13	0.167
1023.30	0.167
1023.46	0.168
1023.62	0.166
1023.79	0.167
1023.95	0.167
1024.12	0.166
1024.28	0.164
1024.44	0.164
1024.61	0.163
1024.77	0.163
1024.93	0.163
1025.10	0.164
1025.26	0.161
1025.43	0.161
1025.59	0.156
1025.75	0.160
1025.92	0.159
1026.08	0.159
1026.24	0.159
1026.41	0.161
1026.57	0.158
1026.73	0.157
1026.90	0.159
1027.06	0.158
1027.23	0.159
1027.39	0.160
1027.55	0.160
1027.72	0.159
1027.88	0.159
1028.04	0.159
1028.21	0.160
1028.37	0.154
1028.53	0.158
1028.70	0.157
1028.86	0.154
1029.02	0.154
1029.19	0.155
1029.35	0.153
1029.51	0.152
1029.67	0.152
1029.84	0.153
1030.00	0.148
1030.16	0.149
1030.33	0.152
1030.49	0.149
1030.65	0.146
1030.82	0.162
1030.98	0.149
1031.14	0.149
1031.31	0.149
1031.47	0.146
1031.63	0.148
1031.79	0.146
1031.96	0.148
1032.12	0.148
1032.28	0.146
1032.45	0.150
1032.61	0.149
1032.77	0.147
1032.93	0.145
1033.10	0.146
1033.26	0.149
1033.42	0.147
1033.58	0.148
1033.75	0.150
1033.91	0.148
1034.07	0.149
1034.24	0.147
1034.40	0.145
1034.56	0.145
1034.72	0.146
1034.89	0.145
1035.05	0.142
1035.21	0.142
1035.37	0.141
1035.54	0.143
1035.70	0.141
1035.86	0.140
1036.02	0.143
1036.19	0.142
1036.35	0.141
1036.51	0.145
1036.67	0.143
1036.83	0.143
1037.00	0.141
1037.16	0.140
1037.32	0.142
1037.48	0.141
1037.65	0.147
1037.81	0.141
1037.97	0.141
1038.13	0.141
1038.29	0.138
1038.46	0.135
1038.62	0.139
1038.78	0.138
1038.94	0.135
1039.10	0.139
1039.27	0.135
1039.43	0.136
1039.59	0.136
1039.75	0.135
1039.91	0.133
1040.08	0.134
1040.24	0.137
1040.40	0.138
1040.56	0.136
1040.72	0.131
1040.89	0.134
1041.05	0.136
1041.21	0.135
1041.37	0.133
1041.53	0.139
1041.69	0.137
1041.86	0.135
1042.02	0.131
1042.18	0.131
1042.34	0.132
1042.50	0.137
1042.66	0.134
1042.83	0.133
1042.99	0.136
1043.15	0.132
1043.31	0.133
1043.47	0.137
1043.63	0.133
1043.79	0.134
1043.96	0.136
1044.12	0.139
1044.28	0.135
1044.44	0.138
1044.60	0.132
1044.76	0.131
1044.92	0.133
1045.09	0.134
1045.25	0.131
1045.41	0.136
1045.57	0.130
1045.73	0.130
1045.89	0.131
1046.05	0.134
1046.21	0.160
1046.38	0.129
1046.54	0.134
1046.70	0.131
1046.86	0.133
>>>>>End Processed Spectral Data<<<<<
