SpectraSuite Data File
++++++++++++++++++++++++++++++++++++
Date: Mon May 20 12:11:44 CDT 2013
User: Students
Dark Spectrum Present: Yes
Reference Spectrum Present: Yes
Number of Sampled Component Spectra: 1
Spectrometers: USB4H00887
Integration Time (usec): 60000 (USB4H00887)
Spectra Averaged: 5 (USB4H00887)
Boxcar Smoothing: 5 (USB4H00887)
Correct for Electrical Dark: No (USB4H00887)
Strobe/Lamp Enabled: No (USB4H00887)
Correct for Detector Non-linearity: No (USB4H00887)
Correct for Stray Light: No (USB4H00887)
Number of Pixels in Processed Spectrum: 3648
>>>>>Begin Processed Spectral Data<<<<<
345.83	-0.178
346.05	-0.178
346.26	-0.178
346.48	-0.000
346.70	-0.000
346.92	0.114
347.14	0.101
347.35	0.092
347.57	0.602
347.79	-0.300
348.01	-0.235
348.23	-0.375
348.44	-0.000
348.66	0.336
348.88	-0.424
349.10	-0.159
349.32	0.071
349.53	0.008
349.75	0.051
349.97	0.019
350.19	0.022
350.41	-0.015
350.62	0.164
350.84	-0.000
351.06	0.012
351.28	-0.029
351.50	-0.191
351.71	-0.140
351.93	-0.093
352.15	-0.024
352.37	-0.063
352.58	0.006
352.80	0.030
353.02	0.058
353.24	0.058
353.46	0.188
353.67	-0.154
353.89	0.051
354.11	0.059
354.33	0.071
354.54	0.131
354.76	0.275
354.98	0.510
355.20	0.390
355.41	0.150
355.63	0.332
355.85	0.122
356.07	-0.000
356.28	0.111
356.50	0.229
356.72	0.081
356.94	0.189
357.15	0.260
357.37	-0.000
357.59	0.117
357.81	0.056
358.02	0.096
358.24	0.101
358.46	0.239
358.68	0.196
358.89	0.096
359.11	-0.000
359.33	0.105
359.55	-0.578
359.76	0.115
359.98	0.126
360.20	0.154
360.42	0.135
360.63	0.145
360.85	0.091
361.07	0.394
361.29	0.063
361.50	0.157
361.72	0.079
361.94	0.314
362.15	0.146
362.37	0.103
362.59	0.089
362.81	0.136
363.02	0.201
363.24	0.323
363.46	0.206
363.68	0.285
363.89	0.172
364.11	0.207
364.33	0.269
364.54	0.171
364.76	0.174
364.98	0.187
365.20	0.207
365.41	0.127
365.63	0.157
365.85	0.108
366.06	0.329
366.28	0.340
366.50	0.242
366.71	0.077
366.93	0.093
367.15	0.110
367.37	0.113
367.58	0.163
367.80	0.187
368.02	0.562
368.23	0.147
368.45	0.140
368.67	0.127
368.88	0.126
369.10	-0.000
369.32	0.154
369.53	0.092
369.75	0.126
369.97	0.281
370.19	0.168
370.40	0.067
370.62	0.221
370.84	0.083
371.05	0.468
371.27	0.124
371.49	0.149
371.70	0.169
371.92	0.249
372.14	0.112
372.35	0.124
372.57	0.146
372.79	0.407
373.00	0.079
373.22	0.139
373.44	0.104
373.65	0.096
373.87	0.141
374.09	0.453
374.30	0.099
374.52	0.116
374.74	0.076
374.95	0.253
375.17	0.079
375.39	-0.000
375.60	0.095
375.82	0.201
376.04	0.060
376.25	0.056
376.47	0.039
376.68	0.088
376.90	0.060
377.12	0.140
377.33	0.119
377.55	0.295
377.77	0.157
377.98	0.233
378.20	0.131
378.42	0.171
378.63	0.228
378.85	-0.000
379.07	0.156
379.28	0.689
379.50	0.344
379.71	0.159
379.93	0.116
380.15	0.164
380.36	0.252
380.58	0.176
380.80	0.593
381.01	0.173
381.23	0.145
381.44	0.175
381.66	0.192
381.88	0.242
382.09	-0.102
382.31	0.168
382.53	0.178
382.74	-0.000
382.96	0.245
383.17	0.196
383.39	0.256
383.61	0.343
383.82	0.221
384.04	0.261
384.25	0.312
384.47	0.286
384.69	0.252
384.90	0.236
385.12	0.485
385.33	0.322
385.55	0.231
385.77	0.367
385.98	0.179
386.20	0.252
386.41	0.219
386.63	0.259
386.85	0.201
387.06	0.253
387.28	0.391
387.49	0.273
387.71	0.185
387.93	0.165
388.14	0.513
388.36	0.217
388.57	0.201
388.79	0.230
389.01	-0.000
389.22	0.311
389.44	0.259
389.65	0.216
389.87	0.204
390.08	0.263
390.30	0.210
390.52	0.418
390.73	0.420
390.95	0.275
391.16	0.269
391.38	-0.000
391.59	0.301
391.81	0.271
392.03	0.248
392.24	0.307
392.46	0.248
392.67	0.215
392.89	0.299
393.10	0.459
393.32	0.325
393.53	0.351
393.75	0.223
393.97	0.251
394.18	0.324
394.40	0.267
394.61	0.268
394.83	0.233
395.04	0.270
395.26	0.177
395.47	0.263
395.69	0.201
395.91	0.220
396.12	0.276
396.34	0.279
396.55	0.189
396.77	0.288
396.98	1.081
397.20	0.365
397.41	0.425
397.63	0.301
397.84	0.262
398.06	0.270
398.27	0.265
398.49	0.294
398.71	0.226
398.92	0.283
399.14	0.376
399.35	0.474
399.57	0.429
399.78	0.293
400.00	0.293
400.21	0.384
400.43	0.306
400.64	0.335
400.86	0.865
401.07	0.403
401.29	0.333
401.50	0.356
401.72	0.542
401.93	0.331
402.15	0.408
402.36	0.359
402.58	0.299
402.79	0.327
403.01	0.544
403.22	0.416
403.44	0.278
403.65	0.449
403.87	0.505
404.08	0.379
404.30	0.618
404.51	0.333
404.73	0.401
404.94	0.335
405.16	0.352
405.37	0.276
405.59	0.495
405.80	0.305
406.02	0.380
406.23	0.371
406.45	0.410
406.66	0.452
406.88	0.296
407.09	0.461
407.31	0.376
407.52	0.451
407.74	0.376
407.95	0.461
408.17	0.436
408.38	0.457
408.60	0.294
408.81	0.524
409.03	0.388
409.24	0.382
409.45	0.430
409.67	0.409
409.88	0.364
410.10	0.451
410.31	0.372
410.53	0.364
410.74	0.516
410.96	0.502
411.17	0.505
411.39	0.376
411.60	0.351
411.82	0.417
412.03	0.402
412.24	0.392
412.46	0.566
412.67	0.452
412.89	0.436
413.10	0.436
413.32	0.407
413.53	0.468
413.75	0.487
413.96	0.370
414.17	0.488
414.39	0.497
414.60	0.404
414.82	0.536
415.03	0.409
415.25	0.467
415.46	0.320
415.68	0.440
415.89	0.819
416.10	0.700
416.32	0.380
416.53	0.455
416.75	0.425
416.96	0.514
417.18	0.432
417.39	0.417
417.60	0.407
417.82	0.594
418.03	0.533
418.25	0.436
418.46	0.445
418.67	0.407
418.89	0.444
419.10	0.469
419.32	0.620
419.53	0.589
419.75	0.512
419.96	0.445
420.17	0.553
420.39	0.512
420.60	0.537
420.82	0.657
421.03	0.522
421.24	0.435
421.46	0.478
421.67	0.526
421.89	0.447
422.10	0.481
422.31	0.485
422.53	0.670
422.74	0.500
422.96	0.399
423.17	0.448
423.38	0.546
423.60	0.451
423.81	0.559
424.03	0.478
424.24	0.525
424.45	0.523
424.67	0.518
424.88	0.474
425.09	0.506
425.31	0.473
425.52	0.497
425.74	0.566
425.95	0.626
426.16	0.484
426.38	0.562
426.59	0.519
426.80	0.583
427.02	0.603
427.23	0.476
427.45	0.617
427.66	0.600
427.87	0.470
428.09	0.498
428.30	0.535
428.51	0.525
428.73	0.583
428.94	0.519
429.15	0.506
429.37	0.486
429.58	0.504
429.79	0.470
430.01	0.555
430.22	0.552
430.44	0.565
430.65	0.522
430.86	0.560
431.08	0.541
431.29	0.494
431.50	0.581
431.72	0.766
431.93	0.636
432.14	0.481
432.36	0.530
432.57	0.548
432.78	0.561
433.00	0.513
433.21	0.513
433.42	0.635
433.64	0.567
433.85	0.644
434.06	0.524
434.28	0.554
434.49	0.565
434.70	0.570
434.92	0.566
435.13	0.610
435.34	0.626
435.56	0.589
435.77	0.586
435.98	0.739
436.20	0.624
436.41	0.546
436.62	0.536
436.83	0.612
437.05	0.688
437.26	0.608
437.47	0.539
437.69	0.588
437.90	0.545
438.11	0.538
438.33	0.581
438.54	0.593
438.75	0.739
438.97	0.721
439.18	0.548
439.39	0.581
439.60	0.626
439.82	0.593
440.03	0.548
440.24	0.778
440.46	0.592
440.67	0.575
440.88	0.618
441.10	0.586
441.31	0.587
441.52	0.644
441.73	0.719
441.95	0.638
442.16	0.589
442.37	0.912
442.58	0.573
442.80	0.563
443.01	0.728
443.22	0.673
443.44	0.568
443.65	0.667
443.86	0.660
444.07	0.698
444.29	0.615
444.50	0.775
444.71	0.592
444.92	0.560
445.14	0.705
445.35	0.749
445.56	0.590
445.78	0.690
445.99	0.684
446.20	0.592
446.41	0.668
446.63	0.666
446.84	0.631
447.05	0.639
447.26	0.763
447.48	0.653
447.69	0.611
447.90	0.694
448.11	0.620
448.33	0.647
448.54	0.664
448.75	0.693
448.96	0.703
449.18	0.735
449.39	0.655
449.60	0.633
449.81	0.753
450.03	0.664
450.24	0.720
450.45	0.683
450.66	0.665
450.87	0.699
451.09	0.651
451.30	0.624
451.51	0.693
451.72	0.707
451.94	0.727
452.15	0.790
452.36	0.661
452.57	0.671
452.78	0.673
453.00	0.700
453.21	0.661
453.42	0.641
453.63	0.739
453.85	0.712
454.06	0.707
454.27	0.826
454.48	0.743
454.69	0.673
454.91	0.742
455.12	0.647
455.33	0.726
455.54	0.742
455.75	0.715
455.97	0.732
456.18	0.714
456.39	0.719
456.60	0.748
456.81	0.690
457.03	0.701
457.24	0.705
457.45	0.785
457.66	0.735
457.87	0.694
458.09	0.713
458.30	0.642
458.51	0.760
458.72	0.780
458.93	0.784
459.15	0.689
459.36	0.753
459.57	0.770
459.78	0.816
459.99	0.732
460.20	0.698
460.42	0.778
460.63	0.729
460.84	0.712
461.05	0.733
461.26	0.790
461.47	0.715
461.69	0.757
461.90	0.792
462.11	0.753
462.32	0.812
462.53	0.751
462.74	0.834
462.96	0.733
463.17	0.728
463.38	0.765
463.59	0.869
463.80	0.728
464.01	0.748
464.23	0.829
464.44	0.789
464.65	0.788
464.86	0.810
465.07	0.810
465.28	0.770
465.49	0.787
465.71	0.746
465.92	0.776
466.13	0.813
466.34	0.759
466.55	0.795
466.76	0.764
466.97	0.785
467.19	0.778
467.40	0.809
467.61	0.815
467.82	0.746
468.03	0.730
468.24	0.792
468.45	0.821
468.66	0.807
468.88	0.821
469.09	0.817
469.30	0.861
469.51	0.796
469.72	0.839
469.93	0.816
470.14	0.797
470.35	0.881
470.57	0.831
470.78	0.781
470.99	0.903
471.20	0.845
471.41	0.816
471.62	0.858
471.83	0.830
472.04	0.853
472.25	0.888
472.47	0.816
472.68	0.822
472.89	0.829
473.10	0.862
473.31	0.814
473.52	0.866
473.73	0.883
473.94	0.820
474.15	0.844
474.36	0.843
474.57	0.868
474.79	0.845
475.00	0.847
475.21	0.833
475.42	0.920
475.63	0.838
475.84	0.863
476.05	0.868
476.26	0.841
476.47	0.869
476.68	0.912
476.89	0.848
477.10	0.895
477.32	0.883
477.53	0.936
477.74	0.864
477.95	0.901
478.16	0.857
478.37	0.897
478.58	0.901
478.79	0.915
479.00	0.914
479.21	0.875
479.42	0.911
479.63	0.914
479.84	0.876
480.05	0.870
480.26	0.893
480.47	0.914
480.69	0.916
480.90	0.885
481.11	0.882
481.32	0.936
481.53	0.883
481.74	0.927
481.95	0.898
482.16	0.914
482.37	0.921
482.58	0.892
482.79	0.904
483.00	0.930
483.21	0.882
483.42	0.857
483.63	0.929
483.84	0.952
484.05	0.946
484.26	0.922
484.47	0.924
484.68	0.891
484.89	0.899
485.10	0.944
485.31	0.923
485.52	0.927
485.73	0.927
485.94	0.958
486.15	0.911
486.37	0.922
486.58	0.890
486.79	0.900
487.00	0.946
487.21	0.936
487.42	0.931
487.63	0.936
487.84	0.955
488.05	0.955
488.26	0.921
488.47	0.927
488.68	0.957
488.89	0.935
489.10	0.927
489.31	0.937
489.52	0.965
489.73	0.937
489.94	0.967
490.15	0.929
490.36	0.966
490.57	0.923
490.78	0.908
490.99	0.940
491.20	1.011
491.41	0.972
491.62	0.921
491.83	0.949
492.04	0.944
492.25	0.956
492.45	0.955
492.66	0.975
492.87	0.964
493.08	0.953
493.29	0.942
493.50	0.931
493.71	0.939
493.92	0.934
494.13	0.946
494.34	0.966
494.55	0.968
494.76	0.994
494.97	0.987
495.18	0.957
495.39	0.973
495.60	0.926
495.81	0.927
496.02	0.944
496.23	0.935
496.44	0.964
496.65	0.953
496.86	0.956
497.07	0.979
497.28	0.976
497.49	0.932
497.70	0.932
497.91	0.949
498.12	0.933
498.32	0.971
498.53	0.962
498.74	0.954
498.95	0.980
499.16	0.940
499.37	0.941
499.58	0.950
499.79	0.974
500.00	0.969
500.21	0.996
500.42	0.949
500.63	0.951
500.84	0.967
501.05	0.948
501.26	0.968
501.46	1.000
501.67	0.969
501.88	0.971
502.09	0.949
502.30	0.959
502.51	1.000
502.72	0.963
502.93	0.975
503.14	0.996
503.35	0.971
503.56	0.966
503.77	0.994
503.97	0.974
504.18	0.973
504.39	1.009
504.60	0.978
504.81	1.003
505.02	0.993
505.23	0.995
505.44	0.976
505.65	0.983
505.86	0.969
506.07	1.028
506.27	0.992
506.48	0.997
506.69	0.978
506.90	0.998
507.11	0.994
507.32	0.973
507.53	0.981
507.74	0.977
507.95	0.987
508.15	0.994
508.36	0.998
508.57	1.007
508.78	0.994
508.99	0.995
509.20	0.972
509.41	0.993
509.62	0.983
509.82	0.980
510.03	0.990
510.24	0.991
510.45	1.007
510.66	1.000
510.87	0.997
511.08	0.962
511.29	0.999
511.49	0.979
511.70	1.022
511.91	0.961
512.12	0.959
512.33	0.986
512.54	0.999
512.75	0.985
512.95	1.008
513.16	0.998
513.37	0.978
513.58	1.010
513.79	0.977
514.00	0.983
514.20	1.000
514.41	0.991
514.62	0.963
514.83	0.998
515.04	0.989
515.25	0.970
515.46	0.981
515.66	0.981
515.87	0.992
516.08	0.964
516.29	0.985
516.50	0.966
516.71	0.959
516.91	0.968
517.12	0.981
517.33	0.968
517.54	0.955
517.75	0.958
517.95	0.969
518.16	0.979
518.37	0.951
518.58	0.956
518.79	0.934
519.00	0.962
519.20	0.970
519.41	0.947
519.62	0.965
519.83	0.974
520.04	0.942
520.24	0.940
520.45	0.948
520.66	0.968
520.87	0.935
521.08	0.933
521.28	0.937
521.49	0.950
521.70	0.925
521.91	0.939
522.12	0.923
522.32	0.942
522.53	0.925
522.74	0.915
522.95	0.923
523.16	0.924
523.36	0.932
523.57	0.916
523.78	0.912
523.99	0.917
524.20	0.911
524.40	0.923
524.61	0.928
524.82	0.906
525.03	0.910
525.23	0.912
525.44	0.898
525.65	0.897
525.86	0.918
526.06	0.891
526.27	0.890
526.48	0.897
526.69	0.880
526.90	0.885
527.10	0.918
527.31	0.877
527.52	0.871
527.73	0.864
527.93	0.872
528.14	0.877
528.35	0.869
528.56	0.870
528.76	0.864
528.97	0.856
529.18	0.848
529.39	0.847
529.59	0.850
529.80	0.879
530.01	0.855
530.22	0.854
530.42	0.826
530.63	0.843
530.84	0.823
531.05	0.834
531.25	0.836
531.46	0.829
531.67	0.808
531.88	0.823
532.08	0.817
532.29	0.812
532.50	0.804
532.70	0.798
532.91	0.789
533.12	0.792
533.33	0.814
533.53	0.788
533.74	0.785
533.95	0.793
534.15	0.784
534.36	0.784
534.57	0.768
534.78	0.769
534.98	0.777
535.19	0.750
535.40	0.750
535.60	0.766
535.81	0.747
536.02	0.750
536.23	0.741
536.43	0.743
536.64	0.731
536.85	0.739
537.05	0.747
537.26	0.726
537.47	0.728
537.67	0.718
537.88	0.714
538.09	0.721
538.30	0.712
538.50	0.703
538.71	0.713
538.92	0.701
539.12	0.696
539.33	0.692
539.54	0.693
539.74	0.698
539.95	0.690
540.16	0.688
540.36	0.681
540.57	0.681
540.78	0.674
540.98	0.674
541.19	0.672
541.40	0.662
541.60	0.671
541.81	0.665
542.02	0.665
542.22	0.655
542.43	0.650
542.64	0.644
542.84	0.644
543.05	0.636
543.26	0.635
543.46	0.638
543.67	0.637
543.88	0.633
544.08	0.624
544.29	0.619
544.50	0.619
544.70	0.619
544.91	0.612
545.12	0.613
545.32	0.610
545.53	0.613
545.74	0.602
545.94	0.598
546.15	0.596
546.35	0.593
546.56	0.590
546.77	0.587
546.97	0.585
547.18	0.578
547.39	0.577
547.59	0.576
547.80	0.572
548.01	0.576
548.21	0.572
548.42	0.564
548.62	0.564
548.83	0.561
549.04	0.558
549.24	0.551
549.45	0.549
549.65	0.546
549.86	0.542
550.07	0.541
550.27	0.539
550.48	0.547
550.69	0.533
550.89	0.533
551.10	0.530
551.30	0.528
551.51	0.527
551.72	0.518
551.92	0.519
552.13	0.519
552.33	0.520
552.54	0.514
552.75	0.508
552.95	0.509
553.16	0.505
553.36	0.503
553.57	0.501
553.78	0.500
553.98	0.500
554.19	0.492
554.39	0.490
554.60	0.492
554.80	0.492
555.01	0.484
555.22	0.486
555.42	0.482
555.63	0.476
555.83	0.480
556.04	0.474
556.25	0.476
556.45	0.467
556.66	0.465
556.86	0.468
557.07	0.467
557.27	0.466
557.48	0.460
557.68	0.459
557.89	0.460
558.10	0.456
558.30	0.454
558.51	0.452
558.71	0.450
558.92	0.446
559.12	0.448
559.33	0.451
559.54	0.446
559.74	0.442
559.95	0.440
560.15	0.439
560.36	0.437
560.56	0.432
560.77	0.431
560.97	0.431
561.18	0.426
561.38	0.426
561.59	0.429
561.79	0.425
562.00	0.423
562.21	0.419
562.41	0.418
562.62	0.417
562.82	0.415
563.03	0.412
563.23	0.411
563.44	0.411
563.64	0.408
563.85	0.409
564.05	0.402
564.26	0.401
564.46	0.401
564.67	0.402
564.87	0.398
565.08	0.395
565.28	0.394
565.49	0.394
565.69	0.391
565.90	0.388
566.10	0.390
566.31	0.384
566.51	0.386
566.72	0.386
566.92	0.380
567.13	0.379
567.33	0.379
567.54	0.377
567.74	0.377
567.95	0.373
568.15	0.374
568.36	0.374
568.56	0.373
568.77	0.368
568.97	0.366
569.18	0.367
569.38	0.365
569.59	0.366
569.79	0.363
570.00	0.361
570.20	0.359
570.41	0.357
570.61	0.356
570.82	0.358
571.02	0.354
571.23	0.356
571.43	0.352
571.64	0.350
571.84	0.349
572.05	0.348
572.25	0.347
572.45	0.346
572.66	0.343
572.86	0.342
573.07	0.341
573.27	0.341
573.48	0.340
573.68	0.335
573.89	0.335
574.09	0.336
574.30	0.335
574.50	0.333
574.70	0.334
574.91	0.331
575.11	0.331
575.32	0.331
575.52	0.327
575.73	0.327
575.93	0.327
576.14	0.326
576.34	0.324
576.54	0.322
576.75	0.321
576.95	0.320
577.16	0.318
577.36	0.316
577.57	0.316
577.77	0.314
577.97	0.312
578.18	0.314
578.38	0.310
578.59	0.309
578.79	0.308
579.00	0.308
579.20	0.306
579.40	0.306
579.61	0.305
579.81	0.304
580.02	0.302
580.22	0.301
580.42	0.300
580.63	0.300
580.83	0.299
581.04	0.297
581.24	0.296
581.45	0.295
581.65	0.295
581.85	0.294
582.06	0.292
582.26	0.292
582.47	0.291
582.67	0.290
582.87	0.290
583.08	0.288
583.28	0.288
583.48	0.287
583.69	0.284
583.89	0.284
584.10	0.285
584.30	0.282
584.50	0.281
584.71	0.280
584.91	0.280
585.12	0.277
585.32	0.278
585.52	0.276
585.73	0.274
585.93	0.274
586.13	0.274
586.34	0.272
586.54	0.272
586.75	0.271
586.95	0.270
587.15	0.270
587.36	0.269
587.56	0.268
587.76	0.267
587.97	0.266
588.17	0.264
588.37	0.264
588.58	0.265
588.78	0.262
588.98	0.262
589.19	0.261
589.39	0.260
589.60	0.262
589.80	0.259
590.00	0.259
590.21	0.259
590.41	0.258
590.61	0.257
590.82	0.257
591.02	0.257
591.22	0.255
591.43	0.255
591.63	0.253
591.83	0.253
592.04	0.252
592.24	0.252
592.44	0.250
592.65	0.249
592.85	0.249
593.05	0.249
593.26	0.247
593.46	0.246
593.66	0.246
593.86	0.245
594.07	0.243
594.27	0.243
594.47	0.242
594.68	0.241
594.88	0.241
595.08	0.240
595.29	0.241
595.49	0.238
595.69	0.238
595.90	0.237
596.10	0.237
596.30	0.236
596.50	0.235
596.71	0.235
596.91	0.234
597.11	0.234
597.32	0.233
597.52	0.233
597.72	0.232
597.93	0.232
598.13	0.230
598.33	0.230
598.53	0.229
598.74	0.229
598.94	0.228
599.14	0.228
599.35	0.228
599.55	0.228
599.75	0.227
599.95	0.226
600.16	0.226
600.36	0.225
600.56	0.225
600.76	0.224
600.97	0.222
601.17	0.222
601.37	0.222
601.58	0.222
601.78	0.221
601.98	0.220
602.18	0.219
602.39	0.219
602.59	0.219
602.79	0.218
602.99	0.217
603.20	0.216
603.40	0.216
603.60	0.216
603.80	0.215
604.01	0.215
604.21	0.214
604.41	0.213
604.61	0.212
604.82	0.212
605.02	0.213
605.22	0.212
605.42	0.212
605.62	0.212
605.83	0.210
606.03	0.210
606.23	0.210
606.43	0.209
606.64	0.209
606.84	0.208
607.04	0.208
607.24	0.208
607.45	0.208
607.65	0.206
607.85	0.207
608.05	0.205
608.25	0.205
608.46	0.205
608.66	0.205
608.86	0.204
609.06	0.203
609.26	0.202
609.47	0.204
609.67	0.202
609.87	0.203
610.07	0.202
610.28	0.201
610.48	0.201
610.68	0.201
610.88	0.199
611.08	0.200
611.29	0.199
611.49	0.198
611.69	0.198
611.89	0.196
612.09	0.196
612.29	0.196
612.50	0.195
612.70	0.195
612.90	0.194
613.10	0.193
613.30	0.193
613.51	0.193
613.71	0.192
613.91	0.197
614.11	0.192
614.31	0.192
614.51	0.192
614.72	0.191
614.92	0.191
615.12	0.191
615.32	0.192
615.52	0.191
615.72	0.191
615.93	0.191
616.13	0.191
616.33	0.190
616.53	0.190
616.73	0.190
616.93	0.189
617.14	0.189
617.34	0.188
617.54	0.188
617.74	0.188
617.94	0.187
618.14	0.186
618.34	0.186
618.55	0.186
618.75	0.186
618.95	0.186
619.15	0.186
619.35	0.185
619.55	0.184
619.75	0.185
619.96	0.184
620.16	0.185
620.36	0.185
620.56	0.184
620.76	0.183
620.96	0.183
621.16	0.183
621.36	0.182
621.57	0.182
621.77	0.183
621.97	0.181
622.17	0.181
622.37	0.181
622.57	0.181
622.77	0.180
622.97	0.179
623.18	0.180
623.38	0.180
623.58	0.179
623.78	0.179
623.98	0.178
624.18	0.178
624.38	0.178
624.58	0.178
624.78	0.178
624.98	0.178
625.19	0.178
625.39	0.178
625.59	0.177
625.79	0.177
625.99	0.176
626.19	0.177
626.39	0.176
626.59	0.176
626.79	0.175
626.99	0.175
627.19	0.175
627.40	0.176
627.60	0.175
627.80	0.175
628.00	0.175
628.20	0.174
628.40	0.174
628.60	0.174
628.80	0.173
629.00	0.173
629.20	0.173
629.40	0.173
629.60	0.171
629.80	0.171
630.00	0.171
630.20	0.171
630.41	0.170
630.61	0.169
630.81	0.169
631.01	0.169
631.21	0.168
631.41	0.168
631.61	0.169
631.81	0.168
632.01	0.168
632.21	0.168
632.41	0.167
632.61	0.167
632.81	0.167
633.01	0.167
633.21	0.167
633.41	0.167
633.61	0.166
633.81	0.165
634.01	0.165
634.21	0.165
634.41	0.164
634.61	0.165
634.81	0.165
635.01	0.164
635.22	0.164
635.42	0.164
635.62	0.164
635.82	0.164
636.02	0.164
636.22	0.163
636.42	0.163
636.62	0.164
636.82	0.163
637.02	0.163
637.22	0.163
637.42	0.163
637.62	0.162
637.82	0.162
638.02	0.162
638.22	0.161
638.42	0.161
638.62	0.160
638.82	0.160
639.02	0.160
639.22	0.159
639.42	0.159
639.62	0.159
639.82	0.158
640.02	0.158
640.22	0.158
640.42	0.158
640.62	0.157
640.82	0.158
641.02	0.157
641.22	0.158
641.42	0.157
641.61	0.158
641.81	0.158
642.01	0.158
642.21	0.158
642.41	0.158
642.61	0.158
642.81	0.157
643.01	0.157
643.21	0.156
643.41	0.156
643.61	0.155
643.81	0.155
644.01	0.154
644.21	0.154
644.41	0.154
644.61	0.153
644.81	0.153
645.01	0.154
645.21	0.153
645.41	0.153
645.61	0.153
645.81	0.152
646.01	0.152
646.21	0.153
646.40	0.152
646.60	0.152
646.80	0.152
647.00	0.152
647.20	0.151
647.40	0.151
647.60	0.151
647.80	0.150
648.00	0.150
648.20	0.150
648.40	0.149
648.60	0.149
648.80	0.149
649.00	0.149
649.20	0.149
649.39	0.148
649.59	0.148
649.79	0.148
649.99	0.148
650.19	0.147
650.39	0.147
650.59	0.147
650.79	0.147
650.99	0.146
651.19	0.145
651.39	0.146
651.58	0.145
651.78	0.145
651.98	0.145
652.18	0.144
652.38	0.144
652.58	0.145
652.78	0.144
652.98	0.144
653.18	0.144
653.38	0.144
653.57	0.144
653.77	0.144
653.97	0.143
654.17	0.143
654.37	0.142
654.57	0.142
654.77	0.142
654.97	0.141
655.16	0.141
655.36	0.141
655.56	0.141
655.76	0.140
655.96	0.141
656.16	0.140
656.36	0.140
656.56	0.140
656.75	0.140
656.95	0.139
657.15	0.139
657.35	0.139
657.55	0.139
657.75	0.139
657.95	0.139
658.14	0.139
658.34	0.139
658.54	0.139
658.74	0.138
658.94	0.138
659.14	0.138
659.34	0.137
659.53	0.137
659.73	0.136
659.93	0.136
660.13	0.135
660.33	0.135
660.53	0.135
660.72	0.135
660.92	0.135
661.12	0.134
661.32	0.134
661.52	0.134
661.72	0.134
661.91	0.133
662.11	0.133
662.31	0.133
662.51	0.133
662.71	0.133
662.90	0.132
663.10	0.132
663.30	0.132
663.50	0.132
663.70	0.132
663.90	0.132
664.09	0.132
664.29	0.131
664.49	0.131
664.69	0.131
664.89	0.131
665.08	0.131
665.28	0.130
665.48	0.130
665.68	0.129
665.88	0.129
666.07	0.129
666.27	0.129
666.47	0.128
666.67	0.128
666.87	0.128
667.06	0.127
667.26	0.127
667.46	0.127
667.66	0.127
667.85	0.127
668.05	0.128
668.25	0.128
668.45	0.128
668.65	0.128
668.84	0.128
669.04	0.127
669.24	0.127
669.44	0.127
669.63	0.126
669.83	0.126
670.03	0.126
670.23	0.125
670.42	0.125
670.62	0.124
670.82	0.124
671.02	0.123
671.22	0.123
671.41	0.122
671.61	0.123
671.81	0.123
672.01	0.123
672.20	0.122
672.40	0.122
672.60	0.122
672.80	0.122
672.99	0.122
673.19	0.121
673.39	0.121
673.58	0.121
673.78	0.121
673.98	0.121
674.18	0.120
674.37	0.120
674.57	0.120
674.77	0.120
674.97	0.120
675.16	0.120
675.36	0.119
675.56	0.119
675.75	0.119
675.95	0.118
676.15	0.118
676.35	0.118
676.54	0.118
676.74	0.117
676.94	0.118
677.13	0.117
677.33	0.117
677.53	0.117
677.73	0.117
677.92	0.116
678.12	0.116
678.32	0.116
678.51	0.116
678.71	0.116
678.91	0.115
679.11	0.115
679.30	0.115
679.50	0.115
679.70	0.114
679.89	0.114
680.09	0.114
680.29	0.113
680.48	0.113
680.68	0.113
680.88	0.113
681.07	0.113
681.27	0.113
681.47	0.113
681.66	0.113
681.86	0.113
682.06	0.113
682.25	0.113
682.45	0.113
682.65	0.113
682.84	0.112
683.04	0.111
683.24	0.111
683.43	0.112
683.63	0.111
683.83	0.111
684.02	0.111
684.22	0.111
684.42	0.110
684.61	0.111
684.81	0.110
685.01	0.110
685.20	0.110
685.40	0.110
685.60	0.109
685.79	0.109
685.99	0.109
686.19	0.109
686.38	0.109
686.58	0.109
686.77	0.109
686.97	0.109
687.17	0.109
687.36	0.109
687.56	0.109
687.76	0.108
687.95	0.108
688.15	0.108
688.34	0.108
688.54	0.107
688.74	0.107
688.93	0.107
689.13	0.107
689.33	0.107
689.52	0.106
689.72	0.107
689.91	0.106
690.11	0.106
690.31	0.105
690.50	0.105
690.70	0.105
690.89	0.105
691.09	0.104
691.29	0.105
691.48	0.104
691.68	0.104
691.87	0.104
692.07	0.104
692.27	0.103
692.46	0.103
692.66	0.103
692.85	0.103
693.05	0.103
693.25	0.103
693.44	0.103
693.64	0.103
693.83	0.103
694.03	0.102
694.22	0.102
694.42	0.102
694.62	0.102
694.81	0.102
695.01	0.102
695.20	0.102
695.40	0.101
695.59	0.101
695.79	0.101
695.99	0.101
696.18	0.101
696.38	0.101
696.57	0.101
696.77	0.101
696.96	0.101
697.16	0.100
697.36	0.100
697.55	0.101
697.75	0.100
697.94	0.100
698.14	0.100
698.33	0.100
698.53	0.099
698.72	0.099
698.92	0.099
699.11	0.099
699.31	0.099
699.51	0.099
699.70	0.098
699.90	0.098
700.09	0.098
700.29	0.097
700.48	0.097
700.68	0.097
700.87	0.097
701.07	0.097
701.26	0.097
701.46	0.096
701.65	0.096
701.85	0.096
702.04	0.096
702.24	0.096
702.43	0.096
702.63	0.096
702.82	0.095
703.02	0.095
703.21	0.095
703.41	0.095
703.60	0.095
703.80	0.095
703.99	0.095
704.19	0.095
704.38	0.095
704.58	0.094
704.77	0.094
704.97	0.094
705.16	0.094
705.36	0.094
705.55	0.094
705.75	0.094
705.94	0.094
706.14	0.094
706.33	0.093
706.53	0.094
706.72	0.094
706.92	0.093
707.11	0.093
707.31	0.093
707.50	0.093
707.70	0.093
707.89	0.093
708.09	0.093
708.28	0.092
708.48	0.093
708.67	0.092
708.86	0.093
709.06	0.092
709.25	0.092
709.45	0.092
709.64	0.092
709.84	0.092
710.03	0.091
710.23	0.091
710.42	0.091
710.62	0.091
710.81	0.091
711.00	0.091
711.20	0.091
711.39	0.090
711.59	0.091
711.78	0.091
711.98	0.091
712.17	0.091
712.37	0.091
712.56	0.091
712.75	0.091
712.95	0.091
713.14	0.091
713.34	0.091
713.53	0.091
713.73	0.091
713.92	0.091
714.11	0.091
714.31	0.091
714.50	0.091
714.70	0.091
714.89	0.091
715.08	0.090
715.28	0.090
715.47	0.090
715.67	0.090
715.86	0.090
716.06	0.090
716.25	0.090
716.44	0.089
716.64	0.089
716.83	0.089
717.03	0.089
717.22	0.089
717.41	0.089
717.61	0.088
717.80	0.089
717.99	0.089
718.19	0.089
718.38	0.089
718.58	0.088
718.77	0.088
718.96	0.088
719.16	0.089
719.35	0.088
719.55	0.088
719.74	0.088
719.93	0.088
720.13	0.088
720.32	0.087
720.51	0.087
720.71	0.087
720.90	0.087
721.10	0.087
721.29	0.087
721.48	0.087
721.68	0.087
721.87	0.086
722.06	0.086
722.26	0.087
722.45	0.087
722.64	0.087
722.84	0.087
723.03	0.087
723.22	0.088
723.42	0.088
723.61	0.088
723.80	0.088
724.00	0.088
724.19	0.088
724.38	0.088
724.58	0.088
724.77	0.088
724.96	0.088
725.16	0.088
725.35	0.088
725.54	0.088
725.74	0.088
725.93	0.088
726.12	0.087
726.32	0.087
726.51	0.087
726.70	0.087
726.90	0.087
727.09	0.087
727.28	0.087
727.48	0.087
727.67	0.087
727.86	0.087
728.06	0.087
728.25	0.087
728.44	0.087
728.64	0.087
728.83	0.087
729.02	0.087
729.21	0.087
729.41	0.087
729.60	0.087
729.79	0.087
729.99	0.086
730.18	0.087
730.37	0.087
730.56	0.087
730.76	0.086
730.95	0.087
731.14	0.087
731.34	0.087
731.53	0.087
731.72	0.087
731.91	0.087
732.11	0.087
732.30	0.087
732.49	0.087
732.69	0.087
732.88	0.087
733.07	0.087
733.26	0.088
733.46	0.087
733.65	0.087
733.84	0.087
734.03	0.087
734.23	0.087
734.42	0.087
734.61	0.087
734.80	0.087
735.00	0.087
735.19	0.087
735.38	0.087
735.57	0.087
735.77	0.087
735.96	0.087
736.15	0.087
736.34	0.086
736.54	0.087
736.73	0.087
736.92	0.087
737.11	0.086
737.31	0.086
737.50	0.087
737.69	0.087
737.88	0.087
738.07	0.087
738.27	0.087
738.46	0.087
738.65	0.086
738.84	0.086
739.04	0.086
739.23	0.087
739.42	0.086
739.61	0.086
739.80	0.086
740.00	0.086
740.19	0.086
740.38	0.086
740.57	0.086
740.76	0.085
740.96	0.085
741.15	0.085
741.34	0.085
741.53	0.085
741.72	0.085
741.92	0.085
742.11	0.085
742.30	0.085
742.49	0.085
742.68	0.085
742.88	0.085
743.07	0.085
743.26	0.085
743.45	0.085
743.64	0.085
743.84	0.085
744.03	0.084
744.22	0.084
744.41	0.084
744.60	0.084
744.79	0.084
744.99	0.084
745.18	0.084
745.37	0.084
745.56	0.084
745.75	0.084
745.94	0.084
746.14	0.084
746.33	0.084
746.52	0.084
746.71	0.084
746.90	0.084
747.09	0.084
747.28	0.084
747.48	0.084
747.67	0.084
747.86	0.084
748.05	0.084
748.24	0.084
748.43	0.084
748.62	0.083
748.82	0.084
749.01	0.084
749.20	0.083
749.39	0.083
749.58	0.084
749.77	0.083
749.96	0.083
750.16	0.083
750.35	0.083
750.54	0.083
750.73	0.083
750.92	0.083
751.11	0.083
751.30	0.083
751.49	0.083
751.68	0.082
751.88	0.082
752.07	0.082
752.26	0.082
752.45	0.082
752.64	0.082
752.83	0.082
753.02	0.082
753.21	0.082
753.40	0.081
753.60	0.081
753.79	0.082
753.98	0.082
754.17	0.082
754.36	0.082
754.55	0.082
754.74	0.082
754.93	0.082
755.12	0.082
755.31	0.082
755.50	0.082
755.70	0.082
755.89	0.081
756.08	0.081
756.27	0.081
756.46	0.081
756.65	0.081
756.84	0.080
757.03	0.080
757.22	0.079
757.41	0.080
757.60	0.080
757.79	0.080
757.98	0.080
758.17	0.080
758.36	0.080
758.56	0.080
758.75	0.080
758.94	0.080
759.13	0.080
759.32	0.080
759.51	0.080
759.70	0.080
759.89	0.080
760.08	0.080
760.27	0.080
760.46	0.079
760.65	0.080
760.84	0.079
761.03	0.080
761.22	0.080
761.41	0.080
761.60	0.080
761.79	0.079
761.98	0.079
762.17	0.079
762.36	0.079
762.55	0.079
762.74	0.079
762.93	0.078
763.12	0.078
763.31	0.078
763.50	0.078
763.69	0.078
763.88	0.078
764.07	0.077
764.26	0.078
764.45	0.078
764.64	0.078
764.83	0.078
765.02	0.078
765.21	0.078
765.40	0.078
765.59	0.078
765.78	0.078
765.97	0.078
766.16	0.079
766.35	0.078
766.54	0.078
766.73	0.078
766.92	0.078
767.11	0.077
767.30	0.077
767.49	0.077
767.68	0.077
767.87	0.077
768.06	0.077
768.25	0.076
768.44	0.077
768.63	0.077
768.82	0.077
769.01	0.077
769.20	0.077
769.39	0.077
769.58	0.077
769.77	0.077
769.96	0.077
770.15	0.077
770.34	0.078
770.53	0.077
770.72	0.077
770.91	0.077
771.10	0.077
771.29	0.077
771.47	0.076
771.66	0.076
771.85	0.076
772.04	0.076
772.23	0.076
772.42	0.076
772.61	0.076
772.80	0.076
772.99	0.076
773.18	0.076
773.37	0.076
773.56	0.076
773.75	0.076
773.94	0.076
774.13	0.076
774.31	0.076
774.50	0.076
774.69	0.076
774.88	0.075
775.07	0.076
775.26	0.076
775.45	0.075
775.64	0.075
775.83	0.075
776.02	0.075
776.21	0.075
776.40	0.076
776.58	0.075
776.77	0.075
776.96	0.075
777.15	0.075
777.34	0.075
777.53	0.076
777.72	0.076
777.91	0.075
778.10	0.075
778.28	0.075
778.47	0.075
778.66	0.075
778.85	0.075
779.04	0.075
779.23	0.075
779.42	0.074
779.61	0.074
779.79	0.074
779.98	0.074
780.17	0.074
780.36	0.074
780.55	0.073
780.74	0.073
780.93	0.073
781.12	0.073
781.30	0.073
781.49	0.073
781.68	0.073
781.87	0.073
782.06	0.074
782.25	0.074
782.44	0.074
782.62	0.074
782.81	0.075
783.00	0.075
783.19	0.075
783.38	0.074
783.57	0.074
783.75	0.074
783.94	0.074
784.13	0.074
784.32	0.073
784.51	0.073
784.70	0.073
784.88	0.073
785.07	0.073
785.26	0.073
785.45	0.073
785.64	0.073
785.83	0.073
786.01	0.073
786.20	0.073
786.39	0.073
786.58	0.073
786.77	0.072
786.95	0.073
787.14	0.073
787.33	0.073
787.52	0.073
787.71	0.073
787.90	0.073
788.08	0.073
788.27	0.072
788.46	0.072
788.65	0.073
788.84	0.073
789.02	0.073
789.21	0.073
789.40	0.073
789.59	0.073
789.77	0.073
789.96	0.072
790.15	0.073
790.34	0.073
790.53	0.073
790.71	0.072
790.90	0.072
791.09	0.072
791.28	0.072
791.46	0.072
791.65	0.072
791.84	0.072
792.03	0.072
792.22	0.072
792.40	0.072
792.59	0.072
792.78	0.072
792.97	0.072
793.15	0.072
793.34	0.071
793.53	0.071
793.72	0.071
793.90	0.071
794.09	0.072
794.28	0.072
794.47	0.072
794.65	0.071
794.84	0.071
795.03	0.071
795.22	0.071
795.40	0.071
795.59	0.071
795.78	0.071
795.97	0.071
796.15	0.071
796.34	0.071
796.53	0.071
796.71	0.072
796.90	0.071
797.09	0.072
797.28	0.072
797.46	0.071
797.65	0.071
797.84	0.071
798.02	0.071
798.21	0.071
798.40	0.070
798.59	0.070
798.77	0.070
798.96	0.070
799.15	0.070
799.33	0.070
799.52	0.070
799.71	0.070
799.90	0.070
800.08	0.070
800.27	0.070
800.46	0.070
800.64	0.070
800.83	0.070
801.02	0.070
801.20	0.070
801.39	0.070
801.58	0.070
801.76	0.070
801.95	0.070
802.14	0.070
802.32	0.070
802.51	0.070
802.70	0.070
802.88	0.069
803.07	0.070
803.26	0.069
803.44	0.069
803.63	0.070
803.82	0.069
804.00	0.069
804.19	0.069
804.38	0.069
804.56	0.069
804.75	0.069
804.94	0.069
805.12	0.070
805.31	0.070
805.50	0.070
805.68	0.070
805.87	0.070
806.06	0.070
806.24	0.070
806.43	0.070
806.62	0.070
806.80	0.070
806.99	0.070
807.17	0.070
807.36	0.070
807.55	0.070
807.73	0.069
807.92	0.069
808.11	0.069
808.29	0.069
808.48	0.068
808.66	0.068
808.85	0.068
809.04	0.068
809.22	0.068
809.41	0.068
809.59	0.068
809.78	0.068
809.97	0.068
810.15	0.068
810.34	0.068
810.53	0.068
810.71	0.068
810.90	0.068
811.08	0.068
811.27	0.068
811.45	0.068
811.64	0.068
811.83	0.069
812.01	0.068
812.20	0.068
812.38	0.069
812.57	0.069
812.76	0.069
812.94	0.069
813.13	0.069
813.31	0.069
813.50	0.069
813.68	0.069
813.87	0.068
814.06	0.069
814.24	0.068
814.43	0.069
814.61	0.069
814.80	0.068
814.98	0.069
815.17	0.069
815.36	0.069
815.54	0.069
815.73	0.069
815.91	0.069
816.10	0.069
816.28	0.069
816.47	0.068
816.65	0.069
816.84	0.069
817.03	0.069
817.21	0.069
817.40	0.069
817.58	0.069
817.77	0.069
817.95	0.069
818.14	0.069
818.32	0.069
818.51	0.069
818.69	0.069
818.88	0.069
819.06	0.069
819.25	0.069
819.43	0.068
819.62	0.068
819.80	0.068
819.99	0.069
820.18	0.069
820.36	0.068
820.55	0.069
820.73	0.068
820.92	0.069
821.10	0.069
821.29	0.069
821.47	0.069
821.66	0.069
821.84	0.069
822.03	0.069
822.21	0.069
822.40	0.069
822.58	0.069
822.77	0.069
822.95	0.069
823.14	0.069
823.32	0.069
823.50	0.069
823.69	0.069
823.87	0.069
824.06	0.070
824.24	0.070
824.43	0.070
824.61	0.070
824.80	0.070
824.98	0.070
825.17	0.070
825.35	0.070
825.54	0.070
825.72	0.070
825.91	0.070
826.09	0.070
826.28	0.070
826.46	0.070
826.64	0.070
826.83	0.070
827.01	0.071
827.20	0.071
827.38	0.071
827.57	0.071
827.75	0.071
827.94	0.071
828.12	0.071
828.31	0.071
828.49	0.071
828.67	0.071
828.86	0.071
829.04	0.071
829.23	0.071
829.41	0.071
829.60	0.072
829.78	0.072
829.96	0.072
830.15	0.072
830.33	0.073
830.52	0.073
830.70	0.073
830.88	0.073
831.07	0.073
831.25	0.073
831.44	0.073
831.62	0.073
831.81	0.073
831.99	0.073
832.17	0.073
832.36	0.073
832.54	0.073
832.73	0.073
832.91	0.073
833.09	0.073
833.28	0.073
833.46	0.074
833.65	0.074
833.83	0.074
834.01	0.074
834.20	0.074
834.38	0.074
834.56	0.074
834.75	0.075
834.93	0.075
835.12	0.074
835.30	0.075
835.48	0.075
835.67	0.074
835.85	0.074
836.03	0.074
836.22	0.074
836.40	0.074
836.59	0.074
836.77	0.074
836.95	0.075
837.14	0.074
837.32	0.074
837.50	0.074
837.69	0.074
837.87	0.074
838.05	0.074
838.24	0.074
838.42	0.075
838.60	0.075
838.79	0.076
838.97	0.075
839.15	0.075
839.34	0.075
839.52	0.076
839.70	0.076
839.89	0.076
840.07	0.076
840.25	0.076
840.44	0.076
840.62	0.075
840.80	0.076
840.99	0.076
841.17	0.075
841.35	0.075
841.54	0.075
841.72	0.075
841.90	0.075
842.09	0.076
842.27	0.076
842.45	0.076
842.64	0.076
842.82	0.076
843.00	0.076
843.19	0.076
843.37	0.075
843.55	0.076
843.73	0.076
843.92	0.076
844.10	0.076
844.28	0.076
844.47	0.076
844.65	0.076
844.83	0.076
845.01	0.076
845.20	0.077
845.38	0.077
845.56	0.077
845.75	0.077
845.93	0.077
846.11	0.077
846.29	0.077
846.48	0.077
846.66	0.077
846.84	0.076
847.02	0.076
847.21	0.076
847.39	0.076
847.57	0.076
847.76	0.076
847.94	0.076
848.12	0.076
848.30	0.076
848.49	0.076
848.67	0.076
848.85	0.076
849.03	0.077
849.22	0.077
849.40	0.077
849.58	0.077
849.76	0.077
849.95	0.077
850.13	0.077
850.31	0.077
850.49	0.077
850.67	0.077
850.86	0.077
851.04	0.077
851.22	0.077
851.40	0.077
851.59	0.077
851.77	0.077
851.95	0.077
852.13	0.077
852.31	0.077
852.50	0.077
852.68	0.077
852.86	0.077
853.04	0.077
853.23	0.077
853.41	0.077
853.59	0.077
853.77	0.077
853.95	0.077
854.14	0.077
854.32	0.077
854.50	0.077
854.68	0.077
854.86	0.077
855.04	0.077
855.23	0.077
855.41	0.078
855.59	0.078
855.77	0.078
855.95	0.078
856.14	0.078
856.32	0.078
856.50	0.078
856.68	0.078
856.86	0.078
857.04	0.078
857.23	0.078
857.41	0.077
857.59	0.077
857.77	0.077
857.95	0.077
858.13	0.077
858.32	0.077
858.50	0.078
858.68	0.077
858.86	0.077
859.04	0.078
859.22	0.077
859.41	0.078
859.59	0.078
859.77	0.077
859.95	0.077
860.13	0.078
860.31	0.077
860.49	0.077
860.68	0.078
860.86	0.078
861.04	0.077
861.22	0.078
861.40	0.078
861.58	0.077
861.76	0.077
861.94	0.078
862.13	0.077
862.31	0.077
862.49	0.077
862.67	0.078
862.85	0.078
863.03	0.078
863.21	0.078
863.39	0.078
863.57	0.078
863.76	0.079
863.94	0.079
864.12	0.079
864.30	0.079
864.48	0.079
864.66	0.079
864.84	0.079
865.02	0.079
865.20	0.079
865.38	0.079
865.57	0.080
865.75	0.080
865.93	0.080
866.11	0.079
866.29	0.079
866.47	0.080
866.65	0.080
866.83	0.080
867.01	0.079
867.19	0.079
867.37	0.079
867.55	0.079
867.73	0.079
867.92	0.079
868.10	0.079
868.28	0.079
868.46	0.079
868.64	0.079
868.82	0.079
869.00	0.079
869.18	0.079
869.36	0.079
869.54	0.079
869.72	0.080
869.90	0.080
870.08	0.079
870.26	0.079
870.44	0.080
870.62	0.080
870.80	0.079
870.98	0.080
871.16	0.080
871.34	0.079
871.53	0.079
871.71	0.079
871.89	0.079
872.07	0.079
872.25	0.079
872.43	0.079
872.61	0.079
872.79	0.079
872.97	0.080
873.15	0.080
873.33	0.080
873.51	0.081
873.69	0.081
873.87	0.081
874.05	0.081
874.23	0.081
874.41	0.081
874.59	0.081
874.77	0.081
874.95	0.081
875.13	0.081
875.31	0.080
875.49	0.081
875.67	0.081
875.85	0.080
876.03	0.080
876.21	0.081
876.39	0.081
876.57	0.081
876.75	0.081
876.93	0.081
877.11	0.081
877.29	0.081
877.47	0.081
877.65	0.081
877.82	0.082
878.00	0.082
878.18	0.082
878.36	0.082
878.54	0.082
878.72	0.081
878.90	0.081
879.08	0.082
879.26	0.082
879.44	0.082
879.62	0.082
879.80	0.082
879.98	0.082
880.16	0.082
880.34	0.081
880.52	0.082
880.70	0.081
880.88	0.081
881.06	0.082
881.24	0.081
881.42	0.081
881.59	0.081
881.77	0.080
881.95	0.080
882.13	0.081
882.31	0.081
882.49	0.081
882.67	0.081
882.85	0.081
883.03	0.081
883.21	0.082
883.39	0.082
883.57	0.082
883.75	0.082
883.92	0.083
884.10	0.083
884.28	0.083
884.46	0.083
884.64	0.083
884.82	0.083
885.00	0.083
885.18	0.083
885.36	0.083
885.54	0.083
885.71	0.083
885.89	0.083
886.07	0.083
886.25	0.083
886.43	0.083
886.61	0.083
886.79	0.083
886.97	0.083
887.15	0.083
887.32	0.083
887.50	0.083
887.68	0.082
887.86	0.083
888.04	0.083
888.22	0.083
888.40	0.083
888.57	0.083
888.75	0.083
888.93	0.083
889.11	0.083
889.29	0.084
889.47	0.084
889.65	0.084
889.82	0.084
890.00	0.085
890.18	0.084
890.36	0.084
890.54	0.084
890.72	0.084
890.90	0.084
891.07	0.084
891.25	0.084
891.43	0.083
891.61	0.084
891.79	0.084
891.97	0.084
892.14	0.084
892.32	0.084
892.50	0.084
892.68	0.084
892.86	0.084
893.03	0.085
893.21	0.085
893.39	0.085
893.57	0.085
893.75	0.085
893.93	0.085
894.10	0.085
894.28	0.085
894.46	0.085
894.64	0.085
894.82	0.085
894.99	0.085
895.17	0.085
895.35	0.085
895.53	0.085
895.71	0.084
895.88	0.085
896.06	0.085
896.24	0.085
896.42	0.085
896.59	0.085
896.77	0.085
896.95	0.085
897.13	0.085
897.31	0.086
897.48	0.085
897.66	0.086
897.84	0.086
898.02	0.086
898.19	0.086
898.37	0.086
898.55	0.086
898.73	0.086
898.91	0.086
899.08	0.086
899.26	0.086
899.44	0.086
899.62	0.086
899.79	0.087
899.97	0.086
900.15	0.086
900.33	0.086
900.50	0.086
900.68	0.085
900.86	0.086
901.04	0.086
901.21	0.086
901.39	0.086
901.57	0.086
901.74	0.086
901.92	0.087
902.10	0.087
902.28	0.087
902.45	0.087
902.63	0.087
902.81	0.087
902.99	0.088
903.16	0.088
903.34	0.088
903.52	0.088
903.69	0.088
903.87	0.088
904.05	0.088
904.22	0.088
904.40	0.088
904.58	0.088
904.76	0.088
904.93	0.088
905.11	0.088
905.29	0.088
905.46	0.088
905.64	0.088
905.82	0.089
905.99	0.088
906.17	0.088
906.35	0.088
906.53	0.088
906.70	0.088
906.88	0.088
907.06	0.088
907.23	0.088
907.41	0.089
907.59	0.089
907.76	0.089
907.94	0.089
908.12	0.089
908.29	0.089
908.47	0.089
908.65	0.089
908.82	0.089
909.00	0.089
909.18	0.089
909.35	0.089
909.53	0.089
909.71	0.089
909.88	0.089
910.06	0.089
910.23	0.089
910.41	0.090
910.59	0.089
910.76	0.089
910.94	0.090
911.12	0.090
911.29	0.090
911.47	0.090
911.65	0.090
911.82	0.090
912.00	0.090
912.17	0.090
912.35	0.091
912.53	0.091
912.70	0.091
912.88	0.091
913.06	0.091
913.23	0.092
913.41	0.092
913.58	0.092
913.76	0.092
913.94	0.092
914.11	0.093
914.29	0.093
914.46	0.093
914.64	0.093
914.82	0.093
914.99	0.093
915.17	0.093
915.34	0.093
915.52	0.093
915.70	0.093
915.87	0.093
916.05	0.093
916.22	0.093
916.40	0.093
916.57	0.094
916.75	0.094
916.93	0.094
917.10	0.094
917.28	0.094
917.45	0.094
917.63	0.094
917.80	0.094
917.98	0.094
918.16	0.094
918.33	0.095
918.51	0.095
918.68	0.095
918.86	0.095
919.03	0.095
919.21	0.095
919.39	0.096
919.56	0.096
919.74	0.096
919.91	0.096
920.09	0.096
920.26	0.096
920.44	0.096
920.61	0.096
920.79	0.096
920.96	0.097
921.14	0.097
921.31	0.097
921.49	0.097
921.67	0.098
921.84	0.098
922.02	0.098
922.19	0.099
922.37	0.099
922.54	0.099
922.72	0.100
922.89	0.100
923.07	0.100
923.24	0.100
923.42	0.101
923.59	0.101
923.77	0.101
923.94	0.102
924.12	0.102
924.29	0.102
924.47	0.102
924.64	0.103
924.82	0.103
924.99	0.103
925.17	0.104
925.34	0.104
925.52	0.104
925.69	0.104
925.87	0.104
926.04	0.105
926.22	0.105
926.39	0.105
926.57	0.105
926.74	0.105
926.91	0.106
927.09	0.106
927.26	0.106
927.44	0.107
927.61	0.107
927.79	0.107
927.96	0.108
928.14	0.108
928.31	0.108
928.49	0.109
928.66	0.110
928.84	0.110
929.01	0.111
929.18	0.111
929.36	0.112
929.53	0.113
929.71	0.113
929.88	0.113
930.06	0.114
930.23	0.114
930.41	0.114
930.58	0.115
930.75	0.115
930.93	0.115
931.10	0.116
931.28	0.116
931.45	0.116
931.63	0.117
931.80	0.117
931.97	0.117
932.15	0.118
932.32	0.118
932.50	0.118
932.67	0.119
932.84	0.120
933.02	0.121
933.19	0.121
933.37	0.122
933.54	0.122
933.71	0.122
933.89	0.123
934.06	0.124
934.24	0.125
934.41	0.125
934.58	0.125
934.76	0.125
934.93	0.126
935.11	0.126
935.28	0.126
935.45	0.126
935.63	0.127
935.80	0.127
935.98	0.128
936.15	0.128
936.32	0.128
936.50	0.129
936.67	0.129
936.84	0.130
937.02	0.131
937.19	0.132
937.36	0.132
937.54	0.133
937.71	0.133
937.89	0.134
938.06	0.134
938.23	0.135
938.41	0.136
938.58	0.136
938.75	0.136
938.93	0.136
939.10	0.136
939.27	0.137
939.45	0.138
939.62	0.138
939.79	0.139
939.97	0.139
940.14	0.140
940.31	0.141
940.49	0.141
940.66	0.142
940.83	0.143
941.01	0.143
941.18	0.144
941.35	0.145
941.53	0.145
941.70	0.146
941.87	0.146
942.05	0.147
942.22	0.148
942.39	0.149
942.57	0.150
942.74	0.151
942.91	0.151
943.08	0.151
943.26	0.151
943.43	0.152
943.60	0.153
943.78	0.153
943.95	0.154
944.12	0.154
944.29	0.155
944.47	0.155
944.64	0.156
944.81	0.158
944.99	0.158
945.16	0.159
945.33	0.159
945.50	0.161
945.68	0.161
945.85	0.162
946.02	0.163
946.20	0.164
946.37	0.166
946.54	0.166
946.71	0.167
946.89	0.168
947.06	0.168
947.23	0.169
947.40	0.170
947.58	0.170
947.75	0.172
947.92	0.172
948.09	0.172
948.27	0.173
948.44	0.174
948.61	0.176
948.78	0.176
948.96	0.178
949.13	0.179
949.30	0.180
949.47	0.180
949.65	0.182
949.82	0.184
949.99	0.184
950.16	0.186
950.33	0.187
950.51	0.188
950.68	0.189
950.85	0.190
951.02	0.192
951.20	0.193
951.37	0.194
951.54	0.194
951.71	0.196
951.88	0.197
952.06	0.198
952.23	0.199
952.40	0.201
952.57	0.202
952.74	0.203
952.92	0.204
953.09	0.206
953.26	0.207
953.43	0.208
953.60	0.209
953.77	0.210
953.95	0.211
954.12	0.212
954.29	0.214
954.46	0.216
954.63	0.217
954.81	0.218
954.98	0.218
955.15	0.221
955.32	0.222
955.49	0.222
955.66	0.224
955.84	0.225
956.01	0.225
956.18	0.228
956.35	0.229
956.52	0.229
956.69	0.230
956.87	0.231
957.04	0.232
957.21	0.234
957.38	0.234
957.55	0.235
957.72	0.236
957.89	0.237
958.07	0.237
958.24	0.239
958.41	0.241
958.58	0.240
958.75	0.241
958.92	0.242
959.09	0.243
959.26	0.244
959.44	0.244
959.61	0.246
959.78	0.246
959.95	0.247
960.12	0.247
960.29	0.250
960.46	0.249
960.63	0.249
960.81	0.249
960.98	0.250
961.15	0.251
961.32	0.252
961.49	0.251
961.66	0.253
961.83	0.253
962.00	0.253
962.17	0.254
962.34	0.254
962.52	0.255
962.69	0.256
962.86	0.255
963.03	0.256
963.20	0.257
963.37	0.256
963.54	0.256
963.71	0.256
963.88	0.256
964.05	0.257
964.22	0.259
964.39	0.257
964.56	0.257
964.74	0.259
964.91	0.258
965.08	0.259
965.25	0.259
965.42	0.260
965.59	0.261
965.76	0.261
965.93	0.262
966.10	0.260
966.27	0.262
966.44	0.262
966.61	0.263
966.78	0.262
966.95	0.261
967.12	0.263
967.29	0.265
967.46	0.264
967.63	0.263
967.80	0.264
967.97	0.264
968.14	0.263
968.32	0.264
968.49	0.264
968.66	0.263
968.83	0.264
969.00	0.264
969.17	0.264
969.34	0.264
969.51	0.266
969.68	0.264
969.85	0.265
970.02	0.264
970.19	0.264
970.36	0.265
970.53	0.265
970.70	0.264
970.87	0.264
971.04	0.263
971.21	0.264
971.38	0.264
971.55	0.264
971.72	0.264
971.89	0.265
972.06	0.265
972.23	0.265
972.40	0.264
972.57	0.263
972.74	0.263
972.91	0.265
973.07	0.265
973.24	0.264
973.41	0.264
973.58	0.263
973.75	0.275
973.92	0.263
974.09	0.263
974.26	0.263
974.43	0.262
974.60	0.263
974.77	0.263
974.94	0.263
975.11	0.263
975.28	0.264
975.45	0.262
975.62	0.264
975.79	0.265
975.96	0.263
976.13	0.262
976.30	0.264
976.47	0.263
976.64	0.263
976.80	0.263
976.97	0.263
977.14	0.263
977.31	0.263
977.48	0.264
977.65	0.263
977.82	0.262
977.99	0.264
978.16	0.263
978.33	0.263
978.50	0.262
978.67	0.262
978.83	0.262
979.00	0.263
979.17	0.262
979.34	0.262
979.51	0.261
979.68	0.262
979.85	0.261
980.02	0.262
980.19	0.261
980.36	0.262
980.52	0.263
980.69	0.261
980.86	0.261
981.03	0.261
981.20	0.259
981.37	0.260
981.54	0.260
981.71	0.259
981.88	0.259
982.04	0.259
982.21	0.258
982.38	0.259
982.55	0.258
982.72	0.258
982.89	0.259
983.06	0.258
983.22	0.258
983.39	0.258
983.56	0.257
983.73	0.256
983.90	0.255
984.07	0.256
984.24	0.255
984.40	0.255
984.57	0.253
984.74	0.255
984.91	0.257
985.08	0.254
985.25	0.252
985.41	0.253
985.58	0.253
985.75	0.255
985.92	0.254
986.09	0.253
986.26	0.252
986.42	0.251
986.59	0.250
986.76	0.252
986.93	0.252
987.10	0.252
987.27	0.250
987.43	0.248
987.60	0.250
987.77	0.249
987.94	0.248
988.11	0.249
988.27	0.249
988.44	0.249
988.61	0.246
988.78	0.245
988.95	0.245
989.11	0.246
989.28	0.245
989.45	0.244
989.62	0.244
989.79	0.245
989.95	0.243
990.12	0.245
990.29	0.244
990.46	0.243
990.62	0.242
990.79	0.242
990.96	0.243
991.13	0.243
991.30	0.242
991.46	0.241
991.63	0.240
991.80	0.239
991.97	0.239
992.13	0.240
992.30	0.241
992.47	0.239
992.64	0.239
992.80	0.239
992.97	0.239
993.14	0.236
993.31	0.234
993.47	0.236
993.64	0.234
993.81	0.233
993.98	0.233
994.14	0.232
994.31	0.231
994.48	0.232
994.64	0.233
994.81	0.232
994.98	0.232
995.15	0.230
995.31	0.230
995.48	0.230
995.65	0.233
995.82	0.230
995.98	0.230
996.15	0.231
996.32	0.232
996.48	0.230
996.65	0.230
996.82	0.228
996.99	0.229
997.15	0.228
997.32	0.229
997.49	0.227
997.65	0.227
997.82	0.227
997.99	0.225
998.15	0.225
998.32	0.226
998.49	0.225
998.65	0.225
998.82	0.224
998.99	0.222
999.15	0.222
999.32	0.221
999.49	0.221
999.65	0.221
999.82	0.218
999.99	0.219
1000.15	0.219
1000.32	0.219
1000.49	0.219
1000.65	0.217
1000.82	0.217
1000.99	0.218
1001.15	0.218
1001.32	0.218
1001.49	0.219
1001.65	0.218
1001.82	0.221
1001.99	0.218
1002.15	0.217
1002.32	0.217
1002.49	0.218
1002.65	0.217
1002.82	0.215
1002.99	0.214
1003.15	0.215
1003.32	0.214
1003.48	0.214
1003.65	0.214
1003.82	0.212
1003.98	0.210
1004.15	0.209
1004.32	0.209
1004.48	0.210
1004.65	0.211
1004.81	0.208
1004.98	0.207
1005.15	0.208
1005.31	0.207
1005.48	0.205
1005.64	0.205
1005.81	0.207
1005.98	0.205
1006.14	0.204
1006.31	0.204
1006.47	0.203
1006.64	0.202
1006.81	0.201
1006.97	0.201
1007.14	0.200
1007.30	0.202
1007.47	0.202
1007.63	0.199
1007.80	0.198
1007.97	0.197
1008.13	0.198
1008.30	0.197
1008.46	0.198
1008.63	0.197
1008.79	0.198
1008.96	0.198
1009.13	0.198
1009.29	0.196
1009.46	0.196
1009.62	0.196
1009.79	0.195
1009.95	0.195
1010.12	0.195
1010.28	0.195
1010.45	0.193
1010.62	0.193
1010.78	0.192
1010.95	0.191
1011.11	0.192
1011.28	0.191
1011.44	0.192
1011.61	0.190
1011.77	0.188
1011.94	0.188
1012.10	0.188
1012.27	0.188
1012.43	0.187
1012.60	0.186
1012.76	0.187
1012.93	0.186
1013.10	0.185
1013.26	0.183
1013.43	0.185
1013.59	0.193
1013.76	0.185
1013.92	0.184
1014.09	0.183
1014.25	0.184
1014.42	0.185
1014.58	0.185
1014.75	0.186
1014.91	0.184
1015.08	0.186
1015.24	0.182
1015.41	0.184
1015.57	0.184
1015.73	0.183
1015.90	0.181
1016.06	0.183
1016.23	0.180
1016.39	0.180
1016.56	0.181
1016.72	0.180
1016.89	0.180
1017.05	0.182
1017.22	0.178
1017.38	0.179
1017.55	0.178
1017.71	0.179
1017.88	0.178
1018.04	0.180
1018.21	0.176
1018.37	0.177
1018.53	0.177
1018.70	0.175
1018.86	0.173
1019.03	0.176
1019.19	0.174
1019.36	0.174
1019.52	0.176
1019.69	0.176
1019.85	0.174
1020.01	0.174
1020.18	0.172
1020.34	0.172
1020.51	0.172
1020.67	0.173
1020.84	0.172
1021.00	0.172
1021.16	0.170
1021.33	0.171
1021.49	0.170
1021.66	0.171
1021.82	0.170
1021.98	0.169
1022.15	0.170
1022.31	0.168
1022.48	0.166
1022.64	0.167
1022.80	0.165
1022.97	0.163
1023.13	0.162
1023.30	0.162
1023.46	0.163
1023.62	0.160
1023.79	0.162
1023.95	0.162
1024.12	0.163
1024.28	0.162
1024.44	0.163
1024.61	0.163
1024.77	0.163
1024.93	0.163
1025.10	0.165
1025.26	0.162
1025.43	0.163
1025.59	0.159
1025.75	0.162
1025.92	0.161
1026.08	0.161
1026.24	0.160
1026.41	0.161
1026.57	0.159
1026.73	0.156
1026.90	0.159
1027.06	0.157
1027.23	0.158
1027.39	0.158
1027.55	0.158
1027.72	0.157
1027.88	0.156
1028.04	0.156
1028.21	0.157
1028.37	0.151
1028.53	0.156
1028.70	0.153
1028.86	0.152
1029.02	0.152
1029.19	0.154
1029.35	0.152
1029.51	0.150
1029.67	0.150
1029.84	0.153
1030.00	0.147
1030.16	0.147
1030.33	0.150
1030.49	0.148
1030.65	0.145
1030.82	0.159
1030.98	0.146
1031.14	0.146
1031.31	0.148
1031.47	0.145
1031.63	0.147
1031.79	0.148
1031.96	0.149
1032.12	0.150
1032.28	0.147
1032.45	0.151
1032.61	0.150
1032.77	0.149
1032.93	0.146
1033.10	0.147
1033.26	0.150
1033.42	0.147
1033.58	0.147
1033.75	0.148
1033.91	0.146
1034.07	0.149
1034.24	0.147
1034.40	0.146
1034.56	0.144
1034.72	0.145
1034.89	0.145
1035.05	0.143
1035.21	0.143
1035.37	0.142
1035.54	0.144
1035.70	0.142
1035.86	0.141
1036.02	0.142
1036.19	0.140
1036.35	0.139
1036.51	0.142
1036.67	0.139
1036.83	0.138
1037.00	0.137
1037.16	0.137
1037.32	0.138
1037.48	0.137
1037.65	0.142
1037.81	0.138
1037.97	0.136
1038.13	0.137
1038.29	0.136
1038.46	0.133
1038.62	0.137
1038.78	0.135
1038.94	0.132
1039.10	0.136
1039.27	0.132
1039.43	0.133
1039.59	0.133
1039.75	0.134
1039.91	0.132
1040.08	0.131
1040.24	0.134
1040.40	0.135
1040.56	0.134
1040.72	0.129
1040.89	0.132
1041.05	0.136
1041.21	0.134
1041.37	0.132
1041.53	0.139
1041.69	0.136
1041.86	0.135
1042.02	0.132
1042.18	0.133
1042.34	0.134
1042.50	0.138
1042.66	0.133
1042.83	0.130
1042.99	0.134
1043.15	0.129
1043.31	0.129
1043.47	0.133
1043.63	0.131
1043.79	0.131
1043.96	0.132
1044.12	0.136
1044.28	0.132
1044.44	0.134
1044.60	0.128
1044.76	0.126
1044.92	0.128
1045.09	0.129
1045.25	0.127
1045.41	0.127
1045.57	0.122
1045.73	0.122
1045.89	0.124
1046.05	0.127
1046.21	0.120
1046.38	0.126
1046.54	0.134
1046.70	0.132
1046.86	0.134
>>>>>End Processed Spectral Data<<<<<
