SpectraSuite Data File
++++++++++++++++++++++++++++++++++++
Date: Mon May 20 12:12:09 CDT 2013
User: Students
Dark Spectrum Present: Yes
Reference Spectrum Present: Yes
Number of Sampled Component Spectra: 1
Spectrometers: USB4H00887
Integration Time (usec): 60000 (USB4H00887)
Spectra Averaged: 5 (USB4H00887)
Boxcar Smoothing: 5 (USB4H00887)
Correct for Electrical Dark: No (USB4H00887)
Strobe/Lamp Enabled: No (USB4H00887)
Correct for Detector Non-linearity: No (USB4H00887)
Correct for Stray Light: No (USB4H00887)
Number of Pixels in Processed Spectrum: 3648
>>>>>Begin Processed Spectral Data<<<<<
345.83	0.159
346.05	0.159
346.26	0.159
346.48	-0.000
346.70	-0.000
346.92	0.059
347.14	0.067
347.35	0.090
347.57	1.243
347.79	-0.373
348.01	-0.263
348.23	-0.397
348.44	-0.000
348.66	0.373
348.88	-0.385
349.10	-0.107
349.32	0.066
349.53	0.008
349.75	0.029
349.97	0.025
350.19	0.070
350.41	0.058
350.62	0.037
350.84	0.004
351.06	-0.003
351.28	-0.031
351.50	-0.233
351.71	-0.163
351.93	-0.098
352.15	-0.021
352.37	-0.063
352.58	-0.019
352.80	-0.009
353.02	0.031
353.24	0.029
353.46	0.174
353.67	-0.046
353.89	0.021
354.11	0.039
354.33	0.045
354.54	0.088
354.76	0.177
354.98	0.335
355.20	0.339
355.41	0.129
355.63	0.258
355.85	0.132
356.07	-0.000
356.28	0.148
356.50	0.277
356.72	0.095
356.94	0.345
357.15	0.499
357.37	-0.000
357.59	0.170
357.81	0.128
358.02	0.195
358.24	0.116
358.46	0.264
358.68	0.230
358.89	0.109
359.11	-0.000
359.33	0.064
359.55	-0.467
359.76	0.099
359.98	0.119
360.20	0.082
360.42	0.075
360.63	0.060
360.85	-0.001
361.07	0.098
361.29	0.031
361.50	0.140
361.72	0.052
361.94	0.169
362.15	0.092
362.37	0.049
362.59	0.068
362.81	0.101
363.02	0.211
363.24	0.393
363.46	0.218
363.68	0.255
363.89	0.161
364.11	0.240
364.33	0.301
364.54	0.180
364.76	0.233
364.98	0.238
365.20	0.302
365.41	0.149
365.63	0.207
365.85	0.143
366.06	0.467
366.28	0.364
366.50	0.250
366.71	0.100
366.93	0.139
367.15	0.112
367.37	0.109
367.58	0.136
367.80	0.191
368.02	0.474
368.23	0.144
368.45	0.145
368.67	0.172
368.88	0.150
369.10	-0.000
369.32	0.144
369.53	0.094
369.75	0.131
369.97	0.299
370.19	0.160
370.40	0.063
370.62	0.148
370.84	0.074
371.05	0.373
371.27	0.113
371.49	0.161
371.70	0.175
371.92	0.260
372.14	0.118
372.35	0.128
372.57	0.169
372.79	0.560
373.00	0.119
373.22	0.198
373.44	0.172
373.65	0.132
373.87	0.146
374.09	0.764
374.30	0.149
374.52	0.176
374.74	0.122
374.95	0.438
375.17	0.118
375.39	-0.000
375.60	0.137
375.82	0.211
376.04	0.090
376.25	0.137
376.47	0.068
376.68	0.114
376.90	0.078
377.12	0.157
377.33	0.105
377.55	0.245
377.77	0.119
377.98	0.189
378.20	0.131
378.42	0.161
378.63	0.194
378.85	-0.000
379.07	0.143
379.28	0.492
379.50	0.324
379.71	0.167
379.93	0.112
380.15	0.172
380.36	0.255
380.58	0.178
380.80	0.559
381.01	0.157
381.23	0.143
381.44	0.157
381.66	0.198
381.88	0.239
382.09	-0.098
382.31	0.150
382.53	0.137
382.74	0.907
382.96	0.196
383.17	0.153
383.39	0.206
383.61	0.287
383.82	0.193
384.04	0.215
384.25	0.267
384.47	0.247
384.69	0.257
384.90	0.243
385.12	0.510
385.33	0.325
385.55	0.239
385.77	0.368
385.98	0.177
386.20	0.242
386.41	0.196
386.63	0.216
386.85	0.179
387.06	0.229
387.28	0.357
387.49	0.219
387.71	0.160
387.93	0.150
388.14	0.430
388.36	0.187
388.57	0.172
388.79	0.208
389.01	1.224
389.22	0.265
389.44	0.212
389.65	0.186
389.87	0.172
390.08	0.199
390.30	0.147
390.52	0.287
390.73	0.309
390.95	0.220
391.16	0.200
391.38	-0.000
391.59	0.238
391.81	0.206
392.03	0.181
392.24	0.222
392.46	0.184
392.67	0.172
392.89	0.230
393.10	0.322
393.32	0.211
393.53	0.257
393.75	0.155
393.97	0.167
394.18	0.230
394.40	0.206
394.61	0.227
394.83	0.202
395.04	0.244
395.26	0.165
395.47	0.245
395.69	0.216
395.91	0.226
396.12	0.287
396.34	0.285
396.55	0.175
396.77	0.252
396.98	0.632
397.20	0.271
397.41	0.291
397.63	0.218
397.84	0.193
398.06	0.180
398.27	0.184
398.49	0.222
398.71	0.167
398.92	0.210
399.14	0.272
399.35	0.340
399.57	0.326
399.78	0.229
400.00	0.219
400.21	0.259
400.43	0.215
400.64	0.217
400.86	0.400
401.07	0.242
401.29	0.209
401.50	0.215
401.72	0.294
401.93	0.194
402.15	0.225
402.36	0.201
402.58	0.182
402.79	0.202
403.01	0.311
403.22	0.256
403.44	0.189
403.65	0.286
403.87	0.314
404.08	0.259
404.30	0.383
404.51	0.230
404.73	0.275
404.94	0.244
405.16	0.254
405.37	0.208
405.59	0.331
405.80	0.215
406.02	0.257
406.23	0.258
406.45	0.275
406.66	0.298
406.88	0.203
407.09	0.286
407.31	0.234
407.52	0.266
407.74	0.227
407.95	0.268
408.17	0.260
408.38	0.270
408.60	0.184
408.81	0.290
409.03	0.223
409.24	0.225
409.45	0.270
409.67	0.257
409.88	0.233
410.10	0.279
410.31	0.241
410.53	0.232
410.74	0.299
410.96	0.295
411.17	0.297
411.39	0.251
411.60	0.231
411.82	0.252
412.03	0.240
412.24	0.233
412.46	0.315
412.67	0.267
412.89	0.257
413.10	0.257
413.32	0.237
413.53	0.273
413.75	0.274
413.96	0.226
414.17	0.280
414.39	0.287
414.60	0.249
414.82	0.311
415.03	0.259
415.25	0.285
415.46	0.209
415.68	0.282
415.89	0.427
416.10	0.363
416.32	0.225
416.53	0.256
416.75	0.245
416.96	0.281
417.18	0.246
417.39	0.238
417.60	0.231
417.82	0.299
418.03	0.271
418.25	0.235
418.46	0.244
418.67	0.233
418.89	0.254
419.10	0.256
419.32	0.316
419.53	0.291
419.75	0.265
419.96	0.245
420.17	0.288
420.39	0.271
420.60	0.279
420.82	0.333
421.03	0.286
421.24	0.247
421.46	0.272
421.67	0.287
421.89	0.259
422.10	0.270
422.31	0.265
422.53	0.342
422.74	0.285
422.96	0.240
423.17	0.257
423.38	0.297
423.60	0.262
423.81	0.308
424.03	0.275
424.24	0.298
424.45	0.292
424.67	0.294
424.88	0.271
425.09	0.286
425.31	0.273
425.52	0.285
425.74	0.315
425.95	0.338
426.16	0.279
426.38	0.318
426.59	0.300
426.80	0.337
427.02	0.346
427.23	0.298
427.45	0.356
427.66	0.342
427.87	0.284
428.09	0.293
428.30	0.308
428.51	0.308
428.73	0.326
428.94	0.297
429.15	0.291
429.37	0.284
429.58	0.289
429.79	0.278
430.01	0.317
430.22	0.316
430.44	0.320
430.65	0.299
430.86	0.317
431.08	0.307
431.29	0.291
431.50	0.332
431.72	0.393
431.93	0.348
432.14	0.282
432.36	0.309
432.57	0.316
432.78	0.320
433.00	0.302
433.21	0.300
433.42	0.352
433.64	0.321
433.85	0.345
434.06	0.302
434.28	0.312
434.49	0.319
434.70	0.317
434.92	0.316
435.13	0.337
435.34	0.337
435.56	0.324
435.77	0.323
435.98	0.379
436.20	0.339
436.41	0.302
436.62	0.299
436.83	0.326
437.05	0.354
437.26	0.323
437.47	0.297
437.69	0.321
437.90	0.298
438.11	0.295
438.33	0.312
438.54	0.322
438.75	0.372
438.97	0.369
439.18	0.308
439.39	0.318
439.60	0.342
439.82	0.324
440.03	0.307
440.24	0.390
440.46	0.328
440.67	0.321
440.88	0.333
441.10	0.320
441.31	0.321
441.52	0.341
441.73	0.364
441.95	0.334
442.16	0.320
442.37	0.414
442.58	0.316
442.80	0.309
443.01	0.360
443.22	0.342
443.44	0.310
443.65	0.343
443.86	0.344
444.07	0.360
444.29	0.330
444.50	0.379
444.71	0.319
444.92	0.304
445.14	0.358
445.35	0.371
445.56	0.320
445.78	0.353
445.99	0.352
446.20	0.316
446.41	0.343
446.63	0.344
446.84	0.334
447.05	0.338
447.26	0.377
447.48	0.341
447.69	0.332
447.90	0.362
448.11	0.336
448.33	0.347
448.54	0.356
448.75	0.366
448.96	0.371
449.18	0.384
449.39	0.358
449.60	0.351
449.81	0.393
450.03	0.361
450.24	0.379
450.45	0.368
450.66	0.359
450.87	0.371
451.09	0.352
451.30	0.343
451.51	0.366
451.72	0.372
451.94	0.376
452.15	0.393
452.36	0.351
452.57	0.359
452.78	0.358
453.00	0.370
453.21	0.356
453.42	0.352
453.63	0.383
453.85	0.371
454.06	0.369
454.27	0.409
454.48	0.384
454.69	0.365
454.91	0.386
455.12	0.353
455.33	0.380
455.54	0.385
455.75	0.375
455.97	0.381
456.18	0.381
456.39	0.381
456.60	0.389
456.81	0.373
457.03	0.373
457.24	0.371
457.45	0.398
457.66	0.380
457.87	0.367
458.09	0.376
458.30	0.351
458.51	0.392
458.72	0.399
458.93	0.401
459.15	0.370
459.36	0.394
459.57	0.402
459.78	0.419
459.99	0.392
460.20	0.382
460.42	0.404
460.63	0.393
460.84	0.387
461.05	0.395
461.26	0.412
461.47	0.389
461.69	0.404
461.90	0.416
462.11	0.401
462.32	0.420
462.53	0.404
462.74	0.434
462.96	0.395
463.17	0.392
463.38	0.405
463.59	0.435
463.80	0.391
464.01	0.401
464.23	0.429
464.44	0.418
464.65	0.422
464.86	0.425
465.07	0.428
465.28	0.421
465.49	0.428
465.71	0.415
465.92	0.429
466.13	0.444
466.34	0.424
466.55	0.439
466.76	0.426
466.97	0.431
467.19	0.431
467.40	0.440
467.61	0.441
467.82	0.417
468.03	0.411
468.24	0.433
468.45	0.442
468.66	0.436
468.88	0.438
469.09	0.442
469.30	0.456
469.51	0.436
469.72	0.449
469.93	0.442
470.14	0.439
470.35	0.465
470.57	0.450
470.78	0.434
470.99	0.472
471.20	0.455
471.41	0.443
471.62	0.458
471.83	0.451
472.04	0.458
472.25	0.470
472.47	0.449
472.68	0.449
472.89	0.451
473.10	0.464
473.31	0.452
473.52	0.468
473.73	0.474
473.94	0.452
474.15	0.459
474.36	0.459
474.57	0.466
474.79	0.458
475.00	0.462
475.21	0.457
475.42	0.482
475.63	0.456
475.84	0.465
476.05	0.467
476.26	0.460
476.47	0.469
476.68	0.483
476.89	0.465
477.10	0.480
477.32	0.476
477.53	0.490
477.74	0.470
477.95	0.481
478.16	0.467
478.37	0.479
478.58	0.480
478.79	0.485
479.00	0.484
479.21	0.473
479.42	0.484
479.63	0.485
479.84	0.476
480.05	0.474
480.26	0.484
480.47	0.490
480.69	0.489
480.90	0.482
481.11	0.482
481.32	0.499
481.53	0.483
481.74	0.497
481.95	0.487
482.16	0.490
482.37	0.493
482.58	0.483
482.79	0.488
483.00	0.497
483.21	0.482
483.42	0.475
483.63	0.494
483.84	0.501
484.05	0.500
484.26	0.493
484.47	0.493
484.68	0.484
484.89	0.485
485.10	0.499
485.31	0.494
485.52	0.494
485.73	0.494
485.94	0.505
486.15	0.492
486.37	0.495
486.58	0.486
486.79	0.489
487.00	0.503
487.21	0.503
487.42	0.502
487.63	0.504
487.84	0.509
488.05	0.508
488.26	0.498
488.47	0.500
488.68	0.509
488.89	0.503
489.10	0.503
489.31	0.504
489.52	0.511
489.73	0.503
489.94	0.512
490.15	0.502
490.36	0.513
490.57	0.500
490.78	0.496
490.99	0.506
491.20	0.523
491.41	0.513
491.62	0.499
491.83	0.507
492.04	0.505
492.25	0.507
492.45	0.508
492.66	0.513
492.87	0.512
493.08	0.509
493.29	0.505
493.50	0.505
493.71	0.505
493.92	0.505
494.13	0.510
494.34	0.517
494.55	0.517
494.76	0.525
494.97	0.524
495.18	0.514
495.39	0.518
495.60	0.506
495.81	0.506
496.02	0.513
496.23	0.511
496.44	0.518
496.65	0.517
496.86	0.519
497.07	0.525
497.28	0.524
497.49	0.512
497.70	0.512
497.91	0.518
498.12	0.513
498.32	0.524
498.53	0.520
498.74	0.517
498.95	0.523
499.16	0.513
499.37	0.513
499.58	0.515
499.79	0.525
500.00	0.523
500.21	0.530
500.42	0.517
500.63	0.516
500.84	0.522
501.05	0.518
501.26	0.525
501.46	0.533
501.67	0.526
501.88	0.527
502.09	0.520
502.30	0.522
502.51	0.532
502.72	0.522
502.93	0.526
503.14	0.532
503.35	0.524
503.56	0.523
503.77	0.531
503.97	0.524
504.18	0.525
504.39	0.534
504.60	0.528
504.81	0.536
505.02	0.534
505.23	0.534
505.44	0.529
505.65	0.532
505.86	0.527
506.07	0.542
506.27	0.533
506.48	0.535
506.69	0.531
506.90	0.536
507.11	0.535
507.32	0.530
507.53	0.533
507.74	0.529
507.95	0.533
508.15	0.535
508.36	0.536
508.57	0.538
508.78	0.533
508.99	0.533
509.20	0.527
509.41	0.533
509.62	0.529
509.82	0.528
510.03	0.532
510.24	0.533
510.45	0.538
510.66	0.536
510.87	0.535
511.08	0.526
511.29	0.537
511.49	0.531
511.70	0.542
511.91	0.526
512.12	0.526
512.33	0.534
512.54	0.537
512.75	0.533
512.95	0.540
513.16	0.538
513.37	0.532
513.58	0.542
513.79	0.533
514.00	0.534
514.20	0.538
514.41	0.535
514.62	0.527
514.83	0.538
515.04	0.536
515.25	0.530
515.46	0.533
515.66	0.534
515.87	0.536
516.08	0.529
516.29	0.535
516.50	0.531
516.71	0.529
516.91	0.531
517.12	0.535
517.33	0.531
517.54	0.527
517.75	0.528
517.95	0.531
518.16	0.534
518.37	0.526
518.58	0.527
518.79	0.520
519.00	0.528
519.20	0.529
519.41	0.523
519.62	0.527
519.83	0.530
520.04	0.521
520.24	0.520
520.45	0.522
520.66	0.528
520.87	0.519
521.08	0.518
521.28	0.519
521.49	0.524
521.70	0.515
521.91	0.519
522.12	0.514
522.32	0.520
522.53	0.515
522.74	0.512
522.95	0.515
523.16	0.514
523.36	0.516
523.57	0.511
523.78	0.511
523.99	0.512
524.20	0.510
524.40	0.514
524.61	0.515
524.82	0.509
525.03	0.509
525.23	0.508
525.44	0.504
525.65	0.504
525.86	0.510
526.06	0.502
526.27	0.503
526.48	0.505
526.69	0.499
526.90	0.501
527.10	0.510
527.31	0.497
527.52	0.495
527.73	0.493
527.93	0.495
528.14	0.496
528.35	0.493
528.56	0.493
528.76	0.492
528.97	0.488
529.18	0.485
529.39	0.485
529.59	0.486
529.80	0.495
530.01	0.487
530.22	0.486
530.42	0.476
530.63	0.482
530.84	0.474
531.05	0.478
531.25	0.480
531.46	0.477
531.67	0.471
531.88	0.477
532.08	0.475
532.29	0.474
532.50	0.473
532.70	0.471
532.91	0.468
533.12	0.468
533.33	0.476
533.53	0.466
533.74	0.465
533.95	0.467
534.15	0.464
534.36	0.465
534.57	0.459
534.78	0.460
534.98	0.463
535.19	0.452
535.40	0.453
535.60	0.461
535.81	0.453
536.02	0.455
536.23	0.451
536.43	0.452
536.64	0.448
536.85	0.451
537.05	0.453
537.26	0.445
537.47	0.446
537.67	0.442
537.88	0.439
538.09	0.442
538.30	0.439
538.50	0.436
538.71	0.440
538.92	0.435
539.12	0.433
539.33	0.431
539.54	0.432
539.74	0.435
539.95	0.432
540.16	0.431
540.36	0.428
540.57	0.428
540.78	0.425
540.98	0.425
541.19	0.424
541.40	0.420
541.60	0.425
541.81	0.423
542.02	0.423
542.22	0.419
542.43	0.418
542.64	0.416
542.84	0.416
543.05	0.412
543.26	0.413
543.46	0.415
543.67	0.414
543.88	0.412
544.08	0.408
544.29	0.406
544.50	0.406
544.70	0.406
544.91	0.403
545.12	0.403
545.32	0.402
545.53	0.404
545.74	0.399
545.94	0.398
546.15	0.398
546.35	0.397
546.56	0.395
546.77	0.395
546.97	0.395
547.18	0.391
547.39	0.391
547.59	0.391
547.80	0.389
548.01	0.391
548.21	0.389
548.42	0.385
548.62	0.385
548.83	0.384
549.04	0.382
549.24	0.379
549.45	0.379
549.65	0.378
549.86	0.377
550.07	0.377
550.27	0.376
550.48	0.381
550.69	0.374
550.89	0.375
551.10	0.374
551.30	0.374
551.51	0.374
551.72	0.369
551.92	0.371
552.13	0.372
552.33	0.372
552.54	0.370
552.75	0.366
552.95	0.368
553.16	0.366
553.36	0.365
553.57	0.364
553.78	0.364
553.98	0.365
554.19	0.360
554.39	0.358
554.60	0.360
554.80	0.360
555.01	0.357
555.22	0.358
555.42	0.356
555.63	0.353
555.83	0.355
556.04	0.353
556.25	0.354
556.45	0.349
556.66	0.348
556.86	0.351
557.07	0.350
557.27	0.350
557.48	0.347
557.68	0.346
557.89	0.347
558.10	0.345
558.30	0.343
558.51	0.343
558.71	0.343
558.92	0.341
559.12	0.342
559.33	0.344
559.54	0.342
559.74	0.340
559.95	0.339
560.15	0.340
560.36	0.339
560.56	0.337
560.77	0.337
560.97	0.337
561.18	0.334
561.38	0.333
561.59	0.336
561.79	0.333
562.00	0.332
562.21	0.330
562.41	0.329
562.62	0.329
562.82	0.327
563.03	0.326
563.23	0.326
563.44	0.326
563.64	0.324
563.85	0.326
564.05	0.321
564.26	0.321
564.46	0.321
564.67	0.323
564.87	0.320
565.08	0.319
565.28	0.319
565.49	0.320
565.69	0.319
565.90	0.317
566.10	0.319
566.31	0.316
566.51	0.317
566.72	0.318
566.92	0.314
567.13	0.315
567.33	0.314
567.54	0.313
567.74	0.313
567.95	0.311
568.15	0.312
568.36	0.312
568.56	0.311
568.77	0.308
568.97	0.307
569.18	0.307
569.38	0.306
569.59	0.307
569.79	0.306
570.00	0.305
570.20	0.304
570.41	0.303
570.61	0.302
570.82	0.303
571.02	0.301
571.23	0.303
571.43	0.301
571.64	0.301
571.84	0.301
572.05	0.300
572.25	0.299
572.45	0.299
572.66	0.297
572.86	0.297
573.07	0.297
573.27	0.297
573.48	0.297
573.68	0.294
573.89	0.294
574.09	0.294
574.30	0.293
574.50	0.292
574.70	0.293
574.91	0.291
575.11	0.291
575.32	0.292
575.52	0.289
575.73	0.289
575.93	0.290
576.14	0.289
576.34	0.288
576.54	0.288
576.75	0.287
576.95	0.286
577.16	0.285
577.36	0.285
577.57	0.285
577.77	0.284
577.97	0.282
578.18	0.283
578.38	0.281
578.59	0.280
578.79	0.279
579.00	0.280
579.20	0.280
579.40	0.280
579.61	0.279
579.81	0.278
580.02	0.277
580.22	0.277
580.42	0.276
580.63	0.277
580.83	0.277
581.04	0.275
581.24	0.275
581.45	0.274
581.65	0.274
581.85	0.274
582.06	0.273
582.26	0.273
582.47	0.273
582.67	0.273
582.87	0.272
583.08	0.270
583.28	0.270
583.48	0.269
583.69	0.267
583.89	0.268
584.10	0.268
584.30	0.267
584.50	0.266
584.71	0.265
584.91	0.265
585.12	0.264
585.32	0.265
585.52	0.263
585.73	0.263
585.93	0.263
586.13	0.262
586.34	0.262
586.54	0.262
586.75	0.261
586.95	0.261
587.15	0.262
587.36	0.260
587.56	0.259
587.76	0.259
587.97	0.259
588.17	0.257
588.37	0.257
588.58	0.257
588.78	0.254
588.98	0.255
589.19	0.254
589.39	0.252
589.60	0.254
589.80	0.252
590.00	0.252
590.21	0.253
590.41	0.252
590.61	0.252
590.82	0.252
591.02	0.252
591.22	0.251
591.43	0.252
591.63	0.251
591.83	0.251
592.04	0.250
592.24	0.251
592.44	0.248
592.65	0.247
592.85	0.248
593.05	0.249
593.26	0.248
593.46	0.247
593.66	0.248
593.86	0.247
594.07	0.246
594.27	0.246
594.47	0.245
594.68	0.245
594.88	0.246
595.08	0.245
595.29	0.245
595.49	0.243
595.69	0.243
595.90	0.242
596.10	0.243
596.30	0.243
596.50	0.242
596.71	0.242
596.91	0.241
597.11	0.241
597.32	0.241
597.52	0.240
597.72	0.240
597.93	0.240
598.13	0.239
598.33	0.239
598.53	0.238
598.74	0.238
598.94	0.238
599.14	0.237
599.35	0.237
599.55	0.238
599.75	0.237
599.95	0.236
600.16	0.237
600.36	0.235
600.56	0.235
600.76	0.235
600.97	0.233
601.17	0.233
601.37	0.234
601.58	0.233
601.78	0.233
601.98	0.232
602.18	0.231
602.39	0.231
602.59	0.232
602.79	0.231
602.99	0.231
603.20	0.230
603.40	0.230
603.60	0.230
603.80	0.230
604.01	0.229
604.21	0.229
604.41	0.228
604.61	0.227
604.82	0.227
605.02	0.228
605.22	0.227
605.42	0.227
605.62	0.227
605.83	0.226
606.03	0.225
606.23	0.226
606.43	0.225
606.64	0.226
606.84	0.225
607.04	0.225
607.24	0.225
607.45	0.225
607.65	0.223
607.85	0.225
608.05	0.223
608.25	0.223
608.46	0.223
608.66	0.223
608.86	0.222
609.06	0.221
609.26	0.220
609.47	0.221
609.67	0.220
609.87	0.222
610.07	0.221
610.28	0.220
610.48	0.220
610.68	0.220
610.88	0.219
611.08	0.220
611.29	0.219
611.49	0.219
611.69	0.219
611.89	0.217
612.09	0.217
612.29	0.217
612.50	0.216
612.70	0.216
612.90	0.215
613.10	0.215
613.30	0.214
613.51	0.214
613.71	0.214
613.91	0.219
614.11	0.213
614.31	0.213
614.51	0.213
614.72	0.212
614.92	0.212
615.12	0.212
615.32	0.212
615.52	0.212
615.72	0.213
615.93	0.212
616.13	0.212
616.33	0.212
616.53	0.212
616.73	0.212
616.93	0.211
617.14	0.211
617.34	0.211
617.54	0.211
617.74	0.211
617.94	0.210
618.14	0.209
618.34	0.209
618.55	0.208
618.75	0.209
618.95	0.209
619.15	0.209
619.35	0.208
619.55	0.207
619.75	0.208
619.96	0.207
620.16	0.207
620.36	0.207
620.56	0.207
620.76	0.206
620.96	0.206
621.16	0.206
621.36	0.206
621.57	0.206
621.77	0.207
621.97	0.206
622.17	0.206
622.37	0.205
622.57	0.205
622.77	0.205
622.97	0.204
623.18	0.204
623.38	0.204
623.58	0.204
623.78	0.203
623.98	0.203
624.18	0.202
624.38	0.201
624.58	0.202
624.78	0.203
624.98	0.203
625.19	0.202
625.39	0.202
625.59	0.201
625.79	0.202
625.99	0.202
626.19	0.202
626.39	0.202
626.59	0.202
626.79	0.201
626.99	0.201
627.19	0.200
627.40	0.200
627.60	0.200
627.80	0.199
628.00	0.199
628.20	0.198
628.40	0.198
628.60	0.198
628.80	0.197
629.00	0.198
629.20	0.197
629.40	0.198
629.60	0.196
629.80	0.197
630.00	0.197
630.20	0.197
630.41	0.196
630.61	0.196
630.81	0.196
631.01	0.195
631.21	0.195
631.41	0.195
631.61	0.195
631.81	0.195
632.01	0.194
632.21	0.194
632.41	0.193
632.61	0.193
632.81	0.193
633.01	0.193
633.21	0.193
633.41	0.194
633.61	0.192
633.81	0.192
634.01	0.192
634.21	0.192
634.41	0.191
634.61	0.191
634.81	0.190
635.01	0.190
635.22	0.191
635.42	0.190
635.62	0.190
635.82	0.190
636.02	0.189
636.22	0.189
636.42	0.188
636.62	0.188
636.82	0.189
637.02	0.188
637.22	0.189
637.42	0.188
637.62	0.187
637.82	0.187
638.02	0.186
638.22	0.186
638.42	0.186
638.62	0.186
638.82	0.186
639.02	0.186
639.22	0.185
639.42	0.185
639.62	0.185
639.82	0.184
640.02	0.184
640.22	0.184
640.42	0.184
640.62	0.184
640.82	0.184
641.02	0.183
641.22	0.183
641.42	0.182
641.61	0.182
641.81	0.183
642.01	0.183
642.21	0.183
642.41	0.183
642.61	0.182
642.81	0.181
643.01	0.181
643.21	0.181
643.41	0.181
643.61	0.181
643.81	0.181
644.01	0.179
644.21	0.179
644.41	0.179
644.61	0.179
644.81	0.179
645.01	0.179
645.21	0.178
645.41	0.178
645.61	0.178
645.81	0.177
646.01	0.177
646.21	0.178
646.40	0.177
646.60	0.177
646.80	0.177
647.00	0.176
647.20	0.175
647.40	0.175
647.60	0.175
647.80	0.175
648.00	0.175
648.20	0.175
648.40	0.174
648.60	0.174
648.80	0.174
649.00	0.174
649.20	0.175
649.39	0.174
649.59	0.173
649.79	0.173
649.99	0.173
650.19	0.172
650.39	0.171
650.59	0.171
650.79	0.171
650.99	0.170
651.19	0.169
651.39	0.169
651.58	0.169
651.78	0.168
651.98	0.168
652.18	0.168
652.38	0.168
652.58	0.169
652.78	0.168
652.98	0.168
653.18	0.168
653.38	0.168
653.57	0.168
653.77	0.169
653.97	0.168
654.17	0.168
654.37	0.167
654.57	0.167
654.77	0.166
654.97	0.166
655.16	0.166
655.36	0.166
655.56	0.165
655.76	0.164
655.96	0.164
656.16	0.163
656.36	0.163
656.56	0.163
656.75	0.163
656.95	0.162
657.15	0.162
657.35	0.162
657.55	0.161
657.75	0.162
657.95	0.162
658.14	0.161
658.34	0.161
658.54	0.161
658.74	0.161
658.94	0.160
659.14	0.160
659.34	0.160
659.53	0.160
659.73	0.159
659.93	0.159
660.13	0.158
660.33	0.159
660.53	0.158
660.72	0.159
660.92	0.158
661.12	0.158
661.32	0.158
661.52	0.157
661.72	0.157
661.91	0.156
662.11	0.156
662.31	0.156
662.51	0.156
662.71	0.155
662.90	0.155
663.10	0.154
663.30	0.154
663.50	0.153
663.70	0.153
663.90	0.153
664.09	0.153
664.29	0.152
664.49	0.152
664.69	0.152
664.89	0.152
665.08	0.152
665.28	0.151
665.48	0.151
665.68	0.150
665.88	0.151
666.07	0.150
666.27	0.150
666.47	0.150
666.67	0.150
666.87	0.149
667.06	0.148
667.26	0.148
667.46	0.148
667.66	0.148
667.85	0.148
668.05	0.148
668.25	0.148
668.45	0.148
668.65	0.147
668.84	0.147
669.04	0.147
669.24	0.147
669.44	0.146
669.63	0.146
669.83	0.146
670.03	0.145
670.23	0.145
670.42	0.144
670.62	0.144
670.82	0.143
671.02	0.143
671.22	0.142
671.41	0.142
671.61	0.142
671.81	0.142
672.01	0.143
672.20	0.143
672.40	0.142
672.60	0.142
672.80	0.142
672.99	0.142
673.19	0.142
673.39	0.141
673.58	0.141
673.78	0.141
673.98	0.140
674.18	0.140
674.37	0.139
674.57	0.138
674.77	0.139
674.97	0.139
675.16	0.139
675.36	0.138
675.56	0.138
675.75	0.138
675.95	0.137
676.15	0.137
676.35	0.137
676.54	0.137
676.74	0.137
676.94	0.137
677.13	0.136
677.33	0.136
677.53	0.136
677.73	0.136
677.92	0.135
678.12	0.135
678.32	0.135
678.51	0.135
678.71	0.135
678.91	0.134
679.11	0.134
679.30	0.134
679.50	0.133
679.70	0.133
679.89	0.133
680.09	0.133
680.29	0.132
680.48	0.132
680.68	0.131
680.88	0.131
681.07	0.131
681.27	0.130
681.47	0.130
681.66	0.130
681.86	0.130
682.06	0.129
682.25	0.129
682.45	0.129
682.65	0.129
682.84	0.128
683.04	0.128
683.24	0.128
683.43	0.129
683.63	0.128
683.83	0.128
684.02	0.128
684.22	0.128
684.42	0.127
684.61	0.127
684.81	0.127
685.01	0.127
685.20	0.126
685.40	0.126
685.60	0.126
685.79	0.126
685.99	0.126
686.19	0.125
686.38	0.125
686.58	0.125
686.77	0.125
686.97	0.125
687.17	0.125
687.36	0.125
687.56	0.124
687.76	0.124
687.95	0.124
688.15	0.124
688.34	0.124
688.54	0.123
688.74	0.122
688.93	0.122
689.13	0.122
689.33	0.122
689.52	0.121
689.72	0.121
689.91	0.121
690.11	0.120
690.31	0.120
690.50	0.120
690.70	0.120
690.89	0.120
691.09	0.119
691.29	0.119
691.48	0.119
691.68	0.119
691.87	0.119
692.07	0.119
692.27	0.118
692.46	0.118
692.66	0.118
692.85	0.118
693.05	0.118
693.25	0.118
693.44	0.117
693.64	0.117
693.83	0.117
694.03	0.117
694.22	0.116
694.42	0.116
694.62	0.117
694.81	0.117
695.01	0.116
695.20	0.116
695.40	0.115
695.59	0.115
695.79	0.115
695.99	0.115
696.18	0.115
696.38	0.115
696.57	0.115
696.77	0.114
696.96	0.114
697.16	0.114
697.36	0.113
697.55	0.113
697.75	0.113
697.94	0.113
698.14	0.113
698.33	0.113
698.53	0.113
698.72	0.112
698.92	0.112
699.11	0.112
699.31	0.112
699.51	0.112
699.70	0.112
699.90	0.112
700.09	0.112
700.29	0.111
700.48	0.111
700.68	0.111
700.87	0.111
701.07	0.110
701.26	0.110
701.46	0.110
701.65	0.109
701.85	0.109
702.04	0.109
702.24	0.109
702.43	0.109
702.63	0.108
702.82	0.108
703.02	0.108
703.21	0.108
703.41	0.108
703.60	0.108
703.80	0.107
703.99	0.107
704.19	0.107
704.38	0.106
704.58	0.106
704.77	0.106
704.97	0.106
705.16	0.106
705.36	0.106
705.55	0.106
705.75	0.106
705.94	0.106
706.14	0.106
706.33	0.106
706.53	0.106
706.72	0.106
706.92	0.105
707.11	0.105
707.31	0.104
707.50	0.105
707.70	0.105
707.89	0.104
708.09	0.104
708.28	0.104
708.48	0.104
708.67	0.103
708.86	0.104
709.06	0.104
709.25	0.104
709.45	0.104
709.64	0.103
709.84	0.103
710.03	0.102
710.23	0.102
710.42	0.102
710.62	0.102
710.81	0.102
711.00	0.102
711.20	0.101
711.39	0.101
711.59	0.101
711.78	0.101
711.98	0.101
712.17	0.101
712.37	0.100
712.56	0.100
712.75	0.100
712.95	0.100
713.14	0.100
713.34	0.100
713.53	0.100
713.73	0.100
713.92	0.101
714.11	0.100
714.31	0.100
714.50	0.100
714.70	0.101
714.89	0.100
715.08	0.100
715.28	0.100
715.47	0.100
715.67	0.100
715.86	0.100
716.06	0.100
716.25	0.099
716.44	0.099
716.64	0.099
716.83	0.099
717.03	0.098
717.22	0.098
717.41	0.098
717.61	0.098
717.80	0.098
717.99	0.098
718.19	0.098
718.38	0.098
718.58	0.097
718.77	0.097
718.96	0.097
719.16	0.097
719.35	0.097
719.55	0.097
719.74	0.097
719.93	0.097
720.13	0.097
720.32	0.096
720.51	0.096
720.71	0.096
720.90	0.096
721.10	0.096
721.29	0.096
721.48	0.096
721.68	0.096
721.87	0.096
722.06	0.096
722.26	0.096
722.45	0.096
722.64	0.096
722.84	0.096
723.03	0.096
723.22	0.096
723.42	0.096
723.61	0.096
723.80	0.096
724.00	0.096
724.19	0.096
724.38	0.096
724.58	0.095
724.77	0.095
724.96	0.095
725.16	0.095
725.35	0.095
725.54	0.095
725.74	0.095
725.93	0.095
726.12	0.095
726.32	0.095
726.51	0.095
726.70	0.095
726.90	0.096
727.09	0.095
727.28	0.095
727.48	0.095
727.67	0.094
727.86	0.094
728.06	0.094
728.25	0.094
728.44	0.094
728.64	0.094
728.83	0.094
729.02	0.094
729.21	0.094
729.41	0.094
729.60	0.094
729.79	0.094
729.99	0.094
730.18	0.094
730.37	0.094
730.56	0.094
730.76	0.093
730.95	0.093
731.14	0.093
731.34	0.093
731.53	0.093
731.72	0.093
731.91	0.093
732.11	0.093
732.30	0.093
732.49	0.093
732.69	0.093
732.88	0.093
733.07	0.093
733.26	0.093
733.46	0.092
733.65	0.093
733.84	0.092
734.03	0.093
734.23	0.093
734.42	0.093
734.61	0.092
734.80	0.092
735.00	0.092
735.19	0.093
735.38	0.093
735.57	0.093
735.77	0.093
735.96	0.093
736.15	0.092
736.34	0.092
736.54	0.093
736.73	0.093
736.92	0.093
737.11	0.093
737.31	0.093
737.50	0.093
737.69	0.093
737.88	0.093
738.07	0.093
738.27	0.093
738.46	0.093
738.65	0.093
738.84	0.093
739.04	0.093
739.23	0.093
739.42	0.092
739.61	0.092
739.80	0.092
740.00	0.092
740.19	0.091
740.38	0.091
740.57	0.091
740.76	0.091
740.96	0.091
741.15	0.091
741.34	0.091
741.53	0.091
741.72	0.091
741.92	0.091
742.11	0.091
742.30	0.091
742.49	0.091
742.68	0.091
742.88	0.091
743.07	0.090
743.26	0.090
743.45	0.090
743.64	0.089
743.84	0.089
744.03	0.089
744.22	0.089
744.41	0.088
744.60	0.088
744.79	0.088
744.99	0.088
745.18	0.088
745.37	0.088
745.56	0.088
745.75	0.088
745.94	0.088
746.14	0.089
746.33	0.089
746.52	0.089
746.71	0.089
746.90	0.089
747.09	0.089
747.28	0.088
747.48	0.088
747.67	0.088
747.86	0.088
748.05	0.088
748.24	0.088
748.43	0.088
748.62	0.088
748.82	0.088
749.01	0.088
749.20	0.088
749.39	0.088
749.58	0.088
749.77	0.088
749.96	0.088
750.16	0.088
750.35	0.087
750.54	0.087
750.73	0.087
750.92	0.087
751.11	0.087
751.30	0.087
751.49	0.087
751.68	0.086
751.88	0.086
752.07	0.086
752.26	0.086
752.45	0.086
752.64	0.086
752.83	0.086
753.02	0.086
753.21	0.085
753.40	0.085
753.60	0.085
753.79	0.085
753.98	0.085
754.17	0.085
754.36	0.085
754.55	0.085
754.74	0.085
754.93	0.085
755.12	0.085
755.31	0.085
755.50	0.085
755.70	0.084
755.89	0.084
756.08	0.084
756.27	0.084
756.46	0.084
756.65	0.084
756.84	0.084
757.03	0.084
757.22	0.084
757.41	0.084
757.60	0.083
757.79	0.084
757.98	0.084
758.17	0.084
758.36	0.084
758.56	0.083
758.75	0.083
758.94	0.083
759.13	0.083
759.32	0.083
759.51	0.083
759.70	0.083
759.89	0.082
760.08	0.083
760.27	0.082
760.46	0.082
760.65	0.082
760.84	0.082
761.03	0.082
761.22	0.082
761.41	0.082
761.60	0.082
761.79	0.082
761.98	0.082
762.17	0.082
762.36	0.082
762.55	0.082
762.74	0.081
762.93	0.081
763.12	0.081
763.31	0.081
763.50	0.081
763.69	0.081
763.88	0.081
764.07	0.080
764.26	0.081
764.45	0.080
764.64	0.080
764.83	0.080
765.02	0.080
765.21	0.080
765.40	0.080
765.59	0.080
765.78	0.080
765.97	0.081
766.16	0.081
766.35	0.080
766.54	0.080
766.73	0.080
766.92	0.080
767.11	0.080
767.30	0.080
767.49	0.080
767.68	0.080
767.87	0.079
768.06	0.079
768.25	0.079
768.44	0.079
768.63	0.079
768.82	0.079
769.01	0.078
769.20	0.078
769.39	0.078
769.58	0.079
769.77	0.079
769.96	0.078
770.15	0.078
770.34	0.079
770.53	0.078
770.72	0.078
770.91	0.078
771.10	0.079
771.29	0.078
771.47	0.078
771.66	0.078
771.85	0.078
772.04	0.078
772.23	0.078
772.42	0.077
772.61	0.078
772.80	0.078
772.99	0.078
773.18	0.078
773.37	0.078
773.56	0.078
773.75	0.078
773.94	0.078
774.13	0.077
774.31	0.078
774.50	0.078
774.69	0.077
774.88	0.077
775.07	0.077
775.26	0.077
775.45	0.077
775.64	0.077
775.83	0.077
776.02	0.076
776.21	0.076
776.40	0.076
776.58	0.076
776.77	0.076
776.96	0.076
777.15	0.076
777.34	0.076
777.53	0.076
777.72	0.076
777.91	0.076
778.10	0.076
778.28	0.076
778.47	0.076
778.66	0.076
778.85	0.075
779.04	0.075
779.23	0.075
779.42	0.075
779.61	0.075
779.79	0.075
779.98	0.074
780.17	0.075
780.36	0.074
780.55	0.074
780.74	0.074
780.93	0.074
781.12	0.074
781.30	0.074
781.49	0.074
781.68	0.074
781.87	0.075
782.06	0.075
782.25	0.075
782.44	0.075
782.62	0.075
782.81	0.075
783.00	0.075
783.19	0.075
783.38	0.075
783.57	0.075
783.75	0.074
783.94	0.074
784.13	0.074
784.32	0.074
784.51	0.074
784.70	0.074
784.88	0.074
785.07	0.073
785.26	0.073
785.45	0.073
785.64	0.073
785.83	0.073
786.01	0.073
786.20	0.073
786.39	0.073
786.58	0.073
786.77	0.073
786.95	0.073
787.14	0.073
787.33	0.073
787.52	0.073
787.71	0.073
787.90	0.073
788.08	0.073
788.27	0.073
788.46	0.073
788.65	0.073
788.84	0.073
789.02	0.073
789.21	0.073
789.40	0.073
789.59	0.072
789.77	0.072
789.96	0.072
790.15	0.072
790.34	0.072
790.53	0.072
790.71	0.072
790.90	0.072
791.09	0.072
791.28	0.072
791.46	0.072
791.65	0.072
791.84	0.072
792.03	0.072
792.22	0.072
792.40	0.072
792.59	0.072
792.78	0.072
792.97	0.072
793.15	0.072
793.34	0.072
793.53	0.072
793.72	0.072
793.90	0.071
794.09	0.072
794.28	0.072
794.47	0.072
794.65	0.071
794.84	0.071
795.03	0.071
795.22	0.071
795.40	0.071
795.59	0.071
795.78	0.071
795.97	0.071
796.15	0.071
796.34	0.071
796.53	0.071
796.71	0.071
796.90	0.072
797.09	0.072
797.28	0.072
797.46	0.072
797.65	0.071
797.84	0.071
798.02	0.071
798.21	0.071
798.40	0.071
798.59	0.071
798.77	0.071
798.96	0.070
799.15	0.070
799.33	0.070
799.52	0.070
799.71	0.070
799.90	0.070
800.08	0.070
800.27	0.070
800.46	0.070
800.64	0.070
800.83	0.070
801.02	0.070
801.20	0.070
801.39	0.070
801.58	0.070
801.76	0.070
801.95	0.070
802.14	0.070
802.32	0.070
802.51	0.070
802.70	0.069
802.88	0.069
803.07	0.070
803.26	0.069
803.44	0.069
803.63	0.069
803.82	0.069
804.00	0.069
804.19	0.069
804.38	0.069
804.56	0.069
804.75	0.069
804.94	0.069
805.12	0.069
805.31	0.069
805.50	0.069
805.68	0.069
805.87	0.069
806.06	0.069
806.24	0.069
806.43	0.069
806.62	0.069
806.80	0.069
806.99	0.069
807.17	0.069
807.36	0.069
807.55	0.069
807.73	0.069
807.92	0.069
808.11	0.069
808.29	0.069
808.48	0.068
808.66	0.068
808.85	0.068
809.04	0.068
809.22	0.068
809.41	0.068
809.59	0.068
809.78	0.068
809.97	0.067
810.15	0.067
810.34	0.067
810.53	0.067
810.71	0.067
810.90	0.067
811.08	0.067
811.27	0.067
811.45	0.067
811.64	0.067
811.83	0.067
812.01	0.067
812.20	0.067
812.38	0.068
812.57	0.068
812.76	0.068
812.94	0.068
813.13	0.068
813.31	0.068
813.50	0.068
813.68	0.068
813.87	0.067
814.06	0.068
814.24	0.068
814.43	0.067
814.61	0.067
814.80	0.067
814.98	0.068
815.17	0.068
815.36	0.067
815.54	0.068
815.73	0.068
815.91	0.068
816.10	0.068
816.28	0.068
816.47	0.068
816.65	0.068
816.84	0.068
817.03	0.068
817.21	0.068
817.40	0.068
817.58	0.068
817.77	0.068
817.95	0.068
818.14	0.068
818.32	0.068
818.51	0.069
818.69	0.069
818.88	0.068
819.06	0.068
819.25	0.068
819.43	0.068
819.62	0.068
819.80	0.068
819.99	0.068
820.18	0.068
820.36	0.068
820.55	0.068
820.73	0.068
820.92	0.068
821.10	0.068
821.29	0.068
821.47	0.068
821.66	0.068
821.84	0.068
822.03	0.068
822.21	0.068
822.40	0.068
822.58	0.068
822.77	0.068
822.95	0.068
823.14	0.068
823.32	0.068
823.50	0.068
823.69	0.068
823.87	0.068
824.06	0.068
824.24	0.068
824.43	0.068
824.61	0.068
824.80	0.068
824.98	0.069
825.17	0.069
825.35	0.069
825.54	0.069
825.72	0.069
825.91	0.069
826.09	0.069
826.28	0.069
826.46	0.069
826.64	0.069
826.83	0.069
827.01	0.069
827.20	0.069
827.38	0.069
827.57	0.069
827.75	0.069
827.94	0.069
828.12	0.070
828.31	0.070
828.49	0.070
828.67	0.070
828.86	0.070
829.04	0.070
829.23	0.070
829.41	0.071
829.60	0.071
829.78	0.071
829.96	0.072
830.15	0.071
830.33	0.071
830.52	0.072
830.70	0.072
830.88	0.072
831.07	0.072
831.25	0.072
831.44	0.072
831.62	0.072
831.81	0.072
831.99	0.072
832.17	0.072
832.36	0.072
832.54	0.072
832.73	0.072
832.91	0.072
833.09	0.072
833.28	0.072
833.46	0.072
833.65	0.072
833.83	0.073
834.01	0.073
834.20	0.073
834.38	0.073
834.56	0.073
834.75	0.073
834.93	0.074
835.12	0.074
835.30	0.073
835.48	0.074
835.67	0.073
835.85	0.073
836.03	0.073
836.22	0.073
836.40	0.074
836.59	0.074
836.77	0.073
836.95	0.074
837.14	0.074
837.32	0.073
837.50	0.074
837.69	0.074
837.87	0.074
838.05	0.074
838.24	0.074
838.42	0.074
838.60	0.074
838.79	0.075
838.97	0.074
839.15	0.075
839.34	0.075
839.52	0.075
839.70	0.075
839.89	0.075
840.07	0.074
840.25	0.074
840.44	0.074
840.62	0.074
840.80	0.074
840.99	0.074
841.17	0.074
841.35	0.074
841.54	0.074
841.72	0.074
841.90	0.074
842.09	0.074
842.27	0.075
842.45	0.075
842.64	0.075
842.82	0.075
843.00	0.075
843.19	0.075
843.37	0.075
843.55	0.075
843.73	0.075
843.92	0.075
844.10	0.075
844.28	0.075
844.47	0.075
844.65	0.074
844.83	0.075
845.01	0.075
845.20	0.075
845.38	0.075
845.56	0.075
845.75	0.075
845.93	0.075
846.11	0.075
846.29	0.076
846.48	0.076
846.66	0.076
846.84	0.076
847.02	0.075
847.21	0.075
847.39	0.075
847.57	0.075
847.76	0.076
847.94	0.076
848.12	0.076
848.30	0.076
848.49	0.076
848.67	0.076
848.85	0.076
849.03	0.076
849.22	0.076
849.40	0.076
849.58	0.076
849.76	0.076
849.95	0.076
850.13	0.076
850.31	0.076
850.49	0.076
850.67	0.076
850.86	0.076
851.04	0.076
851.22	0.076
851.40	0.076
851.59	0.076
851.77	0.076
851.95	0.076
852.13	0.076
852.31	0.076
852.50	0.076
852.68	0.076
852.86	0.076
853.04	0.076
853.23	0.076
853.41	0.076
853.59	0.076
853.77	0.076
853.95	0.076
854.14	0.076
854.32	0.076
854.50	0.076
854.68	0.076
854.86	0.076
855.04	0.076
855.23	0.076
855.41	0.076
855.59	0.076
855.77	0.077
855.95	0.077
856.14	0.077
856.32	0.077
856.50	0.077
856.68	0.077
856.86	0.077
857.04	0.077
857.23	0.077
857.41	0.077
857.59	0.077
857.77	0.076
857.95	0.076
858.13	0.076
858.32	0.076
858.50	0.076
858.68	0.076
858.86	0.076
859.04	0.076
859.22	0.076
859.41	0.076
859.59	0.076
859.77	0.076
859.95	0.076
860.13	0.077
860.31	0.076
860.49	0.076
860.68	0.076
860.86	0.076
861.04	0.076
861.22	0.076
861.40	0.076
861.58	0.076
861.76	0.076
861.94	0.076
862.13	0.076
862.31	0.076
862.49	0.076
862.67	0.076
862.85	0.076
863.03	0.076
863.21	0.076
863.39	0.077
863.57	0.077
863.76	0.077
863.94	0.077
864.12	0.077
864.30	0.077
864.48	0.077
864.66	0.077
864.84	0.077
865.02	0.077
865.20	0.077
865.38	0.077
865.57	0.077
865.75	0.078
865.93	0.078
866.11	0.078
866.29	0.078
866.47	0.079
866.65	0.079
866.83	0.079
867.01	0.078
867.19	0.078
867.37	0.078
867.55	0.078
867.73	0.078
867.92	0.078
868.10	0.078
868.28	0.078
868.46	0.078
868.64	0.077
868.82	0.077
869.00	0.078
869.18	0.078
869.36	0.077
869.54	0.077
869.72	0.078
869.90	0.078
870.08	0.078
870.26	0.078
870.44	0.078
870.62	0.078
870.80	0.078
870.98	0.078
871.16	0.078
871.34	0.078
871.53	0.078
871.71	0.078
871.89	0.078
872.07	0.078
872.25	0.078
872.43	0.078
872.61	0.079
872.79	0.079
872.97	0.079
873.15	0.079
873.33	0.079
873.51	0.079
873.69	0.079
873.87	0.079
874.05	0.079
874.23	0.079
874.41	0.079
874.59	0.079
874.77	0.078
874.95	0.079
875.13	0.079
875.31	0.079
875.49	0.079
875.67	0.079
875.85	0.079
876.03	0.079
876.21	0.080
876.39	0.080
876.57	0.080
876.75	0.081
876.93	0.080
877.11	0.080
877.29	0.080
877.47	0.080
877.65	0.080
877.82	0.081
878.00	0.080
878.18	0.080
878.36	0.080
878.54	0.080
878.72	0.080
878.90	0.080
879.08	0.080
879.26	0.080
879.44	0.080
879.62	0.080
879.80	0.080
879.98	0.080
880.16	0.080
880.34	0.079
880.52	0.080
880.70	0.079
880.88	0.080
881.06	0.080
881.24	0.080
881.42	0.080
881.59	0.080
881.77	0.079
881.95	0.080
882.13	0.080
882.31	0.080
882.49	0.080
882.67	0.081
882.85	0.081
883.03	0.081
883.21	0.080
883.39	0.080
883.57	0.081
883.75	0.081
883.92	0.081
884.10	0.081
884.28	0.081
884.46	0.082
884.64	0.081
884.82	0.081
885.00	0.081
885.18	0.081
885.36	0.081
885.54	0.081
885.71	0.081
885.89	0.081
886.07	0.081
886.25	0.081
886.43	0.081
886.61	0.081
886.79	0.081
886.97	0.081
887.15	0.082
887.32	0.081
887.50	0.082
887.68	0.081
887.86	0.081
888.04	0.082
888.22	0.082
888.40	0.081
888.57	0.082
888.75	0.082
888.93	0.082
889.11	0.082
889.29	0.082
889.47	0.082
889.65	0.082
889.82	0.082
890.00	0.083
890.18	0.082
890.36	0.083
890.54	0.083
890.72	0.083
890.90	0.083
891.07	0.083
891.25	0.083
891.43	0.082
891.61	0.082
891.79	0.082
891.97	0.082
892.14	0.082
892.32	0.082
892.50	0.082
892.68	0.082
892.86	0.083
893.03	0.082
893.21	0.083
893.39	0.083
893.57	0.083
893.75	0.084
893.93	0.084
894.10	0.084
894.28	0.084
894.46	0.084
894.64	0.084
894.82	0.084
894.99	0.084
895.17	0.084
895.35	0.084
895.53	0.084
895.71	0.083
895.88	0.083
896.06	0.083
896.24	0.083
896.42	0.083
896.59	0.083
896.77	0.083
896.95	0.083
897.13	0.083
897.31	0.083
897.48	0.083
897.66	0.084
897.84	0.083
898.02	0.084
898.19	0.083
898.37	0.084
898.55	0.083
898.73	0.084
898.91	0.084
899.08	0.084
899.26	0.084
899.44	0.084
899.62	0.084
899.79	0.084
899.97	0.085
900.15	0.084
900.33	0.084
900.50	0.085
900.68	0.084
900.86	0.084
901.04	0.085
901.21	0.084
901.39	0.085
901.57	0.085
901.74	0.084
901.92	0.084
902.10	0.085
902.28	0.085
902.45	0.085
902.63	0.085
902.81	0.085
902.99	0.086
903.16	0.086
903.34	0.086
903.52	0.086
903.69	0.086
903.87	0.086
904.05	0.086
904.22	0.086
904.40	0.086
904.58	0.086
904.76	0.086
904.93	0.086
905.11	0.086
905.29	0.086
905.46	0.086
905.64	0.086
905.82	0.086
905.99	0.086
906.17	0.086
906.35	0.086
906.53	0.087
906.70	0.087
906.88	0.087
907.06	0.087
907.23	0.087
907.41	0.088
907.59	0.088
907.76	0.088
907.94	0.088
908.12	0.088
908.29	0.088
908.47	0.088
908.65	0.088
908.82	0.088
909.00	0.088
909.18	0.088
909.35	0.088
909.53	0.088
909.71	0.088
909.88	0.088
910.06	0.088
910.23	0.088
910.41	0.088
910.59	0.088
910.76	0.088
910.94	0.088
911.12	0.089
911.29	0.089
911.47	0.089
911.65	0.089
911.82	0.089
912.00	0.090
912.17	0.090
912.35	0.090
912.53	0.090
912.70	0.090
912.88	0.090
913.06	0.090
913.23	0.090
913.41	0.090
913.58	0.091
913.76	0.091
913.94	0.091
914.11	0.091
914.29	0.091
914.46	0.092
914.64	0.091
914.82	0.091
914.99	0.092
915.17	0.092
915.34	0.092
915.52	0.091
915.70	0.092
915.87	0.092
916.05	0.092
916.22	0.092
916.40	0.092
916.57	0.092
916.75	0.092
916.93	0.092
917.10	0.092
917.28	0.092
917.45	0.092
917.63	0.092
917.80	0.092
917.98	0.092
918.16	0.092
918.33	0.092
918.51	0.093
918.68	0.093
918.86	0.093
919.03	0.093
919.21	0.094
919.39	0.094
919.56	0.094
919.74	0.095
919.91	0.095
920.09	0.095
920.26	0.095
920.44	0.095
920.61	0.095
920.79	0.096
920.96	0.096
921.14	0.096
921.31	0.096
921.49	0.096
921.67	0.096
921.84	0.097
922.02	0.097
922.19	0.097
922.37	0.098
922.54	0.098
922.72	0.098
922.89	0.098
923.07	0.098
923.24	0.099
923.42	0.099
923.59	0.100
923.77	0.100
923.94	0.100
924.12	0.100
924.29	0.101
924.47	0.101
924.64	0.102
924.82	0.102
924.99	0.102
925.17	0.103
925.34	0.103
925.52	0.103
925.69	0.103
925.87	0.103
926.04	0.103
926.22	0.104
926.39	0.103
926.57	0.104
926.74	0.104
926.91	0.104
927.09	0.104
927.26	0.104
927.44	0.105
927.61	0.105
927.79	0.105
927.96	0.106
928.14	0.107
928.31	0.108
928.49	0.108
928.66	0.108
928.84	0.109
929.01	0.109
929.18	0.110
929.36	0.111
929.53	0.111
929.71	0.111
929.88	0.111
930.06	0.111
930.23	0.112
930.41	0.112
930.58	0.112
930.75	0.113
930.93	0.113
931.10	0.113
931.28	0.114
931.45	0.114
931.63	0.115
931.80	0.115
931.97	0.116
932.15	0.116
932.32	0.116
932.50	0.117
932.67	0.117
932.84	0.118
933.02	0.119
933.19	0.119
933.37	0.119
933.54	0.120
933.71	0.120
933.89	0.121
934.06	0.121
934.24	0.122
934.41	0.122
934.58	0.123
934.76	0.123
934.93	0.123
935.11	0.123
935.28	0.124
935.45	0.124
935.63	0.125
935.80	0.125
935.98	0.126
936.15	0.126
936.32	0.127
936.50	0.127
936.67	0.128
936.84	0.128
937.02	0.129
937.19	0.130
937.36	0.131
937.54	0.131
937.71	0.132
937.89	0.132
938.06	0.132
938.23	0.133
938.41	0.133
938.58	0.133
938.75	0.134
938.93	0.134
939.10	0.134
939.27	0.134
939.45	0.136
939.62	0.136
939.79	0.137
939.97	0.137
940.14	0.138
940.31	0.139
940.49	0.139
940.66	0.139
940.83	0.140
941.01	0.141
941.18	0.142
941.35	0.143
941.53	0.143
941.70	0.144
941.87	0.145
942.05	0.145
942.22	0.146
942.39	0.147
942.57	0.148
942.74	0.149
942.91	0.148
943.08	0.149
943.26	0.149
943.43	0.150
943.60	0.151
943.78	0.151
943.95	0.152
944.12	0.152
944.29	0.153
944.47	0.154
944.64	0.154
944.81	0.156
944.99	0.156
945.16	0.157
945.33	0.158
945.50	0.159
945.68	0.159
945.85	0.160
946.02	0.162
946.20	0.163
946.37	0.164
946.54	0.164
946.71	0.165
946.89	0.166
947.06	0.167
947.23	0.167
947.40	0.169
947.58	0.169
947.75	0.170
947.92	0.170
948.09	0.171
948.27	0.172
948.44	0.173
948.61	0.174
948.78	0.175
948.96	0.177
949.13	0.177
949.30	0.178
949.47	0.179
949.65	0.181
949.82	0.183
949.99	0.183
950.16	0.185
950.33	0.186
950.51	0.187
950.68	0.189
950.85	0.189
951.02	0.191
951.20	0.192
951.37	0.193
951.54	0.194
951.71	0.195
951.88	0.196
952.06	0.197
952.23	0.197
952.40	0.199
952.57	0.200
952.74	0.202
952.92	0.203
953.09	0.204
953.26	0.206
953.43	0.206
953.60	0.207
953.77	0.208
953.95	0.209
954.12	0.212
954.29	0.212
954.46	0.215
954.63	0.217
954.81	0.218
954.98	0.218
955.15	0.220
955.32	0.221
955.49	0.221
955.66	0.222
955.84	0.223
956.01	0.224
956.18	0.226
956.35	0.227
956.52	0.226
956.69	0.228
956.87	0.228
957.04	0.229
957.21	0.232
957.38	0.232
957.55	0.233
957.72	0.235
957.89	0.235
958.07	0.236
958.24	0.238
958.41	0.240
958.58	0.239
958.75	0.240
958.92	0.242
959.09	0.243
959.26	0.243
959.44	0.244
959.61	0.245
959.78	0.246
959.95	0.248
960.12	0.248
960.29	0.250
960.46	0.249
960.63	0.249
960.81	0.249
960.98	0.250
961.15	0.250
961.32	0.251
961.49	0.250
961.66	0.251
961.83	0.251
962.00	0.251
962.17	0.252
962.34	0.252
962.52	0.253
962.69	0.254
962.86	0.254
963.03	0.255
963.20	0.256
963.37	0.255
963.54	0.256
963.71	0.256
963.88	0.256
964.05	0.256
964.22	0.257
964.39	0.256
964.56	0.257
964.74	0.257
964.91	0.257
965.08	0.257
965.25	0.258
965.42	0.258
965.59	0.259
965.76	0.259
965.93	0.261
966.10	0.259
966.27	0.259
966.44	0.259
966.61	0.260
966.78	0.260
966.95	0.259
967.12	0.260
967.29	0.262
967.46	0.261
967.63	0.260
967.80	0.261
967.97	0.260
968.14	0.260
968.32	0.261
968.49	0.261
968.66	0.260
968.83	0.260
969.00	0.260
969.17	0.260
969.34	0.261
969.51	0.263
969.68	0.261
969.85	0.262
970.02	0.263
970.19	0.263
970.36	0.264
970.53	0.264
970.70	0.262
970.87	0.263
971.04	0.262
971.21	0.263
971.38	0.263
971.55	0.263
971.72	0.263
971.89	0.264
972.06	0.263
972.23	0.263
972.40	0.263
972.57	0.262
972.74	0.263
972.91	0.263
973.07	0.263
973.24	0.263
973.41	0.263
973.58	0.262
973.75	0.274
973.92	0.262
974.09	0.262
974.26	0.261
974.43	0.261
974.60	0.262
974.77	0.263
974.94	0.261
975.11	0.263
975.28	0.264
975.45	0.262
975.62	0.263
975.79	0.264
975.96	0.263
976.13	0.262
976.30	0.264
976.47	0.262
976.64	0.263
976.80	0.264
976.97	0.263
977.14	0.263
977.31	0.263
977.48	0.263
977.65	0.262
977.82	0.261
977.99	0.262
978.16	0.262
978.33	0.262
978.50	0.260
978.67	0.260
978.83	0.260
979.00	0.260
979.17	0.259
979.34	0.258
979.51	0.258
979.68	0.258
979.85	0.258
980.02	0.258
980.19	0.256
980.36	0.258
980.52	0.259
980.69	0.257
980.86	0.258
981.03	0.258
981.20	0.257
981.37	0.258
981.54	0.258
981.71	0.257
981.88	0.258
982.04	0.258
982.21	0.257
982.38	0.259
982.55	0.257
982.72	0.256
982.89	0.257
983.06	0.256
983.22	0.255
983.39	0.256
983.56	0.255
983.73	0.255
983.90	0.254
984.07	0.255
984.24	0.254
984.40	0.254
984.57	0.252
984.74	0.255
984.91	0.256
985.08	0.253
985.25	0.251
985.41	0.252
985.58	0.252
985.75	0.254
985.92	0.253
986.09	0.252
986.26	0.251
986.42	0.250
986.59	0.249
986.76	0.251
986.93	0.251
987.10	0.252
987.27	0.249
987.43	0.247
987.60	0.249
987.77	0.249
987.94	0.247
988.11	0.248
988.27	0.248
988.44	0.248
988.61	0.246
988.78	0.244
988.95	0.245
989.11	0.246
989.28	0.244
989.45	0.243
989.62	0.243
989.79	0.244
989.95	0.243
990.12	0.244
990.29	0.243
990.46	0.242
990.62	0.240
990.79	0.241
990.96	0.241
991.13	0.241
991.30	0.240
991.46	0.239
991.63	0.238
991.80	0.237
991.97	0.237
992.13	0.238
992.30	0.238
992.47	0.237
992.64	0.237
992.80	0.237
992.97	0.237
993.14	0.235
993.31	0.233
993.47	0.235
993.64	0.234
993.81	0.233
993.98	0.234
994.14	0.233
994.31	0.232
994.48	0.233
994.64	0.233
994.81	0.232
994.98	0.231
995.15	0.229
995.31	0.229
995.48	0.229
995.65	0.231
995.82	0.228
995.98	0.226
996.15	0.227
996.32	0.229
996.48	0.228
996.65	0.227
996.82	0.225
996.99	0.226
997.15	0.226
997.32	0.227
997.49	0.225
997.65	0.226
997.82	0.225
997.99	0.224
998.15	0.225
998.32	0.226
998.49	0.225
998.65	0.225
998.82	0.224
998.99	0.223
999.15	0.223
999.32	0.223
999.49	0.222
999.65	0.222
999.82	0.219
999.99	0.219
1000.15	0.219
1000.32	0.219
1000.49	0.218
1000.65	0.216
1000.82	0.216
1000.99	0.216
1001.15	0.216
1001.32	0.215
1001.49	0.216
1001.65	0.215
1001.82	0.218
1001.99	0.214
1002.15	0.213
1002.32	0.214
1002.49	0.215
1002.65	0.213
1002.82	0.211
1002.99	0.211
1003.15	0.213
1003.32	0.212
1003.48	0.212
1003.65	0.212
1003.82	0.210
1003.98	0.208
1004.15	0.207
1004.32	0.207
1004.48	0.207
1004.65	0.209
1004.81	0.206
1004.98	0.205
1005.15	0.206
1005.31	0.206
1005.48	0.204
1005.64	0.204
1005.81	0.206
1005.98	0.203
1006.14	0.203
1006.31	0.202
1006.47	0.201
1006.64	0.200
1006.81	0.200
1006.97	0.199
1007.14	0.199
1007.30	0.200
1007.47	0.201
1007.63	0.199
1007.80	0.199
1007.97	0.198
1008.13	0.199
1008.30	0.199
1008.46	0.199
1008.63	0.197
1008.79	0.196
1008.96	0.196
1009.13	0.197
1009.29	0.194
1009.46	0.194
1009.62	0.194
1009.79	0.192
1009.95	0.192
1010.12	0.193
1010.28	0.193
1010.45	0.192
1010.62	0.192
1010.78	0.190
1010.95	0.189
1011.11	0.190
1011.28	0.190
1011.44	0.192
1011.61	0.190
1011.77	0.189
1011.94	0.188
1012.10	0.188
1012.27	0.188
1012.43	0.188
1012.60	0.187
1012.76	0.186
1012.93	0.185
1013.10	0.184
1013.26	0.180
1013.43	0.182
1013.59	0.189
1013.76	0.182
1013.92	0.181
1014.09	0.180
1014.25	0.180
1014.42	0.182
1014.58	0.181
1014.75	0.184
1014.91	0.182
1015.08	0.184
1015.24	0.181
1015.41	0.181
1015.57	0.181
1015.73	0.181
1015.90	0.179
1016.06	0.180
1016.23	0.178
1016.39	0.179
1016.56	0.179
1016.72	0.178
1016.89	0.178
1017.05	0.180
1017.22	0.177
1017.38	0.178
1017.55	0.177
1017.71	0.178
1017.88	0.177
1018.04	0.178
1018.21	0.175
1018.37	0.175
1018.53	0.175
1018.70	0.174
1018.86	0.172
1019.03	0.174
1019.19	0.172
1019.36	0.171
1019.52	0.173
1019.69	0.173
1019.85	0.172
1020.01	0.174
1020.18	0.171
1020.34	0.173
1020.51	0.172
1020.67	0.174
1020.84	0.172
1021.00	0.173
1021.16	0.170
1021.33	0.171
1021.49	0.169
1021.66	0.170
1021.82	0.167
1021.98	0.167
1022.15	0.165
1022.31	0.165
1022.48	0.164
1022.64	0.165
1022.80	0.163
1022.97	0.162
1023.13	0.161
1023.30	0.162
1023.46	0.164
1023.62	0.162
1023.79	0.164
1023.95	0.165
1024.12	0.165
1024.28	0.163
1024.44	0.164
1024.61	0.163
1024.77	0.162
1024.93	0.162
1025.10	0.163
1025.26	0.160
1025.43	0.161
1025.59	0.155
1025.75	0.159
1025.92	0.157
1026.08	0.156
1026.24	0.155
1026.41	0.156
1026.57	0.155
1026.73	0.153
1026.90	0.155
1027.06	0.153
1027.23	0.153
1027.39	0.154
1027.55	0.155
1027.72	0.154
1027.88	0.154
1028.04	0.155
1028.21	0.155
1028.37	0.148
1028.53	0.153
1028.70	0.151
1028.86	0.149
1029.02	0.150
1029.19	0.151
1029.35	0.148
1029.51	0.148
1029.67	0.147
1029.84	0.148
1030.00	0.144
1030.16	0.145
1030.33	0.148
1030.49	0.146
1030.65	0.144
1030.82	0.159
1030.98	0.146
1031.14	0.146
1031.31	0.146
1031.47	0.144
1031.63	0.147
1031.79	0.146
1031.96	0.146
1032.12	0.147
1032.28	0.144
1032.45	0.150
1032.61	0.148
1032.77	0.146
1032.93	0.143
1033.10	0.143
1033.26	0.145
1033.42	0.143
1033.58	0.143
1033.75	0.145
1033.91	0.142
1034.07	0.145
1034.24	0.142
1034.40	0.140
1034.56	0.140
1034.72	0.141
1034.89	0.143
1035.05	0.140
1035.21	0.141
1035.37	0.139
1035.54	0.141
1035.70	0.140
1035.86	0.140
1036.02	0.141
1036.19	0.139
1036.35	0.137
1036.51	0.141
1036.67	0.138
1036.83	0.137
1037.00	0.137
1037.16	0.137
1037.32	0.137
1037.48	0.136
1037.65	0.140
1037.81	0.136
1037.97	0.136
1038.13	0.137
1038.29	0.136
1038.46	0.134
1038.62	0.138
1038.78	0.135
1038.94	0.133
1039.10	0.138
1039.27	0.134
1039.43	0.136
1039.59	0.135
1039.75	0.136
1039.91	0.135
1040.08	0.134
1040.24	0.136
1040.40	0.138
1040.56	0.137
1040.72	0.131
1040.89	0.132
1041.05	0.135
1041.21	0.133
1041.37	0.132
1041.53	0.136
1041.69	0.133
1041.86	0.132
1042.02	0.129
1042.18	0.129
1042.34	0.130
1042.50	0.134
1042.66	0.130
1042.83	0.128
1042.99	0.131
1043.15	0.126
1043.31	0.127
1043.47	0.132
1043.63	0.129
1043.79	0.129
1043.96	0.131
1044.12	0.136
1044.28	0.134
1044.44	0.137
1044.60	0.132
1044.76	0.129
1044.92	0.133
1045.09	0.136
1045.25	0.132
1045.41	0.133
1045.57	0.127
1045.73	0.127
1045.89	0.126
1046.05	0.126
1046.21	0.128
1046.38	0.127
1046.54	0.129
1046.70	0.120
1046.86	0.112
>>>>>End Processed Spectral Data<<<<<
