SpectraSuite Data File
++++++++++++++++++++++++++++++++++++
Date: Mon May 20 12:13:44 CDT 2013
User: Students
Dark Spectrum Present: Yes
Reference Spectrum Present: Yes
Number of Sampled Component Spectra: 1
Spectrometers: USB4H00887
Integration Time (usec): 60000 (USB4H00887)
Spectra Averaged: 5 (USB4H00887)
Boxcar Smoothing: 5 (USB4H00887)
Correct for Electrical Dark: No (USB4H00887)
Strobe/Lamp Enabled: No (USB4H00887)
Correct for Detector Non-linearity: No (USB4H00887)
Correct for Stray Light: No (USB4H00887)
Number of Pixels in Processed Spectrum: 3648
>>>>>Begin Processed Spectral Data<<<<<
345.83	0.533
346.05	0.533
346.26	0.533
346.48	-0.000
346.70	-0.237
346.92	0.021
347.14	0.045
347.35	0.065
347.57	0.488
347.79	-0.304
348.01	-0.175
348.23	-0.313
348.44	-0.000
348.66	0.291
348.88	-0.393
349.10	-0.157
349.32	0.041
349.53	-0.002
349.75	0.017
349.97	0.003
350.19	0.047
350.41	0.059
350.62	-0.075
350.84	-0.004
351.06	-0.009
351.28	-0.010
351.50	-0.113
351.71	-0.142
351.93	-0.089
352.15	-0.006
352.37	0.014
352.58	0.005
352.80	0.015
353.02	0.062
353.24	0.138
353.46	-0.000
353.67	-0.273
353.89	0.101
354.11	0.084
354.33	0.103
354.54	0.133
354.76	0.185
354.98	0.367
355.20	0.262
355.41	0.099
355.63	0.146
355.85	0.083
356.07	0.980
356.28	0.080
356.50	0.186
356.72	0.058
356.94	0.167
357.15	0.303
357.37	-0.000
357.59	0.151
357.81	0.107
358.02	0.179
358.24	0.119
358.46	0.201
358.68	0.172
358.89	0.076
359.11	-0.000
359.33	0.061
359.55	-0.477
359.76	0.073
359.98	0.088
360.20	0.106
360.42	0.083
360.63	0.065
360.85	0.041
361.07	0.171
361.29	0.051
361.50	0.147
361.72	0.068
361.94	0.223
362.15	0.106
362.37	0.059
362.59	0.061
362.81	0.099
363.02	0.224
363.24	0.395
363.46	0.263
363.68	0.374
363.89	0.231
364.11	0.322
364.33	0.428
364.54	0.248
364.76	0.315
364.98	0.320
365.20	0.363
365.41	0.188
365.63	0.235
365.85	0.149
366.06	0.389
366.28	0.382
366.50	0.252
366.71	0.079
366.93	0.119
367.15	0.114
367.37	0.117
367.58	0.165
367.80	0.204
368.02	0.639
368.23	0.153
368.45	0.153
368.67	0.138
368.88	0.135
369.10	-0.000
369.32	0.165
369.53	0.101
369.75	0.167
369.97	0.396
370.19	0.244
370.40	0.096
370.62	0.423
370.84	0.148
371.05	-0.000
371.27	0.240
371.49	0.221
371.70	0.292
371.92	0.536
372.14	0.180
372.35	0.195
372.57	0.219
372.79	0.695
373.00	0.117
373.22	0.201
373.44	0.190
373.65	0.122
373.87	0.136
374.09	0.424
374.30	0.098
374.52	0.100
374.74	0.067
374.95	0.201
375.17	0.071
375.39	-0.000
375.60	0.090
375.82	0.156
376.04	0.091
376.25	0.145
376.47	0.086
376.68	0.225
376.90	0.142
377.12	0.342
377.33	0.159
377.55	0.436
377.77	0.184
377.98	0.295
378.20	0.164
378.42	0.185
378.63	0.232
378.85	-0.000
379.07	0.172
379.28	0.742
379.50	0.383
379.71	0.196
379.93	0.134
380.15	0.208
380.36	0.323
380.58	0.249
380.80	0.943
381.01	0.198
381.23	0.164
381.44	0.169
381.66	0.194
381.88	0.233
382.09	-0.101
382.31	0.172
382.53	0.177
382.74	-0.000
382.96	0.225
383.17	0.178
383.39	0.237
383.61	0.297
383.82	0.206
384.04	0.253
384.25	0.321
384.47	0.298
384.69	0.254
384.90	0.218
385.12	0.404
385.33	0.274
385.55	0.223
385.77	0.347
385.98	0.171
386.20	0.243
386.41	0.200
386.63	0.216
386.85	0.179
387.06	0.229
387.28	0.354
387.49	0.248
387.71	0.176
387.93	0.148
388.14	0.477
388.36	0.204
388.57	0.179
388.79	0.204
389.01	1.296
389.22	0.255
389.44	0.222
389.65	0.181
389.87	0.193
390.08	0.238
390.30	0.183
390.52	0.328
390.73	0.345
390.95	0.257
391.16	0.245
391.38	-0.000
391.59	0.302
391.81	0.255
392.03	0.251
392.24	0.278
392.46	0.224
392.67	0.201
392.89	0.282
393.10	0.407
393.32	0.269
393.53	0.301
393.75	0.199
393.97	0.233
394.18	0.312
394.40	0.270
394.61	0.300
394.83	0.258
395.04	0.320
395.26	0.220
395.47	0.343
395.69	0.273
395.91	0.305
396.12	0.357
396.34	0.339
396.55	0.211
396.77	0.321
396.98	1.267
397.20	0.374
397.41	0.410
397.63	0.276
397.84	0.247
398.06	0.233
398.27	0.232
398.49	0.271
398.71	0.197
398.92	0.257
399.14	0.324
399.35	0.401
399.57	0.371
399.78	0.259
400.00	0.265
400.21	0.332
400.43	0.286
400.64	0.303
400.86	0.703
401.07	0.386
401.29	0.317
401.50	0.326
401.72	0.472
401.93	0.313
402.15	0.376
402.36	0.324
402.58	0.269
402.79	0.278
403.01	0.460
403.22	0.373
403.44	0.256
403.65	0.408
403.87	0.473
404.08	0.363
404.30	0.586
404.51	0.316
404.73	0.386
404.94	0.339
405.16	0.355
405.37	0.273
405.59	0.467
405.80	0.288
406.02	0.354
406.23	0.355
406.45	0.398
406.66	0.432
406.88	0.293
407.09	0.443
407.31	0.352
407.52	0.427
407.74	0.345
407.95	0.422
408.17	0.396
408.38	0.419
408.60	0.268
408.81	0.454
409.03	0.333
409.24	0.325
409.45	0.377
409.67	0.361
409.88	0.324
410.10	0.408
410.31	0.342
410.53	0.331
410.74	0.462
410.96	0.461
411.17	0.483
411.39	0.381
411.60	0.360
411.82	0.411
412.03	0.389
412.24	0.377
412.46	0.571
412.67	0.471
412.89	0.471
413.10	0.469
413.32	0.434
413.53	0.501
413.75	0.509
413.96	0.377
414.17	0.514
414.39	0.535
414.60	0.434
414.82	0.555
415.03	0.416
415.25	0.460
415.46	0.316
415.68	0.439
415.89	0.807
416.10	0.672
416.32	0.379
416.53	0.441
416.75	0.416
416.96	0.499
417.18	0.438
417.39	0.420
417.60	0.423
417.82	0.634
418.03	0.545
418.25	0.442
418.46	0.453
418.67	0.414
418.89	0.456
419.10	0.470
419.32	0.646
419.53	0.584
419.75	0.502
419.96	0.431
420.17	0.514
420.39	0.483
420.60	0.500
420.82	0.618
421.03	0.490
421.24	0.404
421.46	0.444
421.67	0.474
421.89	0.408
422.10	0.434
422.31	0.433
422.53	0.606
422.74	0.460
422.96	0.373
423.17	0.411
423.38	0.505
423.60	0.437
423.81	0.539
424.03	0.474
424.24	0.523
424.45	0.530
424.67	0.517
424.88	0.473
425.09	0.509
425.31	0.481
425.52	0.514
425.74	0.562
425.95	0.613
426.16	0.486
426.38	0.561
426.59	0.520
426.80	0.595
427.02	0.632
427.23	0.483
427.45	0.621
427.66	0.598
427.87	0.464
428.09	0.499
428.30	0.552
428.51	0.532
428.73	0.582
428.94	0.517
429.15	0.502
429.37	0.480
429.58	0.511
429.79	0.479
430.01	0.572
430.22	0.563
430.44	0.576
430.65	0.518
430.86	0.559
431.08	0.549
431.29	0.498
431.50	0.583
431.72	0.758
431.93	0.617
432.14	0.474
432.36	0.517
432.57	0.523
432.78	0.540
433.00	0.495
433.21	0.488
433.42	0.595
433.64	0.531
433.85	0.590
434.06	0.493
434.28	0.517
434.49	0.530
434.70	0.533
434.92	0.551
435.13	0.589
435.34	0.608
435.56	0.580
435.77	0.574
435.98	0.733
436.20	0.626
436.41	0.542
436.62	0.534
436.83	0.603
437.05	0.682
437.26	0.600
437.47	0.539
437.69	0.574
437.90	0.527
438.11	0.520
438.33	0.567
438.54	0.585
438.75	0.738
438.97	0.726
439.18	0.556
439.39	0.586
439.60	0.626
439.82	0.583
440.03	0.544
440.24	0.789
440.46	0.596
440.67	0.570
440.88	0.607
441.10	0.564
441.31	0.563
441.52	0.610
441.73	0.674
441.95	0.602
442.16	0.563
442.37	0.846
442.58	0.545
442.80	0.542
443.01	0.697
443.22	0.643
443.44	0.547
443.65	0.642
443.86	0.631
444.07	0.682
444.29	0.603
444.50	0.754
444.71	0.587
444.92	0.556
445.14	0.689
445.35	0.723
445.56	0.575
445.78	0.678
445.99	0.672
446.20	0.589
446.41	0.652
446.63	0.642
446.84	0.608
447.05	0.605
447.26	0.707
447.48	0.620
447.69	0.597
447.90	0.672
448.11	0.600
448.33	0.625
448.54	0.641
448.75	0.669
448.96	0.687
449.18	0.718
449.39	0.648
449.60	0.635
449.81	0.749
450.03	0.650
450.24	0.704
450.45	0.669
450.66	0.649
450.87	0.674
451.09	0.625
451.30	0.608
451.51	0.675
451.72	0.684
451.94	0.696
452.15	0.748
452.36	0.632
452.57	0.646
452.78	0.646
453.00	0.678
453.21	0.644
453.42	0.624
453.63	0.701
453.85	0.670
454.06	0.666
454.27	0.777
454.48	0.704
454.69	0.644
454.91	0.704
455.12	0.618
455.33	0.687
455.54	0.707
455.75	0.684
455.97	0.715
456.18	0.706
456.39	0.711
456.60	0.730
456.81	0.675
457.03	0.682
457.24	0.684
457.45	0.766
457.66	0.720
457.87	0.680
458.09	0.700
458.30	0.618
458.51	0.728
458.72	0.749
458.93	0.753
459.15	0.671
459.36	0.724
459.57	0.746
459.78	0.785
459.99	0.705
460.20	0.671
460.42	0.740
460.63	0.705
460.84	0.690
461.05	0.708
461.26	0.761
461.47	0.693
461.69	0.736
461.90	0.762
462.11	0.727
462.32	0.774
462.53	0.720
462.74	0.801
462.96	0.707
463.17	0.697
463.38	0.732
463.59	0.827
463.80	0.696
464.01	0.719
464.23	0.801
464.44	0.772
464.65	0.777
464.86	0.797
465.07	0.808
465.28	0.771
465.49	0.791
465.71	0.748
465.92	0.783
466.13	0.828
466.34	0.768
466.55	0.807
466.76	0.768
466.97	0.795
467.19	0.791
467.40	0.817
467.61	0.824
467.82	0.754
468.03	0.735
468.24	0.790
468.45	0.817
468.66	0.801
468.88	0.807
469.09	0.807
469.30	0.845
469.51	0.778
469.72	0.818
469.93	0.793
470.14	0.773
470.35	0.848
470.57	0.807
470.78	0.755
470.99	0.863
471.20	0.813
471.41	0.778
471.62	0.818
471.83	0.797
472.04	0.821
472.25	0.853
472.47	0.786
472.68	0.795
472.89	0.802
473.10	0.838
473.31	0.797
473.52	0.848
473.73	0.869
473.94	0.803
474.15	0.823
474.36	0.821
474.57	0.846
474.79	0.825
475.00	0.825
475.21	0.814
475.42	0.891
475.63	0.813
475.84	0.842
476.05	0.846
476.26	0.820
476.47	0.849
476.68	0.888
476.89	0.827
477.10	0.873
477.32	0.861
477.53	0.904
477.74	0.837
477.95	0.870
478.16	0.825
478.37	0.861
478.58	0.868
478.79	0.883
479.00	0.883
479.21	0.846
479.42	0.871
479.63	0.874
479.84	0.845
480.05	0.845
480.26	0.872
480.47	0.891
480.69	0.895
480.90	0.864
481.11	0.860
481.32	0.913
481.53	0.863
481.74	0.913
481.95	0.885
482.16	0.896
482.37	0.902
482.58	0.872
482.79	0.884
483.00	0.907
483.21	0.859
483.42	0.838
483.63	0.901
483.84	0.921
484.05	0.911
484.26	0.888
484.47	0.891
484.68	0.858
484.89	0.865
485.10	0.904
485.31	0.884
485.52	0.891
485.73	0.888
485.94	0.924
486.15	0.885
486.37	0.898
486.58	0.869
486.79	0.878
487.00	0.922
487.21	0.910
487.42	0.904
487.63	0.909
487.84	0.923
488.05	0.917
488.26	0.883
488.47	0.887
488.68	0.910
488.89	0.892
489.10	0.888
489.31	0.898
489.52	0.928
489.73	0.903
489.94	0.934
490.15	0.900
490.36	0.936
490.57	0.896
490.78	0.882
490.99	0.915
491.20	0.978
491.41	0.937
491.62	0.888
491.83	0.911
492.04	0.908
492.25	0.912
492.45	0.910
492.66	0.931
492.87	0.923
493.08	0.912
493.29	0.898
493.50	0.890
493.71	0.899
493.92	0.897
494.13	0.910
494.34	0.929
494.55	0.936
494.76	0.961
494.97	0.953
495.18	0.924
495.39	0.937
495.60	0.896
495.81	0.900
496.02	0.916
496.23	0.913
496.44	0.940
496.65	0.929
496.86	0.933
497.07	0.954
497.28	0.949
497.49	0.909
497.70	0.912
497.91	0.929
498.12	0.914
498.32	0.948
498.53	0.932
498.74	0.924
498.95	0.946
499.16	0.910
499.37	0.914
499.58	0.923
499.79	0.946
500.00	0.942
500.21	0.965
500.42	0.920
500.63	0.921
500.84	0.939
501.05	0.920
501.26	0.939
501.46	0.973
501.67	0.944
501.88	0.945
502.09	0.921
502.30	0.929
502.51	0.970
502.72	0.934
502.93	0.947
503.14	0.964
503.35	0.941
503.56	0.939
503.77	0.963
503.97	0.941
504.18	0.940
504.39	0.971
504.60	0.945
504.81	0.966
505.02	0.954
505.23	0.955
505.44	0.942
505.65	0.947
505.86	0.932
506.07	0.985
506.27	0.955
506.48	0.961
506.69	0.946
506.90	0.962
507.11	0.961
507.32	0.944
507.53	0.951
507.74	0.943
507.95	0.956
508.15	0.961
508.36	0.964
508.57	0.970
508.78	0.957
508.99	0.957
509.20	0.937
509.41	0.956
509.62	0.947
509.82	0.943
510.03	0.953
510.24	0.951
510.45	0.968
510.66	0.962
510.87	0.961
511.08	0.927
511.29	0.961
511.49	0.944
511.70	0.982
511.91	0.929
512.12	0.927
512.33	0.954
512.54	0.967
512.75	0.952
512.95	0.972
513.16	0.965
513.37	0.947
513.58	0.975
513.79	0.945
514.00	0.949
514.20	0.965
514.41	0.955
514.62	0.929
514.83	0.963
515.04	0.955
515.25	0.940
515.46	0.948
515.66	0.950
515.87	0.961
516.08	0.935
516.29	0.954
516.50	0.938
516.71	0.934
516.91	0.941
517.12	0.955
517.33	0.944
517.54	0.931
517.75	0.933
517.95	0.942
518.16	0.951
518.37	0.924
518.58	0.928
518.79	0.907
519.00	0.933
519.20	0.941
519.41	0.919
519.62	0.935
519.83	0.942
520.04	0.915
520.24	0.914
520.45	0.922
520.66	0.942
520.87	0.910
521.08	0.907
521.28	0.910
521.49	0.923
521.70	0.898
521.91	0.908
522.12	0.893
522.32	0.911
522.53	0.896
522.74	0.888
522.95	0.896
523.16	0.901
523.36	0.910
523.57	0.896
523.78	0.891
523.99	0.896
524.20	0.890
524.40	0.901
524.61	0.906
524.82	0.883
525.03	0.885
525.23	0.885
525.44	0.870
525.65	0.869
525.86	0.886
526.06	0.862
526.27	0.861
526.48	0.869
526.69	0.853
526.90	0.857
527.10	0.885
527.31	0.848
527.52	0.842
527.73	0.836
527.93	0.845
528.14	0.849
528.35	0.842
528.56	0.843
528.76	0.837
528.97	0.829
529.18	0.821
529.39	0.822
529.59	0.825
529.80	0.851
530.01	0.828
530.22	0.826
530.42	0.800
530.63	0.815
530.84	0.796
531.05	0.807
531.25	0.809
531.46	0.801
531.67	0.783
531.88	0.799
532.08	0.793
532.29	0.789
532.50	0.783
532.70	0.777
532.91	0.769
533.12	0.771
533.33	0.792
533.53	0.767
533.74	0.767
533.95	0.772
534.15	0.761
534.36	0.761
534.57	0.746
534.78	0.748
534.98	0.757
535.19	0.731
535.40	0.733
535.60	0.749
535.81	0.731
536.02	0.734
536.23	0.727
536.43	0.728
536.64	0.718
536.85	0.725
537.05	0.731
537.26	0.712
537.47	0.716
537.67	0.707
537.88	0.702
538.09	0.710
538.30	0.700
538.50	0.693
538.71	0.703
538.92	0.691
539.12	0.687
539.33	0.684
539.54	0.684
539.74	0.687
539.95	0.679
540.16	0.676
540.36	0.668
540.57	0.667
540.78	0.661
540.98	0.660
541.19	0.658
541.40	0.648
541.60	0.657
541.81	0.652
542.02	0.652
542.22	0.643
542.43	0.638
542.64	0.633
542.84	0.633
543.05	0.625
543.26	0.625
543.46	0.628
543.67	0.627
543.88	0.623
544.08	0.613
544.29	0.608
544.50	0.608
544.70	0.609
544.91	0.601
545.12	0.602
545.32	0.599
545.53	0.602
545.74	0.591
545.94	0.588
546.15	0.586
546.35	0.584
546.56	0.581
546.77	0.579
546.97	0.577
547.18	0.571
547.39	0.571
547.59	0.570
547.80	0.565
548.01	0.571
548.21	0.567
548.42	0.560
548.62	0.560
548.83	0.556
549.04	0.553
549.24	0.546
549.45	0.545
549.65	0.543
549.86	0.539
550.07	0.539
550.27	0.536
550.48	0.543
550.69	0.530
550.89	0.531
551.10	0.527
551.30	0.526
551.51	0.526
551.72	0.516
551.92	0.517
552.13	0.517
552.33	0.517
552.54	0.512
552.75	0.506
552.95	0.508
553.16	0.503
553.36	0.502
553.57	0.501
553.78	0.499
553.98	0.499
554.19	0.491
554.39	0.487
554.60	0.490
554.80	0.490
555.01	0.482
555.22	0.484
555.42	0.481
555.63	0.475
555.83	0.478
556.04	0.472
556.25	0.475
556.45	0.467
556.66	0.465
556.86	0.468
557.07	0.466
557.27	0.465
557.48	0.460
557.68	0.458
557.89	0.459
558.10	0.456
558.30	0.453
558.51	0.451
558.71	0.449
558.92	0.445
559.12	0.447
559.33	0.451
559.54	0.446
559.74	0.442
559.95	0.440
560.15	0.440
560.36	0.437
560.56	0.432
560.77	0.433
560.97	0.433
561.18	0.429
561.38	0.427
561.59	0.430
561.79	0.426
562.00	0.424
562.21	0.420
562.41	0.419
562.62	0.418
562.82	0.416
563.03	0.412
563.23	0.411
563.44	0.410
563.64	0.408
563.85	0.409
564.05	0.403
564.26	0.403
564.46	0.402
564.67	0.403
564.87	0.399
565.08	0.396
565.28	0.396
565.49	0.397
565.69	0.394
565.90	0.391
566.10	0.393
566.31	0.386
566.51	0.389
566.72	0.390
566.92	0.384
567.13	0.384
567.33	0.383
567.54	0.381
567.74	0.380
567.95	0.377
568.15	0.377
568.36	0.377
568.56	0.375
568.77	0.370
568.97	0.369
569.18	0.369
569.38	0.367
569.59	0.368
569.79	0.365
570.00	0.363
570.20	0.363
570.41	0.361
570.61	0.359
570.82	0.361
571.02	0.357
571.23	0.359
571.43	0.355
571.64	0.353
571.84	0.353
572.05	0.351
572.25	0.350
572.45	0.348
572.66	0.345
572.86	0.345
573.07	0.343
573.27	0.344
573.48	0.342
573.68	0.339
573.89	0.339
574.09	0.339
574.30	0.337
574.50	0.336
574.70	0.336
574.91	0.333
575.11	0.333
575.32	0.333
575.52	0.328
575.73	0.328
575.93	0.328
576.14	0.326
576.34	0.324
576.54	0.324
576.75	0.322
576.95	0.321
577.16	0.320
577.36	0.319
577.57	0.319
577.77	0.317
577.97	0.315
578.18	0.316
578.38	0.313
578.59	0.312
578.79	0.310
579.00	0.311
579.20	0.310
579.40	0.309
579.61	0.307
579.81	0.307
580.02	0.305
580.22	0.304
580.42	0.303
580.63	0.303
580.83	0.302
581.04	0.300
581.24	0.300
581.45	0.299
581.65	0.299
581.85	0.299
582.06	0.296
582.26	0.297
582.47	0.295
582.67	0.295
582.87	0.294
583.08	0.292
583.28	0.292
583.48	0.290
583.69	0.287
583.89	0.287
584.10	0.288
584.30	0.286
584.50	0.284
584.71	0.283
584.91	0.283
585.12	0.281
585.32	0.282
585.52	0.279
585.73	0.278
585.93	0.277
586.13	0.276
586.34	0.275
586.54	0.274
586.75	0.273
586.95	0.272
587.15	0.272
587.36	0.271
587.56	0.270
587.76	0.269
587.97	0.269
588.17	0.268
588.37	0.268
588.58	0.269
588.78	0.266
588.98	0.266
589.19	0.265
589.39	0.263
589.60	0.264
589.80	0.261
590.00	0.261
590.21	0.261
590.41	0.259
590.61	0.258
590.82	0.257
591.02	0.256
591.22	0.255
591.43	0.256
591.63	0.254
591.83	0.254
592.04	0.253
592.24	0.253
592.44	0.251
592.65	0.250
592.85	0.250
593.05	0.250
593.26	0.248
593.46	0.248
593.66	0.248
593.86	0.247
594.07	0.246
594.27	0.245
594.47	0.244
594.68	0.243
594.88	0.244
595.08	0.243
595.29	0.244
595.49	0.241
595.69	0.241
595.90	0.239
596.10	0.239
596.30	0.238
596.50	0.237
596.71	0.237
596.91	0.236
597.11	0.236
597.32	0.235
597.52	0.234
597.72	0.234
597.93	0.233
598.13	0.232
598.33	0.232
598.53	0.231
598.74	0.230
598.94	0.230
599.14	0.230
599.35	0.230
599.55	0.230
599.75	0.229
599.95	0.228
600.16	0.229
600.36	0.227
600.56	0.227
600.76	0.226
600.97	0.225
601.17	0.224
601.37	0.225
601.58	0.223
601.78	0.223
601.98	0.223
602.18	0.221
602.39	0.221
602.59	0.221
602.79	0.221
602.99	0.220
603.20	0.219
603.40	0.219
603.60	0.219
603.80	0.218
604.01	0.218
604.21	0.217
604.41	0.217
604.61	0.216
604.82	0.215
605.02	0.215
605.22	0.214
605.42	0.214
605.62	0.214
605.83	0.212
606.03	0.211
606.23	0.212
606.43	0.211
606.64	0.211
606.84	0.210
607.04	0.210
607.24	0.210
607.45	0.210
607.65	0.208
607.85	0.209
608.05	0.208
608.25	0.207
608.46	0.207
608.66	0.207
608.86	0.207
609.06	0.206
609.26	0.204
609.47	0.205
609.67	0.204
609.87	0.205
610.07	0.204
610.28	0.202
610.48	0.202
610.68	0.203
610.88	0.201
611.08	0.203
611.29	0.201
611.49	0.201
611.69	0.201
611.89	0.199
612.09	0.198
612.29	0.198
612.50	0.198
612.70	0.198
612.90	0.197
613.10	0.197
613.30	0.195
613.51	0.196
613.71	0.195
613.91	0.199
614.11	0.194
614.31	0.194
614.51	0.194
614.72	0.193
614.92	0.193
615.12	0.192
615.32	0.193
615.52	0.192
615.72	0.193
615.93	0.193
616.13	0.192
616.33	0.192
616.53	0.192
616.73	0.192
616.93	0.191
617.14	0.191
617.34	0.190
617.54	0.190
617.74	0.190
617.94	0.189
618.14	0.188
618.34	0.187
618.55	0.187
618.75	0.187
618.95	0.187
619.15	0.187
619.35	0.186
619.55	0.185
619.75	0.186
619.96	0.186
620.16	0.186
620.36	0.186
620.56	0.186
620.76	0.186
620.96	0.186
621.16	0.186
621.36	0.185
621.57	0.186
621.77	0.186
621.97	0.184
622.17	0.184
622.37	0.184
622.57	0.184
622.77	0.183
622.97	0.182
623.18	0.182
623.38	0.182
623.58	0.182
623.78	0.181
623.98	0.180
624.18	0.180
624.38	0.180
624.58	0.180
624.78	0.180
624.98	0.180
625.19	0.180
625.39	0.180
625.59	0.179
625.79	0.179
625.99	0.179
626.19	0.179
626.39	0.178
626.59	0.178
626.79	0.178
626.99	0.178
627.19	0.178
627.40	0.178
627.60	0.178
627.80	0.178
628.00	0.177
628.20	0.177
628.40	0.176
628.60	0.176
628.80	0.175
629.00	0.175
629.20	0.174
629.40	0.175
629.60	0.173
629.80	0.173
630.00	0.173
630.20	0.173
630.41	0.172
630.61	0.172
630.81	0.171
631.01	0.172
631.21	0.172
631.41	0.171
631.61	0.172
631.81	0.172
632.01	0.171
632.21	0.171
632.41	0.169
632.61	0.170
632.81	0.170
633.01	0.170
633.21	0.170
633.41	0.170
633.61	0.169
633.81	0.168
634.01	0.167
634.21	0.168
634.41	0.167
634.61	0.168
634.81	0.167
635.01	0.166
635.22	0.167
635.42	0.167
635.62	0.166
635.82	0.167
636.02	0.166
636.22	0.166
636.42	0.166
636.62	0.166
636.82	0.165
637.02	0.164
637.22	0.165
637.42	0.165
637.62	0.164
637.82	0.164
638.02	0.164
638.22	0.163
638.42	0.163
638.62	0.163
638.82	0.162
639.02	0.162
639.22	0.162
639.42	0.162
639.62	0.161
639.82	0.161
640.02	0.161
640.22	0.161
640.42	0.160
640.62	0.160
640.82	0.160
641.02	0.159
641.22	0.160
641.42	0.160
641.61	0.160
641.81	0.160
642.01	0.160
642.21	0.160
642.41	0.160
642.61	0.160
642.81	0.159
643.01	0.159
643.21	0.159
643.41	0.159
643.61	0.158
643.81	0.158
644.01	0.156
644.21	0.156
644.41	0.156
644.61	0.155
644.81	0.155
645.01	0.155
645.21	0.155
645.41	0.154
645.61	0.154
645.81	0.154
646.01	0.153
646.21	0.154
646.40	0.153
646.60	0.153
646.80	0.153
647.00	0.153
647.20	0.152
647.40	0.153
647.60	0.153
647.80	0.152
648.00	0.153
648.20	0.152
648.40	0.152
648.60	0.152
648.80	0.151
649.00	0.152
649.20	0.152
649.39	0.150
649.59	0.150
649.79	0.150
649.99	0.150
650.19	0.149
650.39	0.149
650.59	0.149
650.79	0.149
650.99	0.149
651.19	0.148
651.39	0.148
651.58	0.148
651.78	0.148
651.98	0.148
652.18	0.148
652.38	0.147
652.58	0.147
652.78	0.147
652.98	0.146
653.18	0.146
653.38	0.147
653.57	0.146
653.77	0.147
653.97	0.146
654.17	0.146
654.37	0.145
654.57	0.145
654.77	0.145
654.97	0.144
655.16	0.144
655.36	0.144
655.56	0.143
655.76	0.143
655.96	0.143
656.16	0.142
656.36	0.142
656.56	0.141
656.75	0.142
656.95	0.141
657.15	0.141
657.35	0.141
657.55	0.141
657.75	0.141
657.95	0.141
658.14	0.141
658.34	0.141
658.54	0.141
658.74	0.140
658.94	0.140
659.14	0.140
659.34	0.140
659.53	0.139
659.73	0.139
659.93	0.138
660.13	0.138
660.33	0.138
660.53	0.138
660.72	0.138
660.92	0.138
661.12	0.137
661.32	0.137
661.52	0.137
661.72	0.136
661.91	0.136
662.11	0.136
662.31	0.136
662.51	0.136
662.71	0.135
662.90	0.135
663.10	0.135
663.30	0.134
663.50	0.134
663.70	0.134
663.90	0.134
664.09	0.134
664.29	0.133
664.49	0.133
664.69	0.133
664.89	0.133
665.08	0.133
665.28	0.132
665.48	0.133
665.68	0.132
665.88	0.132
666.07	0.131
666.27	0.131
666.47	0.131
666.67	0.131
666.87	0.131
667.06	0.131
667.26	0.130
667.46	0.130
667.66	0.130
667.85	0.130
668.05	0.130
668.25	0.130
668.45	0.130
668.65	0.130
668.84	0.130
669.04	0.129
669.24	0.129
669.44	0.128
669.63	0.128
669.83	0.128
670.03	0.127
670.23	0.126
670.42	0.126
670.62	0.125
670.82	0.125
671.02	0.125
671.22	0.124
671.41	0.124
671.61	0.124
671.81	0.124
672.01	0.124
672.20	0.124
672.40	0.123
672.60	0.123
672.80	0.124
672.99	0.124
673.19	0.123
673.39	0.123
673.58	0.122
673.78	0.122
673.98	0.122
674.18	0.122
674.37	0.121
674.57	0.121
674.77	0.122
674.97	0.121
675.16	0.121
675.36	0.121
675.56	0.121
675.75	0.121
675.95	0.120
676.15	0.120
676.35	0.120
676.54	0.120
676.74	0.120
676.94	0.120
677.13	0.119
677.33	0.119
677.53	0.119
677.73	0.119
677.92	0.119
678.12	0.119
678.32	0.118
678.51	0.118
678.71	0.118
678.91	0.117
679.11	0.117
679.30	0.117
679.50	0.117
679.70	0.117
679.89	0.116
680.09	0.117
680.29	0.116
680.48	0.116
680.68	0.116
680.88	0.116
681.07	0.116
681.27	0.115
681.47	0.115
681.66	0.115
681.86	0.115
682.06	0.115
682.25	0.114
682.45	0.115
682.65	0.115
682.84	0.114
683.04	0.114
683.24	0.114
683.43	0.114
683.63	0.114
683.83	0.114
684.02	0.114
684.22	0.114
684.42	0.113
684.61	0.113
684.81	0.113
685.01	0.112
685.20	0.112
685.40	0.112
685.60	0.112
685.79	0.112
685.99	0.112
686.19	0.112
686.38	0.111
686.58	0.112
686.77	0.112
686.97	0.112
687.17	0.112
687.36	0.111
687.56	0.111
687.76	0.110
687.95	0.111
688.15	0.110
688.34	0.110
688.54	0.110
688.74	0.109
688.93	0.109
689.13	0.109
689.33	0.108
689.52	0.108
689.72	0.108
689.91	0.108
690.11	0.107
690.31	0.107
690.50	0.107
690.70	0.107
690.89	0.106
691.09	0.106
691.29	0.106
691.48	0.105
691.68	0.105
691.87	0.105
692.07	0.105
692.27	0.105
692.46	0.105
692.66	0.105
692.85	0.105
693.05	0.105
693.25	0.105
693.44	0.104
693.64	0.104
693.83	0.104
694.03	0.104
694.22	0.103
694.42	0.103
694.62	0.104
694.81	0.103
695.01	0.103
695.20	0.103
695.40	0.103
695.59	0.102
695.79	0.102
695.99	0.103
696.18	0.102
696.38	0.102
696.57	0.102
696.77	0.102
696.96	0.102
697.16	0.102
697.36	0.102
697.55	0.102
697.75	0.102
697.94	0.101
698.14	0.101
698.33	0.101
698.53	0.101
698.72	0.101
698.92	0.101
699.11	0.101
699.31	0.101
699.51	0.101
699.70	0.100
699.90	0.100
700.09	0.100
700.29	0.100
700.48	0.099
700.68	0.099
700.87	0.099
701.07	0.099
701.26	0.099
701.46	0.098
701.65	0.098
701.85	0.098
702.04	0.098
702.24	0.098
702.43	0.098
702.63	0.098
702.82	0.098
703.02	0.098
703.21	0.098
703.41	0.098
703.60	0.097
703.80	0.097
703.99	0.097
704.19	0.097
704.38	0.097
704.58	0.096
704.77	0.096
704.97	0.096
705.16	0.096
705.36	0.096
705.55	0.096
705.75	0.096
705.94	0.096
706.14	0.096
706.33	0.096
706.53	0.096
706.72	0.097
706.92	0.096
707.11	0.096
707.31	0.095
707.50	0.096
707.70	0.096
707.89	0.096
708.09	0.095
708.28	0.095
708.48	0.094
708.67	0.094
708.86	0.094
709.06	0.094
709.25	0.094
709.45	0.094
709.64	0.094
709.84	0.094
710.03	0.093
710.23	0.093
710.42	0.093
710.62	0.093
710.81	0.093
711.00	0.093
711.20	0.092
711.39	0.092
711.59	0.092
711.78	0.092
711.98	0.092
712.17	0.092
712.37	0.092
712.56	0.092
712.75	0.093
712.95	0.093
713.14	0.093
713.34	0.093
713.53	0.093
713.73	0.093
713.92	0.093
714.11	0.093
714.31	0.093
714.50	0.093
714.70	0.093
714.89	0.093
715.08	0.093
715.28	0.093
715.47	0.092
715.67	0.093
715.86	0.092
716.06	0.092
716.25	0.092
716.44	0.092
716.64	0.091
716.83	0.091
717.03	0.091
717.22	0.091
717.41	0.091
717.61	0.090
717.80	0.091
717.99	0.090
718.19	0.091
718.38	0.090
718.58	0.090
718.77	0.090
718.96	0.090
719.16	0.090
719.35	0.089
719.55	0.089
719.74	0.089
719.93	0.089
720.13	0.089
720.32	0.089
720.51	0.089
720.71	0.089
720.90	0.089
721.10	0.089
721.29	0.088
721.48	0.088
721.68	0.088
721.87	0.088
722.06	0.088
722.26	0.089
722.45	0.088
722.64	0.088
722.84	0.088
723.03	0.089
723.22	0.089
723.42	0.089
723.61	0.089
723.80	0.089
724.00	0.089
724.19	0.089
724.38	0.089
724.58	0.089
724.77	0.089
724.96	0.089
725.16	0.089
725.35	0.089
725.54	0.089
725.74	0.089
725.93	0.089
726.12	0.089
726.32	0.089
726.51	0.089
726.70	0.089
726.90	0.089
727.09	0.088
727.28	0.088
727.48	0.088
727.67	0.088
727.86	0.088
728.06	0.088
728.25	0.088
728.44	0.089
728.64	0.089
728.83	0.089
729.02	0.089
729.21	0.089
729.41	0.089
729.60	0.089
729.79	0.089
729.99	0.089
730.18	0.089
730.37	0.089
730.56	0.089
730.76	0.089
730.95	0.089
731.14	0.088
731.34	0.088
731.53	0.089
731.72	0.089
731.91	0.089
732.11	0.088
732.30	0.089
732.49	0.089
732.69	0.089
732.88	0.089
733.07	0.089
733.26	0.090
733.46	0.089
733.65	0.089
733.84	0.089
734.03	0.089
734.23	0.089
734.42	0.089
734.61	0.089
734.80	0.089
735.00	0.089
735.19	0.089
735.38	0.089
735.57	0.089
735.77	0.089
735.96	0.089
736.15	0.089
736.34	0.088
736.54	0.089
736.73	0.089
736.92	0.088
737.11	0.088
737.31	0.088
737.50	0.088
737.69	0.089
737.88	0.088
738.07	0.089
738.27	0.089
738.46	0.089
738.65	0.088
738.84	0.088
739.04	0.089
739.23	0.088
739.42	0.088
739.61	0.088
739.80	0.088
740.00	0.088
740.19	0.088
740.38	0.088
740.57	0.088
740.76	0.088
740.96	0.088
741.15	0.087
741.34	0.088
741.53	0.088
741.72	0.087
741.92	0.087
742.11	0.087
742.30	0.087
742.49	0.086
742.68	0.086
742.88	0.087
743.07	0.087
743.26	0.087
743.45	0.087
743.64	0.087
743.84	0.087
744.03	0.087
744.22	0.087
744.41	0.087
744.60	0.087
744.79	0.087
744.99	0.087
745.18	0.087
745.37	0.086
745.56	0.086
745.75	0.086
745.94	0.086
746.14	0.086
746.33	0.086
746.52	0.086
746.71	0.086
746.90	0.085
747.09	0.085
747.28	0.085
747.48	0.085
747.67	0.085
747.86	0.085
748.05	0.085
748.24	0.085
748.43	0.085
748.62	0.085
748.82	0.085
749.01	0.085
749.20	0.085
749.39	0.085
749.58	0.085
749.77	0.086
749.96	0.085
750.16	0.085
750.35	0.085
750.54	0.085
750.73	0.085
750.92	0.085
751.11	0.084
751.30	0.085
751.49	0.085
751.68	0.084
751.88	0.084
752.07	0.084
752.26	0.084
752.45	0.084
752.64	0.084
752.83	0.084
753.02	0.084
753.21	0.084
753.40	0.084
753.60	0.084
753.79	0.084
753.98	0.084
754.17	0.084
754.36	0.084
754.55	0.084
754.74	0.084
754.93	0.083
755.12	0.084
755.31	0.084
755.50	0.084
755.70	0.083
755.89	0.083
756.08	0.083
756.27	0.082
756.46	0.083
756.65	0.082
756.84	0.082
757.03	0.082
757.22	0.082
757.41	0.082
757.60	0.082
757.79	0.082
757.98	0.082
758.17	0.082
758.36	0.082
758.56	0.082
758.75	0.082
758.94	0.082
759.13	0.082
759.32	0.082
759.51	0.082
759.70	0.082
759.89	0.082
760.08	0.082
760.27	0.082
760.46	0.082
760.65	0.082
760.84	0.082
761.03	0.082
761.22	0.082
761.41	0.082
761.60	0.082
761.79	0.081
761.98	0.081
762.17	0.081
762.36	0.080
762.55	0.080
762.74	0.080
762.93	0.080
763.12	0.080
763.31	0.080
763.50	0.080
763.69	0.080
763.88	0.080
764.07	0.080
764.26	0.080
764.45	0.080
764.64	0.080
764.83	0.080
765.02	0.080
765.21	0.080
765.40	0.080
765.59	0.080
765.78	0.080
765.97	0.080
766.16	0.080
766.35	0.080
766.54	0.081
766.73	0.081
766.92	0.081
767.11	0.081
767.30	0.081
767.49	0.081
767.68	0.080
767.87	0.080
768.06	0.080
768.25	0.080
768.44	0.080
768.63	0.079
768.82	0.079
769.01	0.079
769.20	0.079
769.39	0.079
769.58	0.079
769.77	0.079
769.96	0.079
770.15	0.079
770.34	0.079
770.53	0.079
770.72	0.079
770.91	0.078
771.10	0.078
771.29	0.078
771.47	0.078
771.66	0.078
771.85	0.078
772.04	0.078
772.23	0.078
772.42	0.078
772.61	0.078
772.80	0.079
772.99	0.078
773.18	0.078
773.37	0.078
773.56	0.078
773.75	0.079
773.94	0.078
774.13	0.078
774.31	0.078
774.50	0.078
774.69	0.078
774.88	0.078
775.07	0.078
775.26	0.078
775.45	0.077
775.64	0.077
775.83	0.077
776.02	0.077
776.21	0.077
776.40	0.077
776.58	0.077
776.77	0.077
776.96	0.077
777.15	0.077
777.34	0.077
777.53	0.078
777.72	0.078
777.91	0.077
778.10	0.078
778.28	0.077
778.47	0.077
778.66	0.077
778.85	0.077
779.04	0.076
779.23	0.076
779.42	0.076
779.61	0.076
779.79	0.076
779.98	0.076
780.17	0.076
780.36	0.075
780.55	0.075
780.74	0.075
780.93	0.075
781.12	0.075
781.30	0.075
781.49	0.075
781.68	0.075
781.87	0.075
782.06	0.075
782.25	0.075
782.44	0.075
782.62	0.075
782.81	0.076
783.00	0.076
783.19	0.076
783.38	0.075
783.57	0.076
783.75	0.075
783.94	0.075
784.13	0.075
784.32	0.075
784.51	0.075
784.70	0.075
784.88	0.075
785.07	0.075
785.26	0.075
785.45	0.075
785.64	0.074
785.83	0.075
786.01	0.075
786.20	0.075
786.39	0.075
786.58	0.074
786.77	0.074
786.95	0.074
787.14	0.074
787.33	0.075
787.52	0.074
787.71	0.074
787.90	0.074
788.08	0.074
788.27	0.074
788.46	0.074
788.65	0.074
788.84	0.074
789.02	0.074
789.21	0.074
789.40	0.074
789.59	0.074
789.77	0.074
789.96	0.074
790.15	0.075
790.34	0.075
790.53	0.075
790.71	0.074
790.90	0.074
791.09	0.074
791.28	0.075
791.46	0.075
791.65	0.074
791.84	0.074
792.03	0.074
792.22	0.074
792.40	0.074
792.59	0.074
792.78	0.074
792.97	0.074
793.15	0.074
793.34	0.073
793.53	0.073
793.72	0.073
793.90	0.073
794.09	0.074
794.28	0.073
794.47	0.073
794.65	0.073
794.84	0.073
795.03	0.073
795.22	0.073
795.40	0.073
795.59	0.073
795.78	0.073
795.97	0.073
796.15	0.073
796.34	0.073
796.53	0.073
796.71	0.073
796.90	0.073
797.09	0.074
797.28	0.073
797.46	0.074
797.65	0.073
797.84	0.073
798.02	0.073
798.21	0.073
798.40	0.073
798.59	0.073
798.77	0.073
798.96	0.072
799.15	0.072
799.33	0.072
799.52	0.072
799.71	0.072
799.90	0.072
800.08	0.072
800.27	0.072
800.46	0.072
800.64	0.072
800.83	0.072
801.02	0.072
801.20	0.072
801.39	0.072
801.58	0.071
801.76	0.071
801.95	0.072
802.14	0.071
802.32	0.071
802.51	0.071
802.70	0.071
802.88	0.071
803.07	0.071
803.26	0.071
803.44	0.071
803.63	0.072
803.82	0.071
804.00	0.071
804.19	0.072
804.38	0.072
804.56	0.072
804.75	0.072
804.94	0.072
805.12	0.072
805.31	0.072
805.50	0.072
805.68	0.072
805.87	0.072
806.06	0.072
806.24	0.072
806.43	0.072
806.62	0.072
806.80	0.072
806.99	0.071
807.17	0.071
807.36	0.072
807.55	0.072
807.73	0.071
807.92	0.071
808.11	0.071
808.29	0.071
808.48	0.071
808.66	0.071
808.85	0.070
809.04	0.071
809.22	0.070
809.41	0.071
809.59	0.070
809.78	0.071
809.97	0.070
810.15	0.071
810.34	0.070
810.53	0.070
810.71	0.070
810.90	0.070
811.08	0.070
811.27	0.070
811.45	0.070
811.64	0.070
811.83	0.070
812.01	0.070
812.20	0.070
812.38	0.070
812.57	0.070
812.76	0.070
812.94	0.070
813.13	0.070
813.31	0.070
813.50	0.070
813.68	0.070
813.87	0.070
814.06	0.070
814.24	0.070
814.43	0.070
814.61	0.070
814.80	0.070
814.98	0.071
815.17	0.071
815.36	0.071
815.54	0.071
815.73	0.071
815.91	0.071
816.10	0.071
816.28	0.071
816.47	0.070
816.65	0.071
816.84	0.071
817.03	0.071
817.21	0.071
817.40	0.071
817.58	0.071
817.77	0.071
817.95	0.070
818.14	0.071
818.32	0.071
818.51	0.071
818.69	0.071
818.88	0.071
819.06	0.070
819.25	0.070
819.43	0.070
819.62	0.070
819.80	0.070
819.99	0.071
820.18	0.071
820.36	0.071
820.55	0.071
820.73	0.071
820.92	0.071
821.10	0.071
821.29	0.071
821.47	0.070
821.66	0.071
821.84	0.071
822.03	0.071
822.21	0.071
822.40	0.070
822.58	0.071
822.77	0.070
822.95	0.071
823.14	0.071
823.32	0.071
823.50	0.071
823.69	0.071
823.87	0.071
824.06	0.071
824.24	0.071
824.43	0.071
824.61	0.071
824.80	0.071
824.98	0.071
825.17	0.072
825.35	0.071
825.54	0.071
825.72	0.071
825.91	0.071
826.09	0.071
826.28	0.071
826.46	0.072
826.64	0.072
826.83	0.072
827.01	0.072
827.20	0.072
827.38	0.072
827.57	0.073
827.75	0.072
827.94	0.072
828.12	0.073
828.31	0.073
828.49	0.073
828.67	0.073
828.86	0.073
829.04	0.073
829.23	0.073
829.41	0.074
829.60	0.073
829.78	0.074
829.96	0.074
830.15	0.075
830.33	0.075
830.52	0.075
830.70	0.075
830.88	0.075
831.07	0.076
831.25	0.075
831.44	0.075
831.62	0.075
831.81	0.075
831.99	0.075
832.17	0.075
832.36	0.075
832.54	0.075
832.73	0.075
832.91	0.075
833.09	0.075
833.28	0.075
833.46	0.075
833.65	0.076
833.83	0.076
834.01	0.076
834.20	0.076
834.38	0.076
834.56	0.076
834.75	0.076
834.93	0.077
835.12	0.077
835.30	0.077
835.48	0.077
835.67	0.076
835.85	0.077
836.03	0.077
836.22	0.076
836.40	0.077
836.59	0.077
836.77	0.077
836.95	0.077
837.14	0.077
837.32	0.077
837.50	0.077
837.69	0.077
837.87	0.077
838.05	0.078
838.24	0.078
838.42	0.077
838.60	0.077
838.79	0.078
838.97	0.078
839.15	0.078
839.34	0.078
839.52	0.078
839.70	0.078
839.89	0.078
840.07	0.078
840.25	0.078
840.44	0.078
840.62	0.078
840.80	0.078
840.99	0.078
841.17	0.077
841.35	0.077
841.54	0.077
841.72	0.078
841.90	0.078
842.09	0.077
842.27	0.077
842.45	0.077
842.64	0.078
842.82	0.078
843.00	0.078
843.19	0.078
843.37	0.078
843.55	0.078
843.73	0.077
843.92	0.077
844.10	0.077
844.28	0.078
844.47	0.078
844.65	0.078
844.83	0.078
845.01	0.079
845.20	0.079
845.38	0.079
845.56	0.079
845.75	0.079
845.93	0.079
846.11	0.079
846.29	0.079
846.48	0.079
846.66	0.079
846.84	0.079
847.02	0.078
847.21	0.078
847.39	0.078
847.57	0.078
847.76	0.079
847.94	0.078
848.12	0.079
848.30	0.079
848.49	0.079
848.67	0.079
848.85	0.079
849.03	0.079
849.22	0.079
849.40	0.080
849.58	0.080
849.76	0.080
849.95	0.080
850.13	0.080
850.31	0.080
850.49	0.080
850.67	0.080
850.86	0.080
851.04	0.079
851.22	0.079
851.40	0.079
851.59	0.079
851.77	0.079
851.95	0.079
852.13	0.079
852.31	0.079
852.50	0.079
852.68	0.079
852.86	0.079
853.04	0.079
853.23	0.080
853.41	0.080
853.59	0.080
853.77	0.080
853.95	0.080
854.14	0.080
854.32	0.080
854.50	0.080
854.68	0.079
854.86	0.079
855.04	0.080
855.23	0.079
855.41	0.080
855.59	0.080
855.77	0.080
855.95	0.080
856.14	0.080
856.32	0.080
856.50	0.080
856.68	0.080
856.86	0.080
857.04	0.080
857.23	0.079
857.41	0.079
857.59	0.079
857.77	0.079
857.95	0.079
858.13	0.079
858.32	0.079
858.50	0.080
858.68	0.079
858.86	0.080
859.04	0.080
859.22	0.079
859.41	0.080
859.59	0.079
859.77	0.079
859.95	0.079
860.13	0.079
860.31	0.079
860.49	0.079
860.68	0.079
860.86	0.079
861.04	0.079
861.22	0.079
861.40	0.079
861.58	0.079
861.76	0.079
861.94	0.079
862.13	0.079
862.31	0.079
862.49	0.079
862.67	0.079
862.85	0.080
863.03	0.080
863.21	0.080
863.39	0.080
863.57	0.081
863.76	0.081
863.94	0.081
864.12	0.081
864.30	0.081
864.48	0.081
864.66	0.081
864.84	0.081
865.02	0.081
865.20	0.081
865.38	0.081
865.57	0.081
865.75	0.081
865.93	0.081
866.11	0.081
866.29	0.081
866.47	0.081
866.65	0.081
866.83	0.081
867.01	0.081
867.19	0.081
867.37	0.081
867.55	0.081
867.73	0.081
867.92	0.080
868.10	0.081
868.28	0.081
868.46	0.080
868.64	0.080
868.82	0.081
869.00	0.081
869.18	0.081
869.36	0.081
869.54	0.082
869.72	0.082
869.90	0.082
870.08	0.082
870.26	0.082
870.44	0.082
870.62	0.082
870.80	0.082
870.98	0.082
871.16	0.082
871.34	0.082
871.53	0.082
871.71	0.082
871.89	0.082
872.07	0.082
872.25	0.081
872.43	0.082
872.61	0.081
872.79	0.081
872.97	0.081
873.15	0.082
873.33	0.082
873.51	0.082
873.69	0.082
873.87	0.082
874.05	0.082
874.23	0.083
874.41	0.082
874.59	0.083
874.77	0.082
874.95	0.083
875.13	0.083
875.31	0.082
875.49	0.083
875.67	0.082
875.85	0.082
876.03	0.082
876.21	0.083
876.39	0.083
876.57	0.083
876.75	0.083
876.93	0.083
877.11	0.083
877.29	0.083
877.47	0.082
877.65	0.083
877.82	0.083
878.00	0.083
878.18	0.083
878.36	0.083
878.54	0.083
878.72	0.083
878.90	0.083
879.08	0.083
879.26	0.084
879.44	0.084
879.62	0.083
879.80	0.083
879.98	0.083
880.16	0.083
880.34	0.083
880.52	0.083
880.70	0.083
880.88	0.083
881.06	0.083
881.24	0.083
881.42	0.083
881.59	0.084
881.77	0.084
881.95	0.084
882.13	0.084
882.31	0.085
882.49	0.084
882.67	0.085
882.85	0.085
883.03	0.085
883.21	0.085
883.39	0.084
883.57	0.085
883.75	0.085
883.92	0.084
884.10	0.084
884.28	0.084
884.46	0.084
884.64	0.084
884.82	0.084
885.00	0.084
885.18	0.084
885.36	0.084
885.54	0.084
885.71	0.085
885.89	0.085
886.07	0.085
886.25	0.085
886.43	0.085
886.61	0.085
886.79	0.085
886.97	0.085
887.15	0.085
887.32	0.085
887.50	0.086
887.68	0.086
887.86	0.086
888.04	0.086
888.22	0.086
888.40	0.086
888.57	0.086
888.75	0.086
888.93	0.086
889.11	0.086
889.29	0.086
889.47	0.087
889.65	0.087
889.82	0.087
890.00	0.087
890.18	0.086
890.36	0.086
890.54	0.087
890.72	0.087
890.90	0.087
891.07	0.087
891.25	0.086
891.43	0.086
891.61	0.086
891.79	0.086
891.97	0.086
892.14	0.086
892.32	0.086
892.50	0.086
892.68	0.087
892.86	0.087
893.03	0.086
893.21	0.087
893.39	0.087
893.57	0.087
893.75	0.087
893.93	0.087
894.10	0.087
894.28	0.087
894.46	0.087
894.64	0.087
894.82	0.087
894.99	0.087
895.17	0.087
895.35	0.087
895.53	0.087
895.71	0.087
895.88	0.087
896.06	0.087
896.24	0.087
896.42	0.087
896.59	0.088
896.77	0.088
896.95	0.087
897.13	0.088
897.31	0.088
897.48	0.088
897.66	0.088
897.84	0.088
898.02	0.088
898.19	0.088
898.37	0.088
898.55	0.088
898.73	0.088
898.91	0.088
899.08	0.088
899.26	0.088
899.44	0.088
899.62	0.088
899.79	0.089
899.97	0.089
900.15	0.088
900.33	0.088
900.50	0.088
900.68	0.088
900.86	0.088
901.04	0.088
901.21	0.089
901.39	0.089
901.57	0.089
901.74	0.089
901.92	0.089
902.10	0.089
902.28	0.089
902.45	0.089
902.63	0.089
902.81	0.089
902.99	0.090
903.16	0.089
903.34	0.090
903.52	0.089
903.69	0.089
903.87	0.089
904.05	0.089
904.22	0.090
904.40	0.090
904.58	0.090
904.76	0.090
904.93	0.090
905.11	0.090
905.29	0.090
905.46	0.090
905.64	0.090
905.82	0.090
905.99	0.090
906.17	0.090
906.35	0.091
906.53	0.091
906.70	0.091
906.88	0.091
907.06	0.091
907.23	0.090
907.41	0.091
907.59	0.091
907.76	0.091
907.94	0.091
908.12	0.091
908.29	0.091
908.47	0.091
908.65	0.091
908.82	0.091
909.00	0.091
909.18	0.092
909.35	0.092
909.53	0.092
909.71	0.092
909.88	0.092
910.06	0.092
910.23	0.092
910.41	0.092
910.59	0.092
910.76	0.091
910.94	0.092
911.12	0.091
911.29	0.092
911.47	0.092
911.65	0.092
911.82	0.092
912.00	0.092
912.17	0.092
912.35	0.093
912.53	0.093
912.70	0.093
912.88	0.093
913.06	0.094
913.23	0.094
913.41	0.094
913.58	0.094
913.76	0.094
913.94	0.094
914.11	0.095
914.29	0.095
914.46	0.095
914.64	0.095
914.82	0.095
914.99	0.095
915.17	0.095
915.34	0.095
915.52	0.095
915.70	0.095
915.87	0.095
916.05	0.095
916.22	0.095
916.40	0.096
916.57	0.096
916.75	0.096
916.93	0.096
917.10	0.095
917.28	0.095
917.45	0.095
917.63	0.096
917.80	0.096
917.98	0.096
918.16	0.096
918.33	0.096
918.51	0.096
918.68	0.096
918.86	0.097
919.03	0.097
919.21	0.097
919.39	0.097
919.56	0.098
919.74	0.098
919.91	0.098
920.09	0.099
920.26	0.099
920.44	0.099
920.61	0.099
920.79	0.100
920.96	0.100
921.14	0.101
921.31	0.101
921.49	0.101
921.67	0.101
921.84	0.101
922.02	0.101
922.19	0.101
922.37	0.101
922.54	0.102
922.72	0.102
922.89	0.102
923.07	0.102
923.24	0.102
923.42	0.103
923.59	0.103
923.77	0.103
923.94	0.104
924.12	0.104
924.29	0.104
924.47	0.104
924.64	0.105
924.82	0.105
924.99	0.105
925.17	0.106
925.34	0.106
925.52	0.106
925.69	0.106
925.87	0.107
926.04	0.107
926.22	0.108
926.39	0.108
926.57	0.108
926.74	0.108
926.91	0.109
927.09	0.109
927.26	0.109
927.44	0.109
927.61	0.110
927.79	0.110
927.96	0.110
928.14	0.110
928.31	0.110
928.49	0.111
928.66	0.111
928.84	0.112
929.01	0.112
929.18	0.113
929.36	0.114
929.53	0.114
929.71	0.114
929.88	0.115
930.06	0.115
930.23	0.116
930.41	0.116
930.58	0.117
930.75	0.117
930.93	0.117
931.10	0.117
931.28	0.118
931.45	0.118
931.63	0.118
931.80	0.118
931.97	0.119
932.15	0.120
932.32	0.120
932.50	0.120
932.67	0.121
932.84	0.121
933.02	0.122
933.19	0.122
933.37	0.123
933.54	0.123
933.71	0.124
933.89	0.125
934.06	0.125
934.24	0.126
934.41	0.126
934.58	0.126
934.76	0.127
934.93	0.128
935.11	0.127
935.28	0.128
935.45	0.129
935.63	0.129
935.80	0.130
935.98	0.130
936.15	0.130
936.32	0.131
936.50	0.132
936.67	0.132
936.84	0.132
937.02	0.134
937.19	0.134
937.36	0.134
937.54	0.135
937.71	0.136
937.89	0.136
938.06	0.137
938.23	0.137
938.41	0.138
938.58	0.138
938.75	0.138
938.93	0.139
939.10	0.139
939.27	0.139
939.45	0.140
939.62	0.140
939.79	0.141
939.97	0.142
940.14	0.143
940.31	0.143
940.49	0.144
940.66	0.145
940.83	0.145
941.01	0.146
941.18	0.147
941.35	0.147
941.53	0.148
941.70	0.149
941.87	0.149
942.05	0.150
942.22	0.150
942.39	0.151
942.57	0.151
942.74	0.152
942.91	0.152
943.08	0.153
943.26	0.153
943.43	0.154
943.60	0.154
943.78	0.155
943.95	0.156
944.12	0.156
944.29	0.157
944.47	0.157
944.64	0.158
944.81	0.159
944.99	0.160
945.16	0.160
945.33	0.161
945.50	0.162
945.68	0.163
945.85	0.163
946.02	0.165
946.20	0.165
946.37	0.167
946.54	0.167
946.71	0.168
946.89	0.169
947.06	0.170
947.23	0.170
947.40	0.172
947.58	0.172
947.75	0.173
947.92	0.174
948.09	0.174
948.27	0.176
948.44	0.177
948.61	0.178
948.78	0.179
948.96	0.181
949.13	0.181
949.30	0.182
949.47	0.183
949.65	0.185
949.82	0.187
949.99	0.187
950.16	0.188
950.33	0.189
950.51	0.190
950.68	0.191
950.85	0.192
951.02	0.194
951.20	0.195
951.37	0.196
951.54	0.196
951.71	0.198
951.88	0.199
952.06	0.200
952.23	0.201
952.40	0.203
952.57	0.204
952.74	0.205
952.92	0.206
953.09	0.207
953.26	0.209
953.43	0.210
953.60	0.211
953.77	0.211
953.95	0.213
954.12	0.215
954.29	0.216
954.46	0.218
954.63	0.219
954.81	0.220
954.98	0.221
955.15	0.223
955.32	0.224
955.49	0.224
955.66	0.226
955.84	0.227
956.01	0.228
956.18	0.230
956.35	0.231
956.52	0.231
956.69	0.233
956.87	0.233
957.04	0.234
957.21	0.236
957.38	0.236
957.55	0.237
957.72	0.238
957.89	0.239
958.07	0.239
958.24	0.241
958.41	0.243
958.58	0.243
958.75	0.244
958.92	0.244
959.09	0.245
959.26	0.245
959.44	0.246
959.61	0.248
959.78	0.248
959.95	0.249
960.12	0.250
960.29	0.252
960.46	0.251
960.63	0.251
960.81	0.252
960.98	0.253
961.15	0.254
961.32	0.254
961.49	0.253
961.66	0.255
961.83	0.255
962.00	0.255
962.17	0.256
962.34	0.256
962.52	0.257
962.69	0.258
962.86	0.257
963.03	0.257
963.20	0.258
963.37	0.257
963.54	0.258
963.71	0.258
963.88	0.258
964.05	0.259
964.22	0.260
964.39	0.258
964.56	0.259
964.74	0.260
964.91	0.260
965.08	0.260
965.25	0.260
965.42	0.261
965.59	0.261
965.76	0.262
965.93	0.262
966.10	0.261
966.27	0.262
966.44	0.261
966.61	0.263
966.78	0.262
966.95	0.262
967.12	0.263
967.29	0.265
967.46	0.264
967.63	0.264
967.80	0.265
967.97	0.265
968.14	0.265
968.32	0.265
968.49	0.266
968.66	0.265
968.83	0.266
969.00	0.266
969.17	0.265
969.34	0.266
969.51	0.267
969.68	0.266
969.85	0.267
970.02	0.267
970.19	0.267
970.36	0.267
970.53	0.267
970.70	0.266
970.87	0.267
971.04	0.266
971.21	0.267
971.38	0.266
971.55	0.267
971.72	0.266
971.89	0.267
972.06	0.267
972.23	0.267
972.40	0.267
972.57	0.266
972.74	0.266
972.91	0.267
973.07	0.266
973.24	0.266
973.41	0.266
973.58	0.265
973.75	0.277
973.92	0.265
974.09	0.264
974.26	0.264
974.43	0.263
974.60	0.264
974.77	0.265
974.94	0.264
975.11	0.265
975.28	0.266
975.45	0.264
975.62	0.265
975.79	0.267
975.96	0.265
976.13	0.264
976.30	0.265
976.47	0.264
976.64	0.264
976.80	0.264
976.97	0.264
977.14	0.264
977.31	0.264
977.48	0.265
977.65	0.265
977.82	0.263
977.99	0.265
978.16	0.265
978.33	0.265
978.50	0.265
978.67	0.265
978.83	0.265
979.00	0.265
979.17	0.264
979.34	0.263
979.51	0.263
979.68	0.263
979.85	0.262
980.02	0.263
980.19	0.261
980.36	0.263
980.52	0.264
980.69	0.262
980.86	0.262
981.03	0.262
981.20	0.260
981.37	0.261
981.54	0.262
981.71	0.260
981.88	0.261
982.04	0.260
982.21	0.259
982.38	0.260
982.55	0.259
982.72	0.259
982.89	0.259
983.06	0.258
983.22	0.258
983.39	0.259
983.56	0.259
983.73	0.258
983.90	0.258
984.07	0.259
984.24	0.258
984.40	0.258
984.57	0.257
984.74	0.259
984.91	0.260
985.08	0.258
985.25	0.256
985.41	0.256
985.58	0.256
985.75	0.258
985.92	0.257
986.09	0.255
986.26	0.255
986.42	0.255
986.59	0.253
986.76	0.254
986.93	0.254
987.10	0.255
987.27	0.252
987.43	0.250
987.60	0.251
987.77	0.251
987.94	0.250
988.11	0.250
988.27	0.250
988.44	0.249
988.61	0.248
988.78	0.246
988.95	0.247
989.11	0.248
989.28	0.247
989.45	0.246
989.62	0.246
989.79	0.247
989.95	0.246
990.12	0.247
990.29	0.248
990.46	0.246
990.62	0.244
990.79	0.245
990.96	0.245
991.13	0.245
991.30	0.243
991.46	0.243
991.63	0.241
991.80	0.240
991.97	0.240
992.13	0.240
992.30	0.241
992.47	0.240
992.64	0.239
992.80	0.239
992.97	0.240
993.14	0.238
993.31	0.235
993.47	0.239
993.64	0.237
993.81	0.236
993.98	0.236
994.14	0.235
994.31	0.234
994.48	0.235
994.64	0.235
994.81	0.233
994.98	0.234
995.15	0.232
995.31	0.232
995.48	0.231
995.65	0.233
995.82	0.231
995.98	0.230
996.15	0.231
996.32	0.234
996.48	0.233
996.65	0.233
996.82	0.230
996.99	0.230
997.15	0.230
997.32	0.232
997.49	0.230
997.65	0.231
997.82	0.231
997.99	0.229
998.15	0.229
998.32	0.230
998.49	0.228
998.65	0.228
998.82	0.228
998.99	0.226
999.15	0.226
999.32	0.225
999.49	0.224
999.65	0.225
999.82	0.222
999.99	0.222
1000.15	0.222
1000.32	0.222
1000.49	0.222
1000.65	0.220
1000.82	0.220
1000.99	0.221
1001.15	0.220
1001.32	0.219
1001.49	0.220
1001.65	0.220
1001.82	0.222
1001.99	0.219
1002.15	0.219
1002.32	0.218
1002.49	0.219
1002.65	0.218
1002.82	0.216
1002.99	0.216
1003.15	0.217
1003.32	0.216
1003.48	0.216
1003.65	0.215
1003.82	0.214
1003.98	0.211
1004.15	0.211
1004.32	0.211
1004.48	0.212
1004.65	0.213
1004.81	0.210
1004.98	0.209
1005.15	0.209
1005.31	0.209
1005.48	0.207
1005.64	0.208
1005.81	0.211
1005.98	0.207
1006.14	0.207
1006.31	0.207
1006.47	0.206
1006.64	0.205
1006.81	0.205
1006.97	0.205
1007.14	0.204
1007.30	0.205
1007.47	0.204
1007.63	0.201
1007.80	0.200
1007.97	0.200
1008.13	0.200
1008.30	0.200
1008.46	0.200
1008.63	0.199
1008.79	0.200
1008.96	0.199
1009.13	0.201
1009.29	0.199
1009.46	0.199
1009.62	0.199
1009.79	0.196
1009.95	0.196
1010.12	0.197
1010.28	0.196
1010.45	0.196
1010.62	0.195
1010.78	0.193
1010.95	0.192
1011.11	0.192
1011.28	0.191
1011.44	0.194
1011.61	0.191
1011.77	0.190
1011.94	0.190
1012.10	0.191
1012.27	0.191
1012.43	0.191
1012.60	0.190
1012.76	0.190
1012.93	0.189
1013.10	0.188
1013.26	0.186
1013.43	0.188
1013.59	0.196
1013.76	0.188
1013.92	0.187
1014.09	0.185
1014.25	0.186
1014.42	0.188
1014.58	0.187
1014.75	0.190
1014.91	0.188
1015.08	0.190
1015.24	0.187
1015.41	0.188
1015.57	0.188
1015.73	0.186
1015.90	0.184
1016.06	0.187
1016.23	0.184
1016.39	0.184
1016.56	0.184
1016.72	0.183
1016.89	0.183
1017.05	0.185
1017.22	0.181
1017.38	0.181
1017.55	0.180
1017.71	0.181
1017.88	0.180
1018.04	0.181
1018.21	0.178
1018.37	0.177
1018.53	0.176
1018.70	0.176
1018.86	0.175
1019.03	0.177
1019.19	0.175
1019.36	0.174
1019.52	0.176
1019.69	0.177
1019.85	0.175
1020.01	0.176
1020.18	0.175
1020.34	0.176
1020.51	0.174
1020.67	0.175
1020.84	0.174
1021.00	0.175
1021.16	0.172
1021.33	0.172
1021.49	0.170
1021.66	0.172
1021.82	0.169
1021.98	0.170
1022.15	0.169
1022.31	0.169
1022.48	0.168
1022.64	0.169
1022.80	0.167
1022.97	0.165
1023.13	0.165
1023.30	0.165
1023.46	0.165
1023.62	0.162
1023.79	0.163
1023.95	0.164
1024.12	0.163
1024.28	0.162
1024.44	0.163
1024.61	0.162
1024.77	0.161
1024.93	0.160
1025.10	0.162
1025.26	0.160
1025.43	0.162
1025.59	0.158
1025.75	0.161
1025.92	0.159
1026.08	0.159
1026.24	0.159
1026.41	0.160
1026.57	0.158
1026.73	0.157
1026.90	0.158
1027.06	0.157
1027.23	0.158
1027.39	0.157
1027.55	0.157
1027.72	0.156
1027.88	0.155
1028.04	0.156
1028.21	0.157
1028.37	0.151
1028.53	0.157
1028.70	0.155
1028.86	0.153
1029.02	0.153
1029.19	0.154
1029.35	0.151
1029.51	0.151
1029.67	0.150
1029.84	0.151
1030.00	0.147
1030.16	0.147
1030.33	0.149
1030.49	0.147
1030.65	0.145
1030.82	0.161
1030.98	0.148
1031.14	0.149
1031.31	0.149
1031.47	0.147
1031.63	0.150
1031.79	0.149
1031.96	0.151
1032.12	0.151
1032.28	0.149
1032.45	0.153
1032.61	0.150
1032.77	0.150
1032.93	0.148
1033.10	0.149
1033.26	0.152
1033.42	0.149
1033.58	0.150
1033.75	0.151
1033.91	0.149
1034.07	0.152
1034.24	0.150
1034.40	0.148
1034.56	0.148
1034.72	0.147
1034.89	0.147
1035.05	0.143
1035.21	0.144
1035.37	0.142
1035.54	0.144
1035.70	0.143
1035.86	0.141
1036.02	0.143
1036.19	0.142
1036.35	0.140
1036.51	0.144
1036.67	0.142
1036.83	0.141
1037.00	0.139
1037.16	0.139
1037.32	0.140
1037.48	0.139
1037.65	0.144
1037.81	0.137
1037.97	0.138
1038.13	0.138
1038.29	0.137
1038.46	0.135
1038.62	0.140
1038.78	0.137
1038.94	0.135
1039.10	0.138
1039.27	0.133
1039.43	0.136
1039.59	0.137
1039.75	0.136
1039.91	0.134
1040.08	0.134
1040.24	0.137
1040.40	0.139
1040.56	0.139
1040.72	0.132
1040.89	0.135
1041.05	0.138
1041.21	0.135
1041.37	0.133
1041.53	0.140
1041.69	0.137
1041.86	0.136
1042.02	0.132
1042.18	0.132
1042.34	0.132
1042.50	0.138
1042.66	0.133
1042.83	0.132
1042.99	0.136
1043.15	0.131
1043.31	0.131
1043.47	0.135
1043.63	0.133
1043.79	0.134
1043.96	0.135
1044.12	0.139
1044.28	0.136
1044.44	0.138
1044.60	0.133
1044.76	0.131
1044.92	0.133
1045.09	0.135
1045.25	0.131
1045.41	0.131
1045.57	0.126
1045.73	0.126
1045.89	0.127
1046.05	0.129
1046.21	0.134
1046.38	0.135
1046.54	0.134
1046.70	0.129
1046.86	0.124
>>>>>End Processed Spectral Data<<<<<
