SpectraSuite Data File
++++++++++++++++++++++++++++++++++++
Date: Mon May 20 12:12:14 CDT 2013
User: Students
Dark Spectrum Present: Yes
Reference Spectrum Present: Yes
Number of Sampled Component Spectra: 1
Spectrometers: USB4H00887
Integration Time (usec): 60000 (USB4H00887)
Spectra Averaged: 5 (USB4H00887)
Boxcar Smoothing: 5 (USB4H00887)
Correct for Electrical Dark: No (USB4H00887)
Strobe/Lamp Enabled: No (USB4H00887)
Correct for Detector Non-linearity: No (USB4H00887)
Correct for Stray Light: No (USB4H00887)
Number of Pixels in Processed Spectrum: 3648
>>>>>Begin Processed Spectral Data<<<<<
345.83	-0.246
346.05	-0.246
346.26	-0.246
346.48	-0.000
346.70	0.589
346.92	0.106
347.14	0.069
347.35	0.074
347.57	0.288
347.79	-0.255
348.01	-0.215
348.23	-0.378
348.44	-0.000
348.66	0.331
348.88	-0.402
349.10	-0.242
349.32	0.153
349.53	-0.040
349.75	-0.039
349.97	-0.044
350.19	-0.035
350.41	-0.003
350.62	0.147
350.84	-0.013
351.06	-0.021
351.28	-0.052
351.50	-0.218
351.71	-0.154
351.93	-0.109
352.15	-0.024
352.37	-0.134
352.58	-0.006
352.80	0.001
353.02	0.052
353.24	0.090
353.46	0.689
353.67	-0.213
353.89	0.075
354.11	0.082
354.33	0.077
354.54	0.124
354.76	0.280
354.98	0.397
355.20	0.326
355.41	0.100
355.63	0.173
355.85	0.077
356.07	0.830
356.28	0.085
356.50	0.157
356.72	0.061
356.94	0.161
357.15	0.213
357.37	-0.000
357.59	0.105
357.81	0.071
358.02	0.087
358.24	0.070
358.46	0.155
358.68	0.085
358.89	0.037
359.11	-0.000
359.33	0.024
359.55	-0.275
359.76	0.028
359.98	0.055
360.20	0.057
360.42	0.068
360.63	0.066
360.85	0.029
361.07	0.178
361.29	0.040
361.50	0.155
361.72	0.075
361.94	0.226
362.15	0.134
362.37	0.060
362.59	0.065
362.81	0.084
363.02	0.161
363.24	0.278
363.46	0.172
363.68	0.223
363.89	0.130
364.11	0.170
364.33	0.259
364.54	0.145
364.76	0.188
364.98	0.167
365.20	0.187
365.41	0.103
365.63	0.139
365.85	0.094
366.06	0.259
366.28	0.225
366.50	0.158
366.71	0.057
366.93	0.096
367.15	0.072
367.37	0.090
367.58	0.124
367.80	0.157
368.02	0.362
368.23	0.133
368.45	0.140
368.67	0.136
368.88	0.138
369.10	-0.000
369.32	0.129
369.53	0.100
369.75	0.147
369.97	0.405
370.19	0.183
370.40	0.084
370.62	0.283
370.84	0.096
371.05	0.587
371.27	0.145
371.49	0.163
371.70	0.198
371.92	0.253
372.14	0.118
372.35	0.116
372.57	0.144
372.79	0.339
373.00	0.087
373.22	0.144
373.44	0.133
373.65	0.101
373.87	0.127
374.09	0.468
374.30	0.113
374.52	0.133
374.74	0.101
374.95	0.482
375.17	0.126
375.39	-0.000
375.60	0.157
375.82	0.271
376.04	0.117
376.25	0.147
376.47	0.080
376.68	0.209
376.90	0.113
377.12	0.250
377.33	0.141
377.55	0.361
377.77	0.166
377.98	0.203
378.20	0.134
378.42	0.164
378.63	0.194
378.85	-0.000
379.07	0.133
379.28	0.525
379.50	0.316
379.71	0.143
379.93	0.095
380.15	0.136
380.36	0.237
380.58	0.150
380.80	0.361
381.01	0.132
381.23	0.103
381.44	0.120
381.66	0.125
381.88	0.155
382.09	-0.076
382.31	0.112
382.53	0.113
382.74	0.451
382.96	0.145
383.17	0.119
383.39	0.144
383.61	0.202
383.82	0.141
384.04	0.183
384.25	0.212
384.47	0.211
384.69	0.205
384.90	0.205
385.12	0.444
385.33	0.291
385.55	0.229
385.77	0.374
385.98	0.193
386.20	0.284
386.41	0.245
386.63	0.286
386.85	0.234
387.06	0.315
387.28	0.505
387.49	0.291
387.71	0.210
387.93	0.189
388.14	0.588
388.36	0.221
388.57	0.202
388.79	0.229
389.01	-0.000
389.22	0.305
389.44	0.248
389.65	0.202
389.87	0.197
390.08	0.235
390.30	0.176
390.52	0.344
390.73	0.345
390.95	0.238
391.16	0.227
391.38	-0.000
391.59	0.240
391.81	0.208
392.03	0.193
392.24	0.240
392.46	0.194
392.67	0.186
392.89	0.258
393.10	0.405
393.32	0.261
393.53	0.297
393.75	0.198
393.97	0.231
394.18	0.325
394.40	0.285
394.61	0.299
394.83	0.264
395.04	0.309
395.26	0.198
395.47	0.288
395.69	0.244
395.91	0.265
396.12	0.319
396.34	0.310
396.55	0.194
396.77	0.283
396.98	1.068
397.20	0.337
397.41	0.377
397.63	0.290
397.84	0.256
398.06	0.242
398.27	0.249
398.49	0.285
398.71	0.215
398.92	0.267
399.14	0.356
399.35	0.435
399.57	0.430
399.78	0.290
400.00	0.280
400.21	0.370
400.43	0.294
400.64	0.305
400.86	0.716
401.07	0.372
401.29	0.309
401.50	0.340
401.72	0.499
401.93	0.316
402.15	0.395
402.36	0.364
402.58	0.292
402.79	0.329
403.01	0.555
403.22	0.421
403.44	0.284
403.65	0.474
403.87	0.520
404.08	0.388
404.30	0.625
404.51	0.327
404.73	0.392
404.94	0.348
405.16	0.362
405.37	0.285
405.59	0.531
405.80	0.320
406.02	0.407
406.23	0.392
406.45	0.443
406.66	0.485
406.88	0.308
407.09	0.459
407.31	0.365
407.52	0.445
407.74	0.364
407.95	0.435
408.17	0.412
408.38	0.425
408.60	0.280
408.81	0.485
409.03	0.355
409.24	0.372
409.45	0.436
409.67	0.403
409.88	0.348
410.10	0.442
410.31	0.364
410.53	0.358
410.74	0.492
410.96	0.486
411.17	0.489
411.39	0.382
411.60	0.349
411.82	0.406
412.03	0.406
412.24	0.398
412.46	0.594
412.67	0.468
412.89	0.457
413.10	0.459
413.32	0.417
413.53	0.492
413.75	0.504
413.96	0.378
414.17	0.521
414.39	0.528
414.60	0.438
414.82	0.573
415.03	0.445
415.25	0.496
415.46	0.344
415.68	0.491
415.89	0.956
416.10	0.770
416.32	0.413
416.53	0.486
416.75	0.461
416.96	0.553
417.18	0.469
417.39	0.450
417.60	0.443
417.82	0.646
418.03	0.560
418.25	0.466
418.46	0.486
418.67	0.428
418.89	0.451
419.10	0.462
419.32	0.621
419.53	0.575
419.75	0.491
419.96	0.440
420.17	0.545
420.39	0.514
420.60	0.537
420.82	0.665
421.03	0.537
421.24	0.452
421.46	0.503
421.67	0.556
421.89	0.479
422.10	0.524
422.31	0.515
422.53	0.757
422.74	0.539
422.96	0.423
423.17	0.477
423.38	0.601
423.60	0.507
423.81	0.645
424.03	0.542
424.24	0.608
424.45	0.595
424.67	0.584
424.88	0.514
425.09	0.569
425.31	0.527
425.52	0.544
425.74	0.611
425.95	0.669
426.16	0.513
426.38	0.595
426.59	0.542
426.80	0.632
427.02	0.675
427.23	0.526
427.45	0.689
427.66	0.676
427.87	0.520
428.09	0.545
428.30	0.597
428.51	0.588
428.73	0.656
428.94	0.573
429.15	0.557
429.37	0.533
429.58	0.555
429.79	0.517
430.01	0.604
430.22	0.594
430.44	0.621
430.65	0.557
430.86	0.591
431.08	0.567
431.29	0.525
431.50	0.622
431.72	0.818
431.93	0.668
432.14	0.488
432.36	0.542
432.57	0.554
432.78	0.573
433.00	0.534
433.21	0.529
433.42	0.656
433.64	0.560
433.85	0.627
434.06	0.518
434.28	0.546
434.49	0.574
434.70	0.588
434.92	0.604
435.13	0.641
435.34	0.642
435.56	0.612
435.77	0.614
435.98	0.798
436.20	0.662
436.41	0.563
436.62	0.555
436.83	0.641
437.05	0.719
437.26	0.619
437.47	0.555
437.69	0.611
437.90	0.563
438.11	0.556
438.33	0.612
438.54	0.631
438.75	0.815
438.97	0.795
439.18	0.586
439.39	0.613
439.60	0.667
439.82	0.624
440.03	0.576
440.24	0.834
440.46	0.623
440.67	0.601
440.88	0.650
441.10	0.606
441.31	0.602
441.52	0.658
441.73	0.748
441.95	0.663
442.16	0.614
442.37	0.967
442.58	0.605
442.80	0.595
443.01	0.785
443.22	0.712
443.44	0.606
443.65	0.722
443.86	0.717
444.07	0.771
444.29	0.664
444.50	0.859
444.71	0.650
444.92	0.597
445.14	0.762
445.35	0.798
445.56	0.622
445.78	0.730
445.99	0.720
446.20	0.618
446.41	0.689
446.63	0.685
446.84	0.640
447.05	0.638
447.26	0.765
447.48	0.655
447.69	0.619
447.90	0.704
448.11	0.625
448.33	0.657
448.54	0.671
448.75	0.704
448.96	0.726
449.18	0.773
449.39	0.689
449.60	0.671
449.81	0.812
450.03	0.711
450.24	0.774
450.45	0.740
450.66	0.723
450.87	0.768
451.09	0.715
451.30	0.692
451.51	0.767
451.72	0.777
451.94	0.801
452.15	0.868
452.36	0.710
452.57	0.726
452.78	0.723
453.00	0.752
453.21	0.706
453.42	0.684
453.63	0.773
453.85	0.738
454.06	0.734
454.27	0.860
454.48	0.766
454.69	0.698
454.91	0.771
455.12	0.672
455.33	0.761
455.54	0.777
455.75	0.744
455.97	0.772
456.18	0.760
456.39	0.766
456.60	0.795
456.81	0.732
457.03	0.744
457.24	0.742
457.45	0.832
457.66	0.767
457.87	0.725
458.09	0.744
458.30	0.661
458.51	0.787
458.72	0.812
458.93	0.815
459.15	0.721
459.36	0.784
459.57	0.807
459.78	0.848
459.99	0.765
460.20	0.728
460.42	0.814
460.63	0.769
460.84	0.752
461.05	0.770
461.26	0.836
461.47	0.746
461.69	0.799
461.90	0.834
462.11	0.798
462.32	0.851
462.53	0.783
462.74	0.876
462.96	0.763
463.17	0.752
463.38	0.791
463.59	0.902
463.80	0.753
464.01	0.776
464.23	0.865
464.44	0.825
464.65	0.834
464.86	0.854
465.07	0.860
465.28	0.812
465.49	0.836
465.71	0.794
465.92	0.829
466.13	0.872
466.34	0.806
466.55	0.861
466.76	0.818
466.97	0.840
467.19	0.838
467.40	0.878
467.61	0.887
467.82	0.804
468.03	0.785
468.24	0.859
468.45	0.895
468.66	0.880
468.88	0.891
469.09	0.890
469.30	0.943
469.51	0.861
469.72	0.908
469.93	0.878
470.14	0.856
470.35	0.953
470.57	0.896
470.78	0.830
470.99	0.962
471.20	0.898
471.41	0.858
471.62	0.909
471.83	0.876
472.04	0.899
472.25	0.944
472.47	0.857
472.68	0.867
472.89	0.875
473.10	0.922
473.31	0.870
473.52	0.928
473.73	0.948
473.94	0.866
474.15	0.889
474.36	0.890
474.57	0.915
474.79	0.893
475.00	0.893
475.21	0.877
475.42	0.970
475.63	0.879
475.84	0.912
476.05	0.920
476.26	0.892
476.47	0.931
476.68	0.980
476.89	0.901
477.10	0.952
477.32	0.936
477.53	0.989
477.74	0.904
477.95	0.940
478.16	0.884
478.37	0.928
478.58	0.930
478.79	0.941
479.00	0.942
479.21	0.904
479.42	0.942
479.63	0.947
479.84	0.910
480.05	0.911
480.26	0.945
480.47	0.966
480.69	0.965
480.90	0.928
481.11	0.925
481.32	0.985
481.53	0.926
481.74	0.979
481.95	0.947
482.16	0.965
482.37	0.975
482.58	0.935
482.79	0.954
483.00	0.987
483.21	0.933
483.42	0.907
483.63	0.986
483.84	1.014
484.05	1.005
484.26	0.974
484.47	0.971
484.68	0.931
484.89	0.937
485.10	0.986
485.31	0.963
485.52	0.969
485.73	0.969
485.94	1.011
486.15	0.957
486.37	0.972
486.58	0.935
486.79	0.951
487.00	0.998
487.21	0.990
487.42	0.983
487.63	0.989
487.84	1.010
488.05	1.006
488.26	0.966
488.47	0.973
488.68	1.002
488.89	0.983
489.10	0.974
489.31	0.986
489.52	1.021
489.73	0.992
489.94	1.030
490.15	0.984
490.36	1.031
490.57	0.979
490.78	0.964
490.99	1.002
491.20	1.079
491.41	1.036
491.62	0.976
491.83	1.005
492.04	1.000
492.25	1.008
492.45	1.010
492.66	1.032
492.87	1.022
493.08	1.008
493.29	0.993
493.50	0.984
493.71	0.991
493.92	0.987
494.13	1.007
494.34	1.029
494.55	1.038
494.76	1.071
494.97	1.060
495.18	1.023
495.39	1.040
495.60	0.986
495.81	0.989
496.02	1.009
496.23	1.004
496.44	1.036
496.65	1.025
496.86	1.026
497.07	1.055
497.28	1.053
497.49	0.999
497.70	0.999
497.91	1.021
498.12	1.004
498.32	1.047
498.53	1.031
498.74	1.020
498.95	1.044
499.16	0.999
499.37	0.999
499.58	1.007
499.79	1.038
500.00	1.035
500.21	1.065
500.42	1.008
500.63	1.008
500.84	1.027
501.05	1.005
501.26	1.031
501.46	1.071
501.67	1.034
501.88	1.036
502.09	1.011
502.30	1.019
502.51	1.068
502.72	1.018
502.93	1.036
503.14	1.059
503.35	1.031
503.56	1.028
503.77	1.058
503.97	1.033
504.18	1.032
504.39	1.070
504.60	1.037
504.81	1.068
505.02	1.060
505.23	1.058
505.44	1.039
505.65	1.046
505.86	1.028
506.07	1.099
506.27	1.056
506.48	1.063
506.69	1.046
506.90	1.066
507.11	1.061
507.32	1.034
507.53	1.046
507.74	1.038
507.95	1.053
508.15	1.059
508.36	1.060
508.57	1.070
508.78	1.052
508.99	1.048
509.20	1.022
509.41	1.048
509.62	1.038
509.82	1.036
510.03	1.045
510.24	1.045
510.45	1.066
510.66	1.059
510.87	1.055
511.08	1.014
511.29	1.056
511.49	1.034
511.70	1.081
511.91	1.012
512.12	1.010
512.33	1.044
512.54	1.061
512.75	1.041
512.95	1.070
513.16	1.060
513.37	1.038
513.58	1.078
513.79	1.043
514.00	1.049
514.20	1.068
514.41	1.056
514.62	1.022
514.83	1.062
515.04	1.054
515.25	1.033
515.46	1.047
515.66	1.047
515.87	1.060
516.08	1.027
516.29	1.050
516.50	1.033
516.71	1.026
516.91	1.037
517.12	1.055
517.33	1.042
517.54	1.028
517.75	1.030
517.95	1.047
518.16	1.057
518.37	1.022
518.58	1.028
518.79	1.000
519.00	1.031
519.20	1.040
519.41	1.013
519.62	1.030
519.83	1.038
520.04	1.001
520.24	0.995
520.45	1.006
520.66	1.028
520.87	0.992
521.08	0.989
521.28	0.995
521.49	1.010
521.70	0.978
521.91	0.994
522.12	0.976
522.32	1.000
522.53	0.981
522.74	0.970
522.95	0.979
523.16	0.981
523.36	0.991
523.57	0.971
523.78	0.965
523.99	0.972
524.20	0.964
524.40	0.979
524.61	0.984
524.82	0.959
525.03	0.965
525.23	0.966
525.44	0.951
525.65	0.950
525.86	0.972
526.06	0.944
526.27	0.944
526.48	0.955
526.69	0.934
526.90	0.940
527.10	0.977
527.31	0.929
527.52	0.922
527.73	0.913
527.93	0.924
528.14	0.930
528.35	0.921
528.56	0.922
528.76	0.914
528.97	0.906
529.18	0.896
529.39	0.895
529.59	0.899
529.80	0.930
530.01	0.903
530.22	0.900
530.42	0.869
530.63	0.886
530.84	0.863
531.05	0.876
531.25	0.878
531.46	0.870
531.67	0.848
531.88	0.867
532.08	0.861
532.29	0.857
532.50	0.851
532.70	0.843
532.91	0.833
533.12	0.836
533.33	0.859
533.53	0.830
533.74	0.829
533.95	0.835
534.15	0.823
534.36	0.825
534.57	0.806
534.78	0.809
534.98	0.821
535.19	0.791
535.40	0.793
535.60	0.812
535.81	0.792
536.02	0.795
536.23	0.788
536.43	0.789
536.64	0.776
536.85	0.785
537.05	0.793
537.26	0.770
537.47	0.774
537.67	0.764
537.88	0.758
538.09	0.765
538.30	0.754
538.50	0.745
538.71	0.757
538.92	0.743
539.12	0.739
539.33	0.734
539.54	0.734
539.74	0.739
539.95	0.727
540.16	0.725
540.36	0.717
540.57	0.718
540.78	0.710
540.98	0.709
541.19	0.707
541.40	0.696
541.60	0.706
541.81	0.700
542.02	0.699
542.22	0.690
542.43	0.684
542.64	0.680
542.84	0.679
543.05	0.671
543.26	0.671
543.46	0.674
543.67	0.671
543.88	0.666
544.08	0.655
544.29	0.649
544.50	0.649
544.70	0.649
544.91	0.640
545.12	0.641
545.32	0.635
545.53	0.638
545.74	0.626
545.94	0.623
546.15	0.621
546.35	0.618
546.56	0.615
546.77	0.612
546.97	0.610
547.18	0.601
547.39	0.602
547.59	0.601
547.80	0.596
548.01	0.601
548.21	0.597
548.42	0.589
548.62	0.588
548.83	0.585
549.04	0.581
549.24	0.573
549.45	0.573
549.65	0.570
549.86	0.566
550.07	0.565
550.27	0.562
550.48	0.570
550.69	0.555
550.89	0.556
551.10	0.552
551.30	0.551
551.51	0.550
551.72	0.540
551.92	0.541
552.13	0.540
552.33	0.541
552.54	0.536
552.75	0.529
552.95	0.530
553.16	0.525
553.36	0.523
553.57	0.520
553.78	0.518
553.98	0.519
554.19	0.510
554.39	0.507
554.60	0.509
554.80	0.508
555.01	0.500
555.22	0.502
555.42	0.498
555.63	0.491
555.83	0.495
556.04	0.489
556.25	0.491
556.45	0.482
556.66	0.480
556.86	0.483
557.07	0.481
557.27	0.481
557.48	0.475
557.68	0.472
557.89	0.474
558.10	0.470
558.30	0.467
558.51	0.465
558.71	0.463
558.92	0.459
559.12	0.461
559.33	0.463
559.54	0.458
559.74	0.454
559.95	0.452
560.15	0.451
560.36	0.449
560.56	0.444
560.77	0.444
560.97	0.444
561.18	0.438
561.38	0.437
561.59	0.440
561.79	0.436
562.00	0.433
562.21	0.430
562.41	0.429
562.62	0.428
562.82	0.426
563.03	0.422
563.23	0.421
563.44	0.420
563.64	0.417
563.85	0.419
564.05	0.412
564.26	0.411
564.46	0.410
564.67	0.410
564.87	0.406
565.08	0.403
565.28	0.402
565.49	0.403
565.69	0.401
565.90	0.397
566.10	0.399
566.31	0.392
566.51	0.395
566.72	0.395
566.92	0.389
567.13	0.388
567.33	0.387
567.54	0.386
567.74	0.385
567.95	0.381
568.15	0.382
568.36	0.381
568.56	0.379
568.77	0.374
568.97	0.373
569.18	0.372
569.38	0.371
569.59	0.371
569.79	0.368
570.00	0.366
570.20	0.364
570.41	0.363
570.61	0.362
570.82	0.363
571.02	0.359
571.23	0.361
571.43	0.357
571.64	0.355
571.84	0.354
572.05	0.353
572.25	0.352
572.45	0.350
572.66	0.348
572.86	0.346
573.07	0.345
573.27	0.345
573.48	0.344
573.68	0.340
573.89	0.339
574.09	0.340
574.30	0.338
574.50	0.337
574.70	0.337
574.91	0.335
575.11	0.335
575.32	0.335
575.52	0.331
575.73	0.331
575.93	0.331
576.14	0.330
576.34	0.328
576.54	0.327
576.75	0.325
576.95	0.324
577.16	0.322
577.36	0.320
577.57	0.320
577.77	0.318
577.97	0.315
578.18	0.316
578.38	0.313
578.59	0.311
578.79	0.310
579.00	0.311
579.20	0.309
579.40	0.308
579.61	0.308
579.81	0.307
580.02	0.305
580.22	0.305
580.42	0.303
580.63	0.303
580.83	0.302
581.04	0.300
581.24	0.299
581.45	0.298
581.65	0.298
581.85	0.296
582.06	0.294
582.26	0.294
582.47	0.293
582.67	0.293
582.87	0.292
583.08	0.289
583.28	0.289
583.48	0.287
583.69	0.284
583.89	0.284
584.10	0.286
584.30	0.283
584.50	0.282
584.71	0.280
584.91	0.280
585.12	0.278
585.32	0.279
585.52	0.277
585.73	0.275
585.93	0.275
586.13	0.274
586.34	0.273
586.54	0.272
586.75	0.270
586.95	0.269
587.15	0.269
587.36	0.268
587.56	0.267
587.76	0.266
587.97	0.265
588.17	0.264
588.37	0.264
588.58	0.264
588.78	0.261
588.98	0.262
589.19	0.260
589.39	0.258
589.60	0.260
589.80	0.257
590.00	0.257
590.21	0.257
590.41	0.255
590.61	0.255
590.82	0.254
591.02	0.254
591.22	0.252
591.43	0.253
591.63	0.251
591.83	0.251
592.04	0.249
592.24	0.250
592.44	0.247
592.65	0.246
592.85	0.246
593.05	0.245
593.26	0.244
593.46	0.243
593.66	0.243
593.86	0.242
594.07	0.240
594.27	0.241
594.47	0.239
594.68	0.238
594.88	0.239
595.08	0.238
595.29	0.238
595.49	0.236
595.69	0.236
595.90	0.234
596.10	0.235
596.30	0.234
596.50	0.233
596.71	0.233
596.91	0.232
597.11	0.232
597.32	0.232
597.52	0.231
597.72	0.230
597.93	0.230
598.13	0.228
598.33	0.228
598.53	0.227
598.74	0.227
598.94	0.226
599.14	0.225
599.35	0.225
599.55	0.224
599.75	0.223
599.95	0.223
600.16	0.223
600.36	0.221
600.56	0.221
600.76	0.220
600.97	0.218
601.17	0.218
601.37	0.218
601.58	0.217
601.78	0.217
601.98	0.216
602.18	0.215
602.39	0.215
602.59	0.215
602.79	0.214
602.99	0.214
603.20	0.213
603.40	0.213
603.60	0.212
603.80	0.211
604.01	0.211
604.21	0.210
604.41	0.210
604.61	0.209
604.82	0.209
605.02	0.209
605.22	0.208
605.42	0.208
605.62	0.208
605.83	0.206
606.03	0.206
606.23	0.206
606.43	0.205
606.64	0.205
606.84	0.204
607.04	0.204
607.24	0.203
607.45	0.203
607.65	0.202
607.85	0.203
608.05	0.201
608.25	0.200
608.46	0.201
608.66	0.201
608.86	0.200
609.06	0.198
609.26	0.198
609.47	0.199
609.67	0.197
609.87	0.198
610.07	0.197
610.28	0.196
610.48	0.196
610.68	0.196
610.88	0.195
611.08	0.195
611.29	0.194
611.49	0.194
611.69	0.195
611.89	0.193
612.09	0.192
612.29	0.192
612.50	0.191
612.70	0.191
612.90	0.190
613.10	0.189
613.30	0.189
613.51	0.189
613.71	0.188
613.91	0.192
614.11	0.187
614.31	0.187
614.51	0.187
614.72	0.186
614.92	0.186
615.12	0.186
615.32	0.186
615.52	0.185
615.72	0.185
615.93	0.185
616.13	0.184
616.33	0.184
616.53	0.184
616.73	0.185
616.93	0.184
617.14	0.184
617.34	0.184
617.54	0.183
617.74	0.184
617.94	0.183
618.14	0.182
618.34	0.182
618.55	0.182
618.75	0.182
618.95	0.181
619.15	0.181
619.35	0.180
619.55	0.179
619.75	0.180
619.96	0.179
620.16	0.179
620.36	0.179
620.56	0.179
620.76	0.178
620.96	0.178
621.16	0.178
621.36	0.177
621.57	0.177
621.77	0.178
621.97	0.177
622.17	0.177
622.37	0.177
622.57	0.176
622.77	0.175
622.97	0.174
623.18	0.175
623.38	0.174
623.58	0.174
623.78	0.174
623.98	0.173
624.18	0.172
624.38	0.172
624.58	0.172
624.78	0.173
624.98	0.173
625.19	0.172
625.39	0.172
625.59	0.171
625.79	0.171
625.99	0.171
626.19	0.171
626.39	0.171
626.59	0.171
626.79	0.171
626.99	0.170
627.19	0.170
627.40	0.170
627.60	0.170
627.80	0.170
628.00	0.169
628.20	0.169
628.40	0.169
628.60	0.169
628.80	0.168
629.00	0.168
629.20	0.167
629.40	0.167
629.60	0.166
629.80	0.166
630.00	0.166
630.20	0.165
630.41	0.164
630.61	0.164
630.81	0.164
631.01	0.164
631.21	0.163
631.41	0.163
631.61	0.164
631.81	0.164
632.01	0.163
632.21	0.163
632.41	0.162
632.61	0.163
632.81	0.163
633.01	0.163
633.21	0.163
633.41	0.163
633.61	0.162
633.81	0.162
634.01	0.161
634.21	0.161
634.41	0.161
634.61	0.161
634.81	0.160
635.01	0.160
635.22	0.160
635.42	0.160
635.62	0.160
635.82	0.161
636.02	0.160
636.22	0.159
636.42	0.159
636.62	0.159
636.82	0.159
637.02	0.158
637.22	0.158
637.42	0.157
637.62	0.156
637.82	0.157
638.02	0.156
638.22	0.156
638.42	0.156
638.62	0.155
638.82	0.155
639.02	0.155
639.22	0.155
639.42	0.155
639.62	0.155
639.82	0.154
640.02	0.154
640.22	0.154
640.42	0.154
640.62	0.154
640.82	0.154
641.02	0.154
641.22	0.154
641.42	0.153
641.61	0.154
641.81	0.154
642.01	0.153
642.21	0.153
642.41	0.153
642.61	0.152
642.81	0.151
643.01	0.151
643.21	0.150
643.41	0.151
643.61	0.150
643.81	0.150
644.01	0.149
644.21	0.149
644.41	0.149
644.61	0.149
644.81	0.149
645.01	0.149
645.21	0.148
645.41	0.149
645.61	0.148
645.81	0.148
646.01	0.148
646.21	0.148
646.40	0.148
646.60	0.148
646.80	0.148
647.00	0.147
647.20	0.146
647.40	0.147
647.60	0.146
647.80	0.146
648.00	0.146
648.20	0.146
648.40	0.145
648.60	0.144
648.80	0.144
649.00	0.144
649.20	0.144
649.39	0.144
649.59	0.143
649.79	0.143
649.99	0.143
650.19	0.143
650.39	0.143
650.59	0.143
650.79	0.142
650.99	0.142
651.19	0.141
651.39	0.141
651.58	0.141
651.78	0.140
651.98	0.140
652.18	0.140
652.38	0.140
652.58	0.140
652.78	0.140
652.98	0.139
653.18	0.140
653.38	0.140
653.57	0.140
653.77	0.140
653.97	0.139
654.17	0.139
654.37	0.138
654.57	0.139
654.77	0.138
654.97	0.138
655.16	0.138
655.36	0.138
655.56	0.137
655.76	0.136
655.96	0.137
656.16	0.136
656.36	0.137
656.56	0.136
656.75	0.136
656.95	0.136
657.15	0.135
657.35	0.135
657.55	0.135
657.75	0.135
657.95	0.135
658.14	0.134
658.34	0.134
658.54	0.134
658.74	0.134
658.94	0.133
659.14	0.133
659.34	0.133
659.53	0.132
659.73	0.132
659.93	0.132
660.13	0.131
660.33	0.131
660.53	0.131
660.72	0.132
660.92	0.132
661.12	0.132
661.32	0.131
661.52	0.131
661.72	0.131
661.91	0.130
662.11	0.130
662.31	0.130
662.51	0.130
662.71	0.129
662.90	0.129
663.10	0.128
663.30	0.128
663.50	0.128
663.70	0.128
663.90	0.128
664.09	0.128
664.29	0.128
664.49	0.127
664.69	0.127
664.89	0.127
665.08	0.126
665.28	0.126
665.48	0.126
665.68	0.125
665.88	0.125
666.07	0.124
666.27	0.125
666.47	0.124
666.67	0.125
666.87	0.125
667.06	0.124
667.26	0.124
667.46	0.123
667.66	0.124
667.85	0.124
668.05	0.124
668.25	0.123
668.45	0.123
668.65	0.123
668.84	0.123
669.04	0.123
669.24	0.123
669.44	0.122
669.63	0.122
669.83	0.122
670.03	0.121
670.23	0.121
670.42	0.121
670.62	0.120
670.82	0.120
671.02	0.120
671.22	0.119
671.41	0.119
671.61	0.120
671.81	0.120
672.01	0.120
672.20	0.120
672.40	0.119
672.60	0.119
672.80	0.120
672.99	0.120
673.19	0.119
673.39	0.119
673.58	0.118
673.78	0.118
673.98	0.117
674.18	0.117
674.37	0.117
674.57	0.116
674.77	0.117
674.97	0.116
675.16	0.116
675.36	0.116
675.56	0.115
675.75	0.115
675.95	0.115
676.15	0.115
676.35	0.114
676.54	0.114
676.74	0.114
676.94	0.114
677.13	0.114
677.33	0.113
677.53	0.114
677.73	0.113
677.92	0.113
678.12	0.113
678.32	0.113
678.51	0.113
678.71	0.113
678.91	0.112
679.11	0.112
679.30	0.112
679.50	0.111
679.70	0.111
679.89	0.111
680.09	0.112
680.29	0.111
680.48	0.111
680.68	0.110
680.88	0.110
681.07	0.111
681.27	0.110
681.47	0.110
681.66	0.110
681.86	0.110
682.06	0.110
682.25	0.110
682.45	0.110
682.65	0.110
682.84	0.109
683.04	0.109
683.24	0.108
683.43	0.108
683.63	0.108
683.83	0.108
684.02	0.108
684.22	0.108
684.42	0.107
684.61	0.107
684.81	0.107
685.01	0.107
685.20	0.106
685.40	0.106
685.60	0.106
685.79	0.106
685.99	0.106
686.19	0.105
686.38	0.105
686.58	0.105
686.77	0.105
686.97	0.105
687.17	0.105
687.36	0.105
687.56	0.104
687.76	0.104
687.95	0.104
688.15	0.104
688.34	0.104
688.54	0.103
688.74	0.103
688.93	0.102
689.13	0.103
689.33	0.102
689.52	0.102
689.72	0.103
689.91	0.102
690.11	0.102
690.31	0.102
690.50	0.102
690.70	0.102
690.89	0.102
691.09	0.102
691.29	0.101
691.48	0.101
691.68	0.101
691.87	0.101
692.07	0.101
692.27	0.101
692.46	0.101
692.66	0.100
692.85	0.100
693.05	0.100
693.25	0.100
693.44	0.100
693.64	0.100
693.83	0.100
694.03	0.100
694.22	0.099
694.42	0.099
694.62	0.100
694.81	0.099
695.01	0.099
695.20	0.099
695.40	0.099
695.59	0.099
695.79	0.098
695.99	0.099
696.18	0.099
696.38	0.098
696.57	0.098
696.77	0.097
696.96	0.098
697.16	0.098
697.36	0.098
697.55	0.097
697.75	0.097
697.94	0.097
698.14	0.097
698.33	0.096
698.53	0.096
698.72	0.096
698.92	0.096
699.11	0.096
699.31	0.095
699.51	0.096
699.70	0.095
699.90	0.095
700.09	0.095
700.29	0.095
700.48	0.095
700.68	0.095
700.87	0.095
701.07	0.095
701.26	0.094
701.46	0.094
701.65	0.094
701.85	0.094
702.04	0.093
702.24	0.093
702.43	0.093
702.63	0.093
702.82	0.093
703.02	0.093
703.21	0.093
703.41	0.092
703.60	0.092
703.80	0.092
703.99	0.092
704.19	0.092
704.38	0.092
704.58	0.091
704.77	0.091
704.97	0.091
705.16	0.091
705.36	0.091
705.55	0.091
705.75	0.091
705.94	0.091
706.14	0.091
706.33	0.091
706.53	0.091
706.72	0.092
706.92	0.091
707.11	0.091
707.31	0.090
707.50	0.091
707.70	0.091
707.89	0.091
708.09	0.090
708.28	0.090
708.48	0.090
708.67	0.090
708.86	0.090
709.06	0.090
709.25	0.090
709.45	0.090
709.64	0.090
709.84	0.089
710.03	0.089
710.23	0.089
710.42	0.089
710.62	0.089
710.81	0.089
711.00	0.089
711.20	0.089
711.39	0.089
711.59	0.089
711.78	0.089
711.98	0.089
712.17	0.089
712.37	0.088
712.56	0.089
712.75	0.089
712.95	0.088
713.14	0.088
713.34	0.088
713.53	0.088
713.73	0.088
713.92	0.088
714.11	0.088
714.31	0.088
714.50	0.088
714.70	0.088
714.89	0.088
715.08	0.088
715.28	0.088
715.47	0.088
715.67	0.088
715.86	0.088
716.06	0.088
716.25	0.088
716.44	0.088
716.64	0.087
716.83	0.087
717.03	0.087
717.22	0.087
717.41	0.087
717.61	0.086
717.80	0.087
717.99	0.087
718.19	0.087
718.38	0.087
718.58	0.086
718.77	0.086
718.96	0.086
719.16	0.086
719.35	0.085
719.55	0.085
719.74	0.085
719.93	0.085
720.13	0.085
720.32	0.085
720.51	0.085
720.71	0.085
720.90	0.085
721.10	0.085
721.29	0.085
721.48	0.085
721.68	0.085
721.87	0.085
722.06	0.085
722.26	0.085
722.45	0.085
722.64	0.085
722.84	0.085
723.03	0.085
723.22	0.086
723.42	0.086
723.61	0.086
723.80	0.086
724.00	0.086
724.19	0.086
724.38	0.086
724.58	0.086
724.77	0.086
724.96	0.086
725.16	0.085
725.35	0.085
725.54	0.085
725.74	0.085
725.93	0.085
726.12	0.084
726.32	0.084
726.51	0.084
726.70	0.084
726.90	0.085
727.09	0.085
727.28	0.085
727.48	0.085
727.67	0.085
727.86	0.085
728.06	0.085
728.25	0.085
728.44	0.085
728.64	0.085
728.83	0.085
729.02	0.085
729.21	0.085
729.41	0.084
729.60	0.084
729.79	0.084
729.99	0.084
730.18	0.084
730.37	0.084
730.56	0.084
730.76	0.084
730.95	0.084
731.14	0.084
731.34	0.084
731.53	0.084
731.72	0.084
731.91	0.084
732.11	0.085
732.30	0.085
732.49	0.085
732.69	0.085
732.88	0.086
733.07	0.085
733.26	0.086
733.46	0.085
733.65	0.086
733.84	0.085
734.03	0.086
734.23	0.086
734.42	0.085
734.61	0.085
734.80	0.085
735.00	0.085
735.19	0.085
735.38	0.085
735.57	0.085
735.77	0.085
735.96	0.085
736.15	0.085
736.34	0.085
736.54	0.085
736.73	0.085
736.92	0.085
737.11	0.085
737.31	0.085
737.50	0.085
737.69	0.085
737.88	0.085
738.07	0.085
738.27	0.085
738.46	0.085
738.65	0.084
738.84	0.084
739.04	0.085
739.23	0.085
739.42	0.085
739.61	0.084
739.80	0.084
740.00	0.084
740.19	0.084
740.38	0.085
740.57	0.085
740.76	0.084
740.96	0.085
741.15	0.085
741.34	0.085
741.53	0.085
741.72	0.085
741.92	0.085
742.11	0.085
742.30	0.084
742.49	0.084
742.68	0.085
742.88	0.085
743.07	0.084
743.26	0.084
743.45	0.085
743.64	0.084
743.84	0.083
744.03	0.083
744.22	0.084
744.41	0.083
744.60	0.083
744.79	0.083
744.99	0.083
745.18	0.083
745.37	0.082
745.56	0.082
745.75	0.082
745.94	0.082
746.14	0.082
746.33	0.082
746.52	0.082
746.71	0.082
746.90	0.081
747.09	0.082
747.28	0.081
747.48	0.082
747.67	0.081
747.86	0.081
748.05	0.082
748.24	0.081
748.43	0.081
748.62	0.081
748.82	0.081
749.01	0.081
749.20	0.081
749.39	0.081
749.58	0.081
749.77	0.081
749.96	0.081
750.16	0.081
750.35	0.082
750.54	0.081
750.73	0.081
750.92	0.082
751.11	0.081
751.30	0.082
751.49	0.082
751.68	0.081
751.88	0.082
752.07	0.081
752.26	0.081
752.45	0.081
752.64	0.080
752.83	0.081
753.02	0.080
753.21	0.080
753.40	0.080
753.60	0.080
753.79	0.080
753.98	0.079
754.17	0.080
754.36	0.079
754.55	0.080
754.74	0.080
754.93	0.080
755.12	0.079
755.31	0.080
755.50	0.080
755.70	0.080
755.89	0.080
756.08	0.080
756.27	0.080
756.46	0.080
756.65	0.080
756.84	0.080
757.03	0.080
757.22	0.080
757.41	0.080
757.60	0.079
757.79	0.079
757.98	0.079
758.17	0.079
758.36	0.079
758.56	0.079
758.75	0.078
758.94	0.078
759.13	0.078
759.32	0.078
759.51	0.078
759.70	0.079
759.89	0.079
760.08	0.079
760.27	0.079
760.46	0.079
760.65	0.079
760.84	0.079
761.03	0.079
761.22	0.079
761.41	0.079
761.60	0.079
761.79	0.078
761.98	0.078
762.17	0.078
762.36	0.078
762.55	0.078
762.74	0.078
762.93	0.077
763.12	0.077
763.31	0.077
763.50	0.077
763.69	0.078
763.88	0.078
764.07	0.077
764.26	0.077
764.45	0.077
764.64	0.078
764.83	0.078
765.02	0.078
765.21	0.078
765.40	0.078
765.59	0.078
765.78	0.078
765.97	0.078
766.16	0.078
766.35	0.078
766.54	0.078
766.73	0.077
766.92	0.077
767.11	0.077
767.30	0.077
767.49	0.077
767.68	0.077
767.87	0.077
768.06	0.077
768.25	0.076
768.44	0.077
768.63	0.076
768.82	0.076
769.01	0.076
769.20	0.076
769.39	0.076
769.58	0.077
769.77	0.077
769.96	0.076
770.15	0.076
770.34	0.076
770.53	0.076
770.72	0.076
770.91	0.076
771.10	0.076
771.29	0.075
771.47	0.075
771.66	0.075
771.85	0.075
772.04	0.075
772.23	0.075
772.42	0.074
772.61	0.075
772.80	0.075
772.99	0.075
773.18	0.075
773.37	0.075
773.56	0.075
773.75	0.075
773.94	0.075
774.13	0.075
774.31	0.075
774.50	0.076
774.69	0.076
774.88	0.075
775.07	0.075
775.26	0.075
775.45	0.074
775.64	0.075
775.83	0.075
776.02	0.075
776.21	0.075
776.40	0.075
776.58	0.074
776.77	0.075
776.96	0.075
777.15	0.075
777.34	0.075
777.53	0.075
777.72	0.075
777.91	0.074
778.10	0.074
778.28	0.074
778.47	0.074
778.66	0.073
778.85	0.073
779.04	0.073
779.23	0.073
779.42	0.073
779.61	0.073
779.79	0.073
779.98	0.073
780.17	0.074
780.36	0.073
780.55	0.073
780.74	0.073
780.93	0.072
781.12	0.073
781.30	0.073
781.49	0.073
781.68	0.073
781.87	0.073
782.06	0.073
782.25	0.073
782.44	0.073
782.62	0.074
782.81	0.074
783.00	0.074
783.19	0.074
783.38	0.074
783.57	0.074
783.75	0.073
783.94	0.073
784.13	0.073
784.32	0.073
784.51	0.073
784.70	0.073
784.88	0.072
785.07	0.072
785.26	0.072
785.45	0.072
785.64	0.072
785.83	0.072
786.01	0.072
786.20	0.072
786.39	0.072
786.58	0.071
786.77	0.071
786.95	0.072
787.14	0.072
787.33	0.072
787.52	0.072
787.71	0.072
787.90	0.072
788.08	0.072
788.27	0.072
788.46	0.072
788.65	0.072
788.84	0.072
789.02	0.072
789.21	0.072
789.40	0.071
789.59	0.072
789.77	0.072
789.96	0.071
790.15	0.072
790.34	0.072
790.53	0.072
790.71	0.072
790.90	0.072
791.09	0.071
791.28	0.072
791.46	0.072
791.65	0.072
791.84	0.072
792.03	0.072
792.22	0.072
792.40	0.071
792.59	0.071
792.78	0.072
792.97	0.072
793.15	0.072
793.34	0.071
793.53	0.071
793.72	0.071
793.90	0.071
794.09	0.071
794.28	0.071
794.47	0.071
794.65	0.071
794.84	0.070
795.03	0.070
795.22	0.070
795.40	0.070
795.59	0.070
795.78	0.070
795.97	0.070
796.15	0.070
796.34	0.070
796.53	0.070
796.71	0.070
796.90	0.070
797.09	0.071
797.28	0.071
797.46	0.071
797.65	0.071
797.84	0.071
798.02	0.071
798.21	0.070
798.40	0.070
798.59	0.070
798.77	0.070
798.96	0.070
799.15	0.070
799.33	0.070
799.52	0.070
799.71	0.070
799.90	0.070
800.08	0.070
800.27	0.070
800.46	0.070
800.64	0.070
800.83	0.070
801.02	0.070
801.20	0.070
801.39	0.070
801.58	0.069
801.76	0.069
801.95	0.069
802.14	0.069
802.32	0.069
802.51	0.069
802.70	0.069
802.88	0.069
803.07	0.069
803.26	0.069
803.44	0.069
803.63	0.069
803.82	0.069
804.00	0.069
804.19	0.069
804.38	0.069
804.56	0.069
804.75	0.069
804.94	0.069
805.12	0.069
805.31	0.069
805.50	0.069
805.68	0.069
805.87	0.069
806.06	0.069
806.24	0.069
806.43	0.069
806.62	0.069
806.80	0.069
806.99	0.069
807.17	0.069
807.36	0.069
807.55	0.069
807.73	0.069
807.92	0.069
808.11	0.069
808.29	0.069
808.48	0.069
808.66	0.069
808.85	0.068
809.04	0.069
809.22	0.069
809.41	0.069
809.59	0.069
809.78	0.068
809.97	0.068
810.15	0.068
810.34	0.068
810.53	0.068
810.71	0.068
810.90	0.068
811.08	0.068
811.27	0.068
811.45	0.067
811.64	0.067
811.83	0.068
812.01	0.068
812.20	0.068
812.38	0.068
812.57	0.068
812.76	0.068
812.94	0.068
813.13	0.068
813.31	0.068
813.50	0.068
813.68	0.068
813.87	0.068
814.06	0.068
814.24	0.068
814.43	0.068
814.61	0.068
814.80	0.068
814.98	0.068
815.17	0.068
815.36	0.068
815.54	0.068
815.73	0.068
815.91	0.068
816.10	0.068
816.28	0.068
816.47	0.067
816.65	0.068
816.84	0.068
817.03	0.068
817.21	0.068
817.40	0.068
817.58	0.068
817.77	0.069
817.95	0.069
818.14	0.069
818.32	0.069
818.51	0.069
818.69	0.069
818.88	0.069
819.06	0.069
819.25	0.068
819.43	0.068
819.62	0.068
819.80	0.068
819.99	0.068
820.18	0.068
820.36	0.068
820.55	0.068
820.73	0.068
820.92	0.069
821.10	0.069
821.29	0.069
821.47	0.069
821.66	0.069
821.84	0.069
822.03	0.069
822.21	0.069
822.40	0.069
822.58	0.069
822.77	0.068
822.95	0.069
823.14	0.069
823.32	0.069
823.50	0.069
823.69	0.069
823.87	0.069
824.06	0.069
824.24	0.069
824.43	0.069
824.61	0.069
824.80	0.070
824.98	0.070
825.17	0.070
825.35	0.070
825.54	0.070
825.72	0.069
825.91	0.070
826.09	0.070
826.28	0.069
826.46	0.070
826.64	0.070
826.83	0.070
827.01	0.070
827.20	0.070
827.38	0.070
827.57	0.071
827.75	0.071
827.94	0.071
828.12	0.071
828.31	0.071
828.49	0.071
828.67	0.071
828.86	0.071
829.04	0.071
829.23	0.071
829.41	0.072
829.60	0.072
829.78	0.072
829.96	0.073
830.15	0.073
830.33	0.073
830.52	0.073
830.70	0.073
830.88	0.073
831.07	0.073
831.25	0.073
831.44	0.073
831.62	0.073
831.81	0.073
831.99	0.073
832.17	0.073
832.36	0.073
832.54	0.073
832.73	0.073
832.91	0.073
833.09	0.073
833.28	0.073
833.46	0.073
833.65	0.073
833.83	0.074
834.01	0.074
834.20	0.074
834.38	0.074
834.56	0.075
834.75	0.074
834.93	0.075
835.12	0.075
835.30	0.075
835.48	0.075
835.67	0.075
835.85	0.074
836.03	0.074
836.22	0.074
836.40	0.074
836.59	0.074
836.77	0.074
836.95	0.074
837.14	0.074
837.32	0.074
837.50	0.074
837.69	0.074
837.87	0.074
838.05	0.075
838.24	0.075
838.42	0.074
838.60	0.074
838.79	0.075
838.97	0.075
839.15	0.075
839.34	0.075
839.52	0.076
839.70	0.076
839.89	0.075
840.07	0.075
840.25	0.075
840.44	0.075
840.62	0.075
840.80	0.075
840.99	0.075
841.17	0.075
841.35	0.075
841.54	0.075
841.72	0.075
841.90	0.075
842.09	0.075
842.27	0.075
842.45	0.075
842.64	0.076
842.82	0.076
843.00	0.076
843.19	0.076
843.37	0.075
843.55	0.075
843.73	0.075
843.92	0.075
844.10	0.075
844.28	0.075
844.47	0.076
844.65	0.075
844.83	0.075
845.01	0.076
845.20	0.076
845.38	0.076
845.56	0.076
845.75	0.076
845.93	0.076
846.11	0.076
846.29	0.076
846.48	0.076
846.66	0.076
846.84	0.076
847.02	0.075
847.21	0.076
847.39	0.076
847.57	0.076
847.76	0.076
847.94	0.076
848.12	0.076
848.30	0.076
848.49	0.076
848.67	0.076
848.85	0.076
849.03	0.076
849.22	0.076
849.40	0.077
849.58	0.076
849.76	0.076
849.95	0.076
850.13	0.077
850.31	0.077
850.49	0.077
850.67	0.077
850.86	0.077
851.04	0.077
851.22	0.077
851.40	0.077
851.59	0.077
851.77	0.077
851.95	0.077
852.13	0.077
852.31	0.077
852.50	0.077
852.68	0.077
852.86	0.077
853.04	0.077
853.23	0.077
853.41	0.077
853.59	0.077
853.77	0.077
853.95	0.077
854.14	0.077
854.32	0.077
854.50	0.077
854.68	0.077
854.86	0.077
855.04	0.077
855.23	0.077
855.41	0.077
855.59	0.077
855.77	0.077
855.95	0.078
856.14	0.077
856.32	0.077
856.50	0.077
856.68	0.077
856.86	0.077
857.04	0.077
857.23	0.077
857.41	0.077
857.59	0.077
857.77	0.076
857.95	0.076
858.13	0.076
858.32	0.077
858.50	0.077
858.68	0.077
858.86	0.077
859.04	0.077
859.22	0.077
859.41	0.078
859.59	0.078
859.77	0.078
859.95	0.077
860.13	0.078
860.31	0.077
860.49	0.077
860.68	0.077
860.86	0.077
861.04	0.077
861.22	0.077
861.40	0.077
861.58	0.077
861.76	0.077
861.94	0.077
862.13	0.077
862.31	0.078
862.49	0.078
862.67	0.078
862.85	0.078
863.03	0.078
863.21	0.078
863.39	0.079
863.57	0.078
863.76	0.079
863.94	0.079
864.12	0.079
864.30	0.078
864.48	0.078
864.66	0.078
864.84	0.079
865.02	0.079
865.20	0.079
865.38	0.078
865.57	0.079
865.75	0.079
865.93	0.079
866.11	0.078
866.29	0.079
866.47	0.079
866.65	0.079
866.83	0.079
867.01	0.078
867.19	0.078
867.37	0.078
867.55	0.078
867.73	0.078
867.92	0.078
868.10	0.078
868.28	0.078
868.46	0.078
868.64	0.078
868.82	0.078
869.00	0.079
869.18	0.079
869.36	0.079
869.54	0.079
869.72	0.079
869.90	0.080
870.08	0.080
870.26	0.080
870.44	0.080
870.62	0.080
870.80	0.079
870.98	0.079
871.16	0.079
871.34	0.079
871.53	0.079
871.71	0.079
871.89	0.079
872.07	0.079
872.25	0.079
872.43	0.079
872.61	0.079
872.79	0.080
872.97	0.080
873.15	0.080
873.33	0.080
873.51	0.080
873.69	0.080
873.87	0.081
874.05	0.081
874.23	0.080
874.41	0.080
874.59	0.081
874.77	0.080
874.95	0.080
875.13	0.080
875.31	0.080
875.49	0.081
875.67	0.080
875.85	0.080
876.03	0.081
876.21	0.082
876.39	0.081
876.57	0.082
876.75	0.082
876.93	0.081
877.11	0.081
877.29	0.082
877.47	0.082
877.65	0.082
877.82	0.082
878.00	0.082
878.18	0.081
878.36	0.081
878.54	0.081
878.72	0.081
878.90	0.081
879.08	0.082
879.26	0.081
879.44	0.081
879.62	0.081
879.80	0.081
879.98	0.081
880.16	0.081
880.34	0.081
880.52	0.081
880.70	0.081
880.88	0.081
881.06	0.081
881.24	0.081
881.42	0.081
881.59	0.081
881.77	0.081
881.95	0.081
882.13	0.081
882.31	0.081
882.49	0.081
882.67	0.081
882.85	0.081
883.03	0.081
883.21	0.081
883.39	0.081
883.57	0.081
883.75	0.082
883.92	0.082
884.10	0.082
884.28	0.082
884.46	0.082
884.64	0.082
884.82	0.082
885.00	0.082
885.18	0.082
885.36	0.082
885.54	0.082
885.71	0.083
885.89	0.083
886.07	0.083
886.25	0.083
886.43	0.084
886.61	0.083
886.79	0.083
886.97	0.083
887.15	0.083
887.32	0.083
887.50	0.084
887.68	0.083
887.86	0.083
888.04	0.083
888.22	0.083
888.40	0.083
888.57	0.083
888.75	0.083
888.93	0.083
889.11	0.083
889.29	0.083
889.47	0.084
889.65	0.083
889.82	0.083
890.00	0.084
890.18	0.084
890.36	0.084
890.54	0.084
890.72	0.084
890.90	0.084
891.07	0.084
891.25	0.083
891.43	0.083
891.61	0.083
891.79	0.083
891.97	0.083
892.14	0.083
892.32	0.083
892.50	0.083
892.68	0.083
892.86	0.083
893.03	0.083
893.21	0.084
893.39	0.084
893.57	0.085
893.75	0.085
893.93	0.085
894.10	0.085
894.28	0.085
894.46	0.085
894.64	0.085
894.82	0.085
894.99	0.086
895.17	0.085
895.35	0.085
895.53	0.085
895.71	0.085
895.88	0.085
896.06	0.085
896.24	0.085
896.42	0.085
896.59	0.085
896.77	0.085
896.95	0.085
897.13	0.085
897.31	0.086
897.48	0.085
897.66	0.086
897.84	0.086
898.02	0.086
898.19	0.086
898.37	0.086
898.55	0.086
898.73	0.086
898.91	0.086
899.08	0.086
899.26	0.086
899.44	0.086
899.62	0.086
899.79	0.086
899.97	0.087
900.15	0.086
900.33	0.086
900.50	0.086
900.68	0.086
900.86	0.086
901.04	0.087
901.21	0.087
901.39	0.087
901.57	0.086
901.74	0.086
901.92	0.086
902.10	0.086
902.28	0.086
902.45	0.086
902.63	0.086
902.81	0.086
902.99	0.087
903.16	0.087
903.34	0.087
903.52	0.087
903.69	0.087
903.87	0.087
904.05	0.087
904.22	0.088
904.40	0.088
904.58	0.087
904.76	0.088
904.93	0.088
905.11	0.088
905.29	0.088
905.46	0.088
905.64	0.089
905.82	0.089
905.99	0.088
906.17	0.088
906.35	0.088
906.53	0.088
906.70	0.089
906.88	0.089
907.06	0.089
907.23	0.088
907.41	0.089
907.59	0.089
907.76	0.089
907.94	0.089
908.12	0.089
908.29	0.089
908.47	0.089
908.65	0.089
908.82	0.089
909.00	0.089
909.18	0.089
909.35	0.089
909.53	0.089
909.71	0.089
909.88	0.089
910.06	0.089
910.23	0.089
910.41	0.089
910.59	0.089
910.76	0.089
910.94	0.089
911.12	0.089
911.29	0.089
911.47	0.089
911.65	0.090
911.82	0.090
912.00	0.090
912.17	0.090
912.35	0.091
912.53	0.091
912.70	0.091
912.88	0.091
913.06	0.092
913.23	0.092
913.41	0.092
913.58	0.092
913.76	0.092
913.94	0.093
914.11	0.093
914.29	0.093
914.46	0.093
914.64	0.093
914.82	0.093
914.99	0.093
915.17	0.092
915.34	0.092
915.52	0.092
915.70	0.092
915.87	0.092
916.05	0.092
916.22	0.092
916.40	0.092
916.57	0.093
916.75	0.093
916.93	0.093
917.10	0.093
917.28	0.093
917.45	0.093
917.63	0.093
917.80	0.093
917.98	0.093
918.16	0.094
918.33	0.094
918.51	0.094
918.68	0.094
918.86	0.094
919.03	0.095
919.21	0.095
919.39	0.096
919.56	0.096
919.74	0.096
919.91	0.096
920.09	0.096
920.26	0.096
920.44	0.096
920.61	0.097
920.79	0.097
920.96	0.097
921.14	0.097
921.31	0.097
921.49	0.097
921.67	0.098
921.84	0.098
922.02	0.098
922.19	0.099
922.37	0.099
922.54	0.099
922.72	0.099
922.89	0.100
923.07	0.100
923.24	0.100
923.42	0.100
923.59	0.100
923.77	0.101
923.94	0.101
924.12	0.101
924.29	0.102
924.47	0.102
924.64	0.102
924.82	0.102
924.99	0.102
925.17	0.103
925.34	0.103
925.52	0.103
925.69	0.104
925.87	0.104
926.04	0.104
926.22	0.104
926.39	0.105
926.57	0.105
926.74	0.105
926.91	0.106
927.09	0.106
927.26	0.107
927.44	0.107
927.61	0.107
927.79	0.108
927.96	0.109
928.14	0.109
928.31	0.109
928.49	0.109
928.66	0.110
928.84	0.111
929.01	0.111
929.18	0.111
929.36	0.112
929.53	0.112
929.71	0.112
929.88	0.113
930.06	0.113
930.23	0.114
930.41	0.114
930.58	0.114
930.75	0.114
930.93	0.115
931.10	0.115
931.28	0.115
931.45	0.116
931.63	0.116
931.80	0.116
931.97	0.117
932.15	0.117
932.32	0.118
932.50	0.118
932.67	0.119
932.84	0.119
933.02	0.120
933.19	0.120
933.37	0.121
933.54	0.122
933.71	0.122
933.89	0.123
934.06	0.123
934.24	0.124
934.41	0.124
934.58	0.125
934.76	0.125
934.93	0.126
935.11	0.126
935.28	0.126
935.45	0.126
935.63	0.127
935.80	0.127
935.98	0.128
936.15	0.128
936.32	0.128
936.50	0.129
936.67	0.129
936.84	0.129
937.02	0.131
937.19	0.132
937.36	0.132
937.54	0.132
937.71	0.133
937.89	0.133
938.06	0.134
938.23	0.134
938.41	0.135
938.58	0.136
938.75	0.136
938.93	0.136
939.10	0.137
939.27	0.137
939.45	0.138
939.62	0.138
939.79	0.139
939.97	0.139
940.14	0.140
940.31	0.140
940.49	0.141
940.66	0.141
940.83	0.142
941.01	0.143
941.18	0.143
941.35	0.143
941.53	0.144
941.70	0.145
941.87	0.146
942.05	0.146
942.22	0.147
942.39	0.148
942.57	0.149
942.74	0.150
942.91	0.150
943.08	0.151
943.26	0.151
943.43	0.152
943.60	0.152
943.78	0.153
943.95	0.154
944.12	0.154
944.29	0.155
944.47	0.155
944.64	0.156
944.81	0.157
944.99	0.158
945.16	0.158
945.33	0.159
945.50	0.160
945.68	0.161
945.85	0.162
946.02	0.163
946.20	0.164
946.37	0.165
946.54	0.166
946.71	0.167
946.89	0.167
947.06	0.168
947.23	0.169
947.40	0.170
947.58	0.171
947.75	0.172
947.92	0.172
948.09	0.172
948.27	0.174
948.44	0.175
948.61	0.176
948.78	0.177
948.96	0.179
949.13	0.179
949.30	0.180
949.47	0.181
949.65	0.183
949.82	0.185
949.99	0.185
950.16	0.187
950.33	0.188
950.51	0.189
950.68	0.190
950.85	0.191
951.02	0.193
951.20	0.194
951.37	0.195
951.54	0.195
951.71	0.196
951.88	0.197
952.06	0.198
952.23	0.199
952.40	0.200
952.57	0.202
952.74	0.203
952.92	0.204
953.09	0.205
953.26	0.207
953.43	0.208
953.60	0.209
953.77	0.210
953.95	0.212
954.12	0.213
954.29	0.214
954.46	0.216
954.63	0.217
954.81	0.218
954.98	0.218
955.15	0.220
955.32	0.221
955.49	0.221
955.66	0.222
955.84	0.224
956.01	0.224
956.18	0.226
956.35	0.228
956.52	0.228
956.69	0.230
956.87	0.231
957.04	0.232
957.21	0.235
957.38	0.235
957.55	0.236
957.72	0.237
957.89	0.238
958.07	0.238
958.24	0.241
958.41	0.242
958.58	0.242
958.75	0.242
958.92	0.243
959.09	0.243
959.26	0.244
959.44	0.244
959.61	0.245
959.78	0.245
959.95	0.247
960.12	0.247
960.29	0.249
960.46	0.248
960.63	0.249
960.81	0.249
960.98	0.250
961.15	0.251
961.32	0.252
961.49	0.252
961.66	0.253
961.83	0.254
962.00	0.254
962.17	0.254
962.34	0.254
962.52	0.255
962.69	0.256
962.86	0.255
963.03	0.256
963.20	0.256
963.37	0.255
963.54	0.256
963.71	0.256
963.88	0.257
964.05	0.258
964.22	0.259
964.39	0.258
964.56	0.258
964.74	0.259
964.91	0.259
965.08	0.259
965.25	0.259
965.42	0.260
965.59	0.261
965.76	0.260
965.93	0.262
966.10	0.260
966.27	0.261
966.44	0.260
966.61	0.262
966.78	0.261
966.95	0.261
967.12	0.262
967.29	0.263
967.46	0.262
967.63	0.261
967.80	0.262
967.97	0.261
968.14	0.261
968.32	0.262
968.49	0.262
968.66	0.261
968.83	0.262
969.00	0.262
969.17	0.262
969.34	0.263
969.51	0.264
969.68	0.263
969.85	0.264
970.02	0.264
970.19	0.264
970.36	0.265
970.53	0.264
970.70	0.263
970.87	0.264
971.04	0.264
971.21	0.264
971.38	0.264
971.55	0.265
971.72	0.264
971.89	0.265
972.06	0.265
972.23	0.264
972.40	0.265
972.57	0.264
972.74	0.264
972.91	0.265
973.07	0.264
973.24	0.263
973.41	0.264
973.58	0.262
973.75	0.275
973.92	0.263
974.09	0.262
974.26	0.262
974.43	0.262
974.60	0.263
974.77	0.263
974.94	0.263
975.11	0.264
975.28	0.265
975.45	0.262
975.62	0.264
975.79	0.265
975.96	0.263
976.13	0.262
976.30	0.264
976.47	0.262
976.64	0.263
976.80	0.263
976.97	0.263
977.14	0.263
977.31	0.263
977.48	0.264
977.65	0.264
977.82	0.263
977.99	0.265
978.16	0.264
978.33	0.263
978.50	0.262
978.67	0.262
978.83	0.262
979.00	0.261
979.17	0.261
979.34	0.260
979.51	0.259
979.68	0.260
979.85	0.259
980.02	0.260
980.19	0.258
980.36	0.259
980.52	0.261
980.69	0.259
980.86	0.260
981.03	0.259
981.20	0.258
981.37	0.259
981.54	0.259
981.71	0.258
981.88	0.258
982.04	0.257
982.21	0.256
982.38	0.258
982.55	0.257
982.72	0.256
982.89	0.257
983.06	0.255
983.22	0.255
983.39	0.255
983.56	0.255
983.73	0.254
983.90	0.254
984.07	0.256
984.24	0.255
984.40	0.254
984.57	0.253
984.74	0.255
984.91	0.256
985.08	0.254
985.25	0.252
985.41	0.253
985.58	0.253
985.75	0.254
985.92	0.253
986.09	0.252
986.26	0.252
986.42	0.251
986.59	0.251
986.76	0.252
986.93	0.252
987.10	0.252
987.27	0.249
987.43	0.248
987.60	0.250
987.77	0.250
987.94	0.248
988.11	0.249
988.27	0.250
988.44	0.248
988.61	0.247
988.78	0.245
988.95	0.246
989.11	0.248
989.28	0.246
989.45	0.245
989.62	0.244
989.79	0.245
989.95	0.243
990.12	0.244
990.29	0.245
990.46	0.243
990.62	0.242
990.79	0.242
990.96	0.243
991.13	0.243
991.30	0.242
991.46	0.241
991.63	0.239
991.80	0.239
991.97	0.239
992.13	0.239
992.30	0.240
992.47	0.239
992.64	0.238
992.80	0.238
992.97	0.238
993.14	0.236
993.31	0.234
993.47	0.237
993.64	0.234
993.81	0.234
993.98	0.234
994.14	0.232
994.31	0.232
994.48	0.233
994.64	0.233
994.81	0.232
994.98	0.233
995.15	0.231
995.31	0.231
995.48	0.230
995.65	0.233
995.82	0.230
995.98	0.230
996.15	0.231
996.32	0.232
996.48	0.230
996.65	0.229
996.82	0.227
996.99	0.228
997.15	0.227
997.32	0.228
997.49	0.227
997.65	0.227
997.82	0.227
997.99	0.225
998.15	0.226
998.32	0.227
998.49	0.227
998.65	0.227
998.82	0.226
998.99	0.224
999.15	0.224
999.32	0.223
999.49	0.223
999.65	0.222
999.82	0.220
999.99	0.220
1000.15	0.219
1000.32	0.219
1000.49	0.219
1000.65	0.218
1000.82	0.217
1000.99	0.218
1001.15	0.218
1001.32	0.217
1001.49	0.217
1001.65	0.217
1001.82	0.220
1001.99	0.217
1002.15	0.215
1002.32	0.215
1002.49	0.217
1002.65	0.215
1002.82	0.213
1002.99	0.212
1003.15	0.214
1003.32	0.213
1003.48	0.213
1003.65	0.212
1003.82	0.211
1003.98	0.209
1004.15	0.209
1004.32	0.209
1004.48	0.209
1004.65	0.211
1004.81	0.209
1004.98	0.208
1005.15	0.208
1005.31	0.208
1005.48	0.207
1005.64	0.207
1005.81	0.209
1005.98	0.206
1006.14	0.205
1006.31	0.206
1006.47	0.204
1006.64	0.203
1006.81	0.202
1006.97	0.203
1007.14	0.202
1007.30	0.202
1007.47	0.203
1007.63	0.201
1007.80	0.199
1007.97	0.199
1008.13	0.199
1008.30	0.198
1008.46	0.198
1008.63	0.197
1008.79	0.198
1008.96	0.198
1009.13	0.199
1009.29	0.197
1009.46	0.197
1009.62	0.196
1009.79	0.194
1009.95	0.195
1010.12	0.196
1010.28	0.196
1010.45	0.194
1010.62	0.194
1010.78	0.193
1010.95	0.191
1011.11	0.191
1011.28	0.191
1011.44	0.193
1011.61	0.191
1011.77	0.190
1011.94	0.189
1012.10	0.189
1012.27	0.190
1012.43	0.189
1012.60	0.187
1012.76	0.188
1012.93	0.188
1013.10	0.186
1013.26	0.183
1013.43	0.185
1013.59	0.192
1013.76	0.185
1013.92	0.184
1014.09	0.182
1014.25	0.183
1014.42	0.184
1014.58	0.184
1014.75	0.186
1014.91	0.185
1015.08	0.187
1015.24	0.183
1015.41	0.185
1015.57	0.184
1015.73	0.183
1015.90	0.181
1016.06	0.184
1016.23	0.182
1016.39	0.183
1016.56	0.183
1016.72	0.183
1016.89	0.182
1017.05	0.183
1017.22	0.180
1017.38	0.180
1017.55	0.179
1017.71	0.180
1017.88	0.179
1018.04	0.179
1018.21	0.176
1018.37	0.176
1018.53	0.176
1018.70	0.174
1018.86	0.174
1019.03	0.176
1019.19	0.174
1019.36	0.174
1019.52	0.176
1019.69	0.177
1019.85	0.175
1020.01	0.175
1020.18	0.173
1020.34	0.173
1020.51	0.173
1020.67	0.174
1020.84	0.172
1021.00	0.172
1021.16	0.169
1021.33	0.169
1021.49	0.167
1021.66	0.168
1021.82	0.166
1021.98	0.167
1022.15	0.166
1022.31	0.165
1022.48	0.163
1022.64	0.164
1022.80	0.163
1022.97	0.162
1023.13	0.162
1023.30	0.163
1023.46	0.164
1023.62	0.161
1023.79	0.162
1023.95	0.163
1024.12	0.163
1024.28	0.162
1024.44	0.162
1024.61	0.161
1024.77	0.161
1024.93	0.161
1025.10	0.162
1025.26	0.160
1025.43	0.160
1025.59	0.157
1025.75	0.161
1025.92	0.160
1026.08	0.160
1026.24	0.160
1026.41	0.161
1026.57	0.160
1026.73	0.158
1026.90	0.159
1027.06	0.157
1027.23	0.159
1027.39	0.158
1027.55	0.157
1027.72	0.155
1027.88	0.155
1028.04	0.155
1028.21	0.155
1028.37	0.149
1028.53	0.155
1028.70	0.154
1028.86	0.152
1029.02	0.152
1029.19	0.154
1029.35	0.153
1029.51	0.152
1029.67	0.152
1029.84	0.152
1030.00	0.146
1030.16	0.147
1030.33	0.149
1030.49	0.146
1030.65	0.143
1030.82	0.158
1030.98	0.145
1031.14	0.144
1031.31	0.144
1031.47	0.140
1031.63	0.144
1031.79	0.144
1031.96	0.145
1032.12	0.145
1032.28	0.143
1032.45	0.148
1032.61	0.146
1032.77	0.146
1032.93	0.144
1033.10	0.146
1033.26	0.149
1033.42	0.146
1033.58	0.147
1033.75	0.148
1033.91	0.146
1034.07	0.149
1034.24	0.146
1034.40	0.144
1034.56	0.143
1034.72	0.144
1034.89	0.144
1035.05	0.141
1035.21	0.141
1035.37	0.140
1035.54	0.142
1035.70	0.140
1035.86	0.141
1036.02	0.143
1036.19	0.140
1036.35	0.138
1036.51	0.142
1036.67	0.139
1036.83	0.138
1037.00	0.138
1037.16	0.138
1037.32	0.140
1037.48	0.138
1037.65	0.142
1037.81	0.137
1037.97	0.138
1038.13	0.138
1038.29	0.138
1038.46	0.136
1038.62	0.140
1038.78	0.137
1038.94	0.133
1039.10	0.136
1039.27	0.133
1039.43	0.134
1039.59	0.134
1039.75	0.133
1039.91	0.131
1040.08	0.130
1040.24	0.134
1040.40	0.135
1040.56	0.134
1040.72	0.128
1040.89	0.131
1041.05	0.133
1041.21	0.131
1041.37	0.130
1041.53	0.135
1041.69	0.133
1041.86	0.133
1042.02	0.129
1042.18	0.130
1042.34	0.131
1042.50	0.137
1042.66	0.133
1042.83	0.132
1042.99	0.134
1043.15	0.130
1043.31	0.131
1043.47	0.136
1043.63	0.132
1043.79	0.132
1043.96	0.133
1044.12	0.136
1044.28	0.132
1044.44	0.133
1044.60	0.127
1044.76	0.127
1044.92	0.129
1045.09	0.131
1045.25	0.127
1045.41	0.128
1045.57	0.123
1045.73	0.124
1045.89	0.125
1046.05	0.126
1046.21	0.135
1046.38	0.129
1046.54	0.126
1046.70	0.122
1046.86	0.117
>>>>>End Processed Spectral Data<<<<<
