SpectraSuite Data File
++++++++++++++++++++++++++++++++++++
Date: Mon May 20 12:11:00 CDT 2013
User: Students
Dark Spectrum Present: Yes
Reference Spectrum Present: Yes
Number of Sampled Component Spectra: 1
Spectrometers: USB4H00887
Integration Time (usec): 60000 (USB4H00887)
Spectra Averaged: 5 (USB4H00887)
Boxcar Smoothing: 5 (USB4H00887)
Correct for Electrical Dark: No (USB4H00887)
Strobe/Lamp Enabled: No (USB4H00887)
Correct for Detector Non-linearity: No (USB4H00887)
Correct for Stray Light: No (USB4H00887)
Number of Pixels in Processed Spectrum: 3648
>>>>>Begin Processed Spectral Data<<<<<
345.83	0.212
346.05	0.212
346.26	0.212
346.48	-0.166
346.70	0.615
346.92	-0.061
347.14	-0.005
347.35	0.008
347.57	0.063
347.79	-0.094
348.01	-0.104
348.23	-0.163
348.44	-0.000
348.66	0.220
348.88	-0.294
349.10	-0.021
349.32	0.022
349.53	0.037
349.75	0.037
349.97	0.034
350.19	0.024
350.41	-0.019
350.62	0.548
350.84	-0.018
351.06	-0.022
351.28	-0.058
351.50	-0.289
351.71	-0.202
351.93	-0.168
352.15	-0.016
352.37	-0.059
352.58	0.010
352.80	0.045
353.02	0.100
353.24	0.142
353.46	0.955
353.67	-0.194
353.89	0.069
354.11	0.063
354.33	0.063
354.54	0.086
354.76	0.143
354.98	0.347
355.20	0.195
355.41	0.088
355.63	0.147
355.85	0.089
356.07	-0.000
356.28	0.094
356.50	0.130
356.72	0.055
356.94	0.132
357.15	0.192
357.37	-0.000
357.59	0.081
357.81	0.052
358.02	0.085
358.24	0.064
358.46	0.141
358.68	0.136
358.89	0.105
359.11	-0.000
359.33	0.094
359.55	-0.552
359.76	0.110
359.98	0.104
360.20	0.094
360.42	0.095
360.63	0.103
360.85	0.057
361.07	0.295
361.29	0.041
361.50	0.164
361.72	0.055
361.94	0.251
362.15	0.122
362.37	0.077
362.59	0.084
362.81	0.117
363.02	0.180
363.24	0.254
363.46	0.135
363.68	0.206
363.89	0.133
364.11	0.175
364.33	0.180
364.54	0.106
364.76	0.153
364.98	0.133
365.20	0.181
365.41	0.127
365.63	0.171
365.85	0.137
366.06	0.421
366.28	0.382
366.50	0.326
366.71	0.141
366.93	0.166
367.15	0.131
367.37	0.121
367.58	0.140
367.80	0.152
368.02	0.430
368.23	0.138
368.45	0.138
368.67	0.116
368.88	0.093
369.10	-0.000
369.32	0.067
369.53	0.046
369.75	0.093
369.97	0.215
370.19	0.118
370.40	0.038
370.62	0.090
370.84	0.049
371.05	0.267
371.27	0.103
371.49	0.152
371.70	0.213
371.92	0.324
372.14	0.124
372.35	0.133
372.57	0.164
372.79	0.668
373.00	0.130
373.22	0.191
373.44	0.189
373.65	0.139
373.87	0.201
374.09	1.145
374.30	0.162
374.52	0.188
374.74	0.130
374.95	0.558
375.17	0.144
375.39	-0.000
375.60	0.173
375.82	0.288
376.04	0.131
376.25	0.142
376.47	0.084
376.68	0.220
376.90	0.111
377.12	0.217
377.33	0.136
377.55	0.292
377.77	0.133
377.98	0.207
378.20	0.131
378.42	0.151
378.63	0.196
378.85	-0.000
379.07	0.137
379.28	0.579
379.50	0.359
379.71	0.187
379.93	0.136
380.15	0.186
380.36	0.282
380.58	0.172
380.80	0.415
381.01	0.128
381.23	0.103
381.44	0.113
381.66	0.124
381.88	0.148
382.09	-0.069
382.31	0.096
382.53	0.093
382.74	0.406
382.96	0.151
383.17	0.140
383.39	0.190
383.61	0.274
383.82	0.193
384.04	0.240
384.25	0.301
384.47	0.282
384.69	0.299
384.90	0.303
385.12	0.722
385.33	0.385
385.55	0.271
385.77	0.448
385.98	0.216
386.20	0.286
386.41	0.227
386.63	0.267
386.85	0.215
387.06	0.242
387.28	0.353
387.49	0.224
387.71	0.170
387.93	0.162
388.14	0.444
388.36	0.178
388.57	0.169
388.79	0.214
389.01	1.736
389.22	0.282
389.44	0.244
389.65	0.195
389.87	0.209
390.08	0.257
390.30	0.197
390.52	0.394
390.73	0.413
390.95	0.276
391.16	0.248
391.38	-0.000
391.59	0.299
391.81	0.260
392.03	0.256
392.24	0.271
392.46	0.225
392.67	0.197
392.89	0.281
393.10	0.459
393.32	0.308
393.53	0.391
393.75	0.233
393.97	0.266
394.18	0.364
394.40	0.304
394.61	0.349
394.83	0.287
395.04	0.355
395.26	0.230
395.47	0.334
395.69	0.279
395.91	0.289
396.12	0.346
396.34	0.323
396.55	0.212
396.77	0.318
396.98	1.232
397.20	0.381
397.41	0.428
397.63	0.293
397.84	0.274
398.06	0.259
398.27	0.249
398.49	0.299
398.71	0.222
398.92	0.283
399.14	0.360
399.35	0.460
399.57	0.424
399.78	0.286
400.00	0.287
400.21	0.345
400.43	0.282
400.64	0.307
400.86	0.695
401.07	0.386
401.29	0.316
401.50	0.353
401.72	0.523
401.93	0.335
402.15	0.412
402.36	0.367
402.58	0.298
402.79	0.327
403.01	0.541
403.22	0.423
403.44	0.290
403.65	0.474
403.87	0.532
404.08	0.397
404.30	0.649
404.51	0.333
404.73	0.419
404.94	0.367
405.16	0.373
405.37	0.299
405.59	0.555
405.80	0.325
406.02	0.405
406.23	0.391
406.45	0.443
406.66	0.467
406.88	0.305
407.09	0.439
407.31	0.357
407.52	0.449
407.74	0.369
407.95	0.435
408.17	0.402
408.38	0.415
408.60	0.277
408.81	0.467
409.03	0.351
409.24	0.361
409.45	0.431
409.67	0.407
409.88	0.373
410.10	0.471
410.31	0.390
410.53	0.377
410.74	0.518
410.96	0.499
411.17	0.520
411.39	0.408
411.60	0.361
411.82	0.413
412.03	0.398
412.24	0.375
412.46	0.546
412.67	0.455
412.89	0.452
413.10	0.461
413.32	0.423
413.53	0.483
413.75	0.487
413.96	0.381
414.17	0.515
414.39	0.527
414.60	0.422
414.82	0.569
415.03	0.439
415.25	0.486
415.46	0.333
415.68	0.474
415.89	0.937
416.10	0.733
416.32	0.388
416.53	0.460
416.75	0.431
416.96	0.527
417.18	0.445
417.39	0.426
417.60	0.428
417.82	0.646
418.03	0.552
418.25	0.458
418.46	0.479
418.67	0.439
418.89	0.472
419.10	0.501
419.32	0.694
419.53	0.615
419.75	0.504
419.96	0.445
420.17	0.548
420.39	0.518
420.60	0.542
420.82	0.669
421.03	0.542
421.24	0.454
421.46	0.508
421.67	0.552
421.89	0.475
422.10	0.523
422.31	0.523
422.53	0.770
422.74	0.545
422.96	0.425
423.17	0.477
423.38	0.579
423.60	0.481
423.81	0.598
424.03	0.516
424.24	0.579
424.45	0.580
424.67	0.563
424.88	0.499
425.09	0.550
425.31	0.514
425.52	0.549
425.74	0.633
425.95	0.703
426.16	0.520
426.38	0.590
426.59	0.543
426.80	0.624
427.02	0.655
427.23	0.511
427.45	0.676
427.66	0.651
427.87	0.502
428.09	0.530
428.30	0.586
428.51	0.587
428.73	0.647
428.94	0.569
429.15	0.548
429.37	0.531
429.58	0.558
429.79	0.515
430.01	0.623
430.22	0.615
430.44	0.627
430.65	0.567
430.86	0.613
431.08	0.602
431.29	0.547
431.50	0.664
431.72	0.908
431.93	0.715
432.14	0.526
432.36	0.581
432.57	0.592
432.78	0.616
433.00	0.560
433.21	0.550
433.42	0.697
433.64	0.602
433.85	0.677
434.06	0.539
434.28	0.563
434.49	0.586
434.70	0.600
434.92	0.620
435.13	0.656
435.34	0.662
435.56	0.622
435.77	0.614
435.98	0.794
436.20	0.668
436.41	0.582
436.62	0.575
436.83	0.650
437.05	0.730
437.26	0.638
437.47	0.574
437.69	0.629
437.90	0.582
438.11	0.567
438.33	0.628
438.54	0.641
438.75	0.827
438.97	0.821
439.18	0.609
439.39	0.639
439.60	0.689
439.82	0.646
440.03	0.593
440.24	0.879
440.46	0.648
440.67	0.621
440.88	0.675
441.10	0.622
441.31	0.615
441.52	0.670
441.73	0.766
441.95	0.668
442.16	0.614
442.37	0.994
442.58	0.606
442.80	0.599
443.01	0.782
443.22	0.712
443.44	0.606
443.65	0.720
443.86	0.712
444.07	0.747
444.29	0.650
444.50	0.838
444.71	0.633
444.92	0.589
445.14	0.749
445.35	0.794
445.56	0.617
445.78	0.724
445.99	0.722
446.20	0.621
446.41	0.704
446.63	0.709
446.84	0.668
447.05	0.670
447.26	0.807
447.48	0.689
447.69	0.658
447.90	0.754
448.11	0.668
448.33	0.693
448.54	0.716
448.75	0.754
448.96	0.763
449.18	0.801
449.39	0.703
449.60	0.685
449.81	0.821
450.03	0.702
450.24	0.757
450.45	0.725
450.66	0.706
450.87	0.741
451.09	0.689
451.30	0.662
451.51	0.739
451.72	0.755
451.94	0.778
452.15	0.846
452.36	0.708
452.57	0.736
452.78	0.725
453.00	0.762
453.21	0.714
453.42	0.687
453.63	0.794
453.85	0.754
454.06	0.752
454.27	0.886
454.48	0.788
454.69	0.704
454.91	0.775
455.12	0.683
455.33	0.766
455.54	0.784
455.75	0.756
455.97	0.782
456.18	0.772
456.39	0.781
456.60	0.805
456.81	0.748
457.03	0.764
457.24	0.763
457.45	0.851
457.66	0.794
457.87	0.750
458.09	0.769
458.30	0.672
458.51	0.799
458.72	0.815
458.93	0.827
459.15	0.722
459.36	0.783
459.57	0.804
459.78	0.856
459.99	0.768
460.20	0.730
460.42	0.813
460.63	0.773
460.84	0.757
461.05	0.779
461.26	0.842
461.47	0.756
461.69	0.818
461.90	0.857
462.11	0.810
462.32	0.870
462.53	0.800
462.74	0.904
462.96	0.787
463.17	0.777
463.38	0.823
463.59	0.949
463.80	0.777
464.01	0.798
464.23	0.895
464.44	0.843
464.65	0.849
464.86	0.879
465.07	0.886
465.28	0.839
465.49	0.857
465.71	0.804
465.92	0.840
466.13	0.891
466.34	0.821
466.55	0.875
466.76	0.840
466.97	0.865
467.19	0.850
467.40	0.888
467.61	0.893
467.82	0.815
468.03	0.800
468.24	0.876
468.45	0.911
468.66	0.894
468.88	0.907
469.09	0.910
469.30	0.966
469.51	0.879
469.72	0.927
469.93	0.894
470.14	0.866
470.35	0.966
470.57	0.907
470.78	0.845
470.99	0.987
471.20	0.915
471.41	0.869
471.62	0.918
471.83	0.890
472.04	0.917
472.25	0.961
472.47	0.877
472.68	0.885
472.89	0.889
473.10	0.931
473.31	0.878
473.52	0.939
473.73	0.961
473.94	0.882
474.15	0.909
474.36	0.913
474.57	0.940
474.79	0.914
475.00	0.912
475.21	0.898
475.42	0.997
475.63	0.892
475.84	0.926
476.05	0.931
476.26	0.900
476.47	0.937
476.68	0.987
476.89	0.910
477.10	0.963
477.32	0.948
477.53	1.011
477.74	0.924
477.95	0.973
478.16	0.918
478.37	0.965
478.58	0.970
478.79	0.986
479.00	0.986
479.21	0.939
479.42	0.979
479.63	0.989
479.84	0.948
480.05	0.951
480.26	0.978
480.47	0.999
480.69	1.000
480.90	0.960
481.11	0.952
481.32	1.013
481.53	0.954
481.74	1.010
481.95	0.969
482.16	0.988
482.37	0.992
482.58	0.956
482.79	0.978
483.00	1.010
483.21	0.955
483.42	0.929
483.63	1.014
483.84	1.038
484.05	1.029
484.26	1.001
484.47	0.995
484.68	0.955
484.89	0.963
485.10	1.010
485.31	0.991
485.52	1.000
485.73	0.999
485.94	1.045
486.15	0.986
486.37	1.006
486.58	0.968
486.79	0.984
487.00	1.038
487.21	1.026
487.42	1.024
487.63	1.024
487.84	1.043
488.05	1.039
488.26	0.993
488.47	1.004
488.68	1.034
488.89	1.006
489.10	1.000
489.31	1.013
489.52	1.052
489.73	1.011
489.94	1.053
490.15	1.001
490.36	1.048
490.57	0.994
490.78	0.973
490.99	1.011
491.20	1.094
491.41	1.044
491.62	0.981
491.83	1.010
492.04	1.006
492.25	1.013
492.45	1.017
492.66	1.042
492.87	1.029
493.08	1.020
493.29	1.002
493.50	0.992
493.71	1.002
493.92	0.998
494.13	1.015
494.34	1.037
494.55	1.045
494.76	1.074
494.97	1.064
495.18	1.029
495.39	1.044
495.60	0.993
495.81	0.994
496.02	1.016
496.23	1.012
496.44	1.046
496.65	1.038
496.86	1.046
497.07	1.075
497.28	1.069
497.49	1.015
497.70	1.018
497.91	1.042
498.12	1.023
498.32	1.067
498.53	1.051
498.74	1.041
498.95	1.067
499.16	1.016
499.37	1.018
499.58	1.028
499.79	1.058
500.00	1.053
500.21	1.081
500.42	1.023
500.63	1.024
500.84	1.044
501.05	1.021
501.26	1.052
501.46	1.096
501.67	1.056
501.88	1.059
502.09	1.031
502.30	1.041
502.51	1.094
502.72	1.045
502.93	1.063
503.14	1.087
503.35	1.055
503.56	1.048
503.77	1.078
503.97	1.054
504.18	1.053
504.39	1.095
504.60	1.060
504.81	1.089
505.02	1.076
505.23	1.076
505.44	1.054
505.65	1.060
505.86	1.039
506.07	1.111
506.27	1.064
506.48	1.070
506.69	1.052
506.90	1.074
507.11	1.073
507.32	1.046
507.53	1.055
507.74	1.047
507.95	1.063
508.15	1.072
508.36	1.079
508.57	1.092
508.78	1.075
508.99	1.075
509.20	1.047
509.41	1.072
509.62	1.060
509.82	1.058
510.03	1.071
510.24	1.069
510.45	1.093
510.66	1.085
510.87	1.081
511.08	1.036
511.29	1.080
511.49	1.056
511.70	1.108
511.91	1.038
512.12	1.035
512.33	1.070
512.54	1.086
512.75	1.066
512.95	1.091
513.16	1.080
513.37	1.056
513.58	1.096
513.79	1.055
514.00	1.064
514.20	1.083
514.41	1.070
514.62	1.035
514.83	1.081
515.04	1.072
515.25	1.052
515.46	1.066
515.66	1.069
515.87	1.084
516.08	1.050
516.29	1.071
516.50	1.052
516.71	1.045
516.91	1.058
517.12	1.076
517.33	1.061
517.54	1.044
517.75	1.045
517.95	1.057
518.16	1.070
518.37	1.038
518.58	1.042
518.79	1.014
519.00	1.047
519.20	1.056
519.41	1.027
519.62	1.047
519.83	1.060
520.04	1.024
520.24	1.020
520.45	1.029
520.66	1.050
520.87	1.012
521.08	1.012
521.28	1.017
521.49	1.034
521.70	1.001
521.91	1.016
522.12	0.995
522.32	1.021
522.53	1.002
522.74	0.990
522.95	1.001
523.16	1.003
523.36	1.014
523.57	0.993
523.78	0.988
523.99	0.994
524.20	0.986
524.40	1.001
524.61	1.005
524.82	0.978
525.03	0.984
525.23	0.986
525.44	0.970
525.65	0.968
525.86	0.990
526.06	0.961
526.27	0.959
526.48	0.969
526.69	0.948
526.90	0.952
527.10	0.988
527.31	0.940
527.52	0.933
527.73	0.923
527.93	0.935
528.14	0.940
528.35	0.929
528.56	0.932
528.76	0.926
528.97	0.917
529.18	0.908
529.39	0.909
529.59	0.912
529.80	0.944
530.01	0.916
530.22	0.913
530.42	0.882
530.63	0.900
530.84	0.876
531.05	0.889
531.25	0.891
531.46	0.882
531.67	0.860
531.88	0.880
532.08	0.873
532.29	0.869
532.50	0.863
532.70	0.856
532.91	0.845
533.12	0.848
533.33	0.875
533.53	0.846
533.74	0.846
533.95	0.852
534.15	0.838
534.36	0.839
534.57	0.820
534.78	0.821
534.98	0.831
535.19	0.800
535.40	0.803
535.60	0.821
535.81	0.798
536.02	0.802
536.23	0.793
536.43	0.796
536.64	0.784
536.85	0.793
537.05	0.802
537.26	0.779
537.47	0.783
537.67	0.770
537.88	0.765
538.09	0.773
538.30	0.763
538.50	0.753
538.71	0.763
538.92	0.748
539.12	0.744
539.33	0.740
539.54	0.740
539.74	0.744
539.95	0.734
540.16	0.732
540.36	0.723
540.57	0.723
540.78	0.716
540.98	0.715
541.19	0.713
541.40	0.700
541.60	0.710
541.81	0.705
542.02	0.705
542.22	0.694
542.43	0.689
542.64	0.682
542.84	0.682
543.05	0.673
543.26	0.674
543.46	0.677
543.67	0.675
543.88	0.669
544.08	0.658
544.29	0.653
544.50	0.654
544.70	0.654
544.91	0.646
545.12	0.647
545.32	0.643
545.53	0.646
545.74	0.633
545.94	0.630
546.15	0.627
546.35	0.623
546.56	0.619
546.77	0.616
546.97	0.613
547.18	0.605
547.39	0.605
547.59	0.603
547.80	0.598
548.01	0.603
548.21	0.598
548.42	0.590
548.62	0.590
548.83	0.587
549.04	0.582
549.24	0.575
549.45	0.573
549.65	0.570
549.86	0.566
550.07	0.565
550.27	0.562
550.48	0.570
550.69	0.555
550.89	0.555
551.10	0.551
551.30	0.550
551.51	0.549
551.72	0.539
551.92	0.540
552.13	0.539
552.33	0.540
552.54	0.534
552.75	0.528
552.95	0.530
553.16	0.524
553.36	0.523
553.57	0.520
553.78	0.518
553.98	0.518
554.19	0.509
554.39	0.506
554.60	0.509
554.80	0.508
555.01	0.501
555.22	0.501
555.42	0.498
555.63	0.491
555.83	0.494
556.04	0.488
556.25	0.490
556.45	0.481
556.66	0.479
556.86	0.482
557.07	0.479
557.27	0.478
557.48	0.473
557.68	0.471
557.89	0.472
558.10	0.469
558.30	0.466
558.51	0.464
558.71	0.462
558.92	0.457
559.12	0.459
559.33	0.462
559.54	0.457
559.74	0.453
559.95	0.450
560.15	0.449
560.36	0.446
560.56	0.441
560.77	0.441
560.97	0.440
561.18	0.435
561.38	0.434
561.59	0.437
561.79	0.432
562.00	0.430
562.21	0.426
562.41	0.425
562.62	0.424
562.82	0.423
563.03	0.419
563.23	0.418
563.44	0.417
563.64	0.414
563.85	0.415
564.05	0.408
564.26	0.408
564.46	0.406
564.67	0.407
564.87	0.402
565.08	0.399
565.28	0.399
565.49	0.400
565.69	0.398
565.90	0.394
566.10	0.396
566.31	0.389
566.51	0.391
566.72	0.392
566.92	0.386
567.13	0.386
567.33	0.384
567.54	0.383
567.74	0.382
567.95	0.378
568.15	0.379
568.36	0.378
568.56	0.377
568.77	0.372
568.97	0.371
569.18	0.370
569.38	0.369
569.59	0.369
569.79	0.366
570.00	0.364
570.20	0.363
570.41	0.361
570.61	0.359
570.82	0.360
571.02	0.356
571.23	0.358
571.43	0.353
571.64	0.352
571.84	0.351
572.05	0.350
572.25	0.349
572.45	0.348
572.66	0.345
572.86	0.344
573.07	0.343
573.27	0.343
573.48	0.342
573.68	0.337
573.89	0.337
574.09	0.338
574.30	0.336
574.50	0.334
574.70	0.334
574.91	0.331
575.11	0.331
575.32	0.331
575.52	0.327
575.73	0.327
575.93	0.327
576.14	0.326
576.34	0.324
576.54	0.324
576.75	0.322
576.95	0.320
577.16	0.318
577.36	0.317
577.57	0.316
577.77	0.314
577.97	0.311
578.18	0.313
578.38	0.309
578.59	0.307
578.79	0.305
579.00	0.306
579.20	0.305
579.40	0.304
579.61	0.303
579.81	0.302
580.02	0.300
580.22	0.300
580.42	0.299
580.63	0.300
580.83	0.299
581.04	0.296
581.24	0.296
581.45	0.294
581.65	0.294
581.85	0.292
582.06	0.290
582.26	0.291
582.47	0.289
582.67	0.288
582.87	0.287
583.08	0.284
583.28	0.284
583.48	0.283
583.69	0.279
583.89	0.279
584.10	0.280
584.30	0.279
584.50	0.277
584.71	0.276
584.91	0.276
585.12	0.274
585.32	0.274
585.52	0.272
585.73	0.271
585.93	0.270
586.13	0.270
586.34	0.269
586.54	0.267
586.75	0.266
586.95	0.265
587.15	0.265
587.36	0.264
587.56	0.263
587.76	0.263
587.97	0.262
588.17	0.260
588.37	0.260
588.58	0.260
588.78	0.257
588.98	0.258
589.19	0.257
589.39	0.255
589.60	0.256
589.80	0.253
590.00	0.253
590.21	0.253
590.41	0.252
590.61	0.251
590.82	0.251
591.02	0.250
591.22	0.247
591.43	0.248
591.63	0.247
591.83	0.246
592.04	0.245
592.24	0.245
592.44	0.242
592.65	0.241
592.85	0.241
593.05	0.242
593.26	0.240
593.46	0.240
593.66	0.240
593.86	0.239
594.07	0.237
594.27	0.237
594.47	0.236
594.68	0.235
594.88	0.235
595.08	0.234
595.29	0.234
595.49	0.232
595.69	0.231
595.90	0.230
596.10	0.231
596.30	0.230
596.50	0.229
596.71	0.229
596.91	0.228
597.11	0.227
597.32	0.227
597.52	0.226
597.72	0.225
597.93	0.225
598.13	0.223
598.33	0.223
598.53	0.222
598.74	0.222
598.94	0.222
599.14	0.221
599.35	0.221
599.55	0.221
599.75	0.220
599.95	0.220
600.16	0.220
600.36	0.219
600.56	0.219
600.76	0.218
600.97	0.216
601.17	0.216
601.37	0.216
601.58	0.215
601.78	0.215
601.98	0.213
602.18	0.212
602.39	0.212
602.59	0.212
602.79	0.210
602.99	0.210
603.20	0.209
603.40	0.209
603.60	0.209
603.80	0.208
604.01	0.208
604.21	0.207
604.41	0.207
604.61	0.206
604.82	0.206
605.02	0.207
605.22	0.206
605.42	0.205
605.62	0.205
605.83	0.204
606.03	0.203
606.23	0.203
606.43	0.202
606.64	0.202
606.84	0.201
607.04	0.200
607.24	0.200
607.45	0.200
607.65	0.199
607.85	0.199
608.05	0.197
608.25	0.197
608.46	0.197
608.66	0.197
608.86	0.196
609.06	0.195
609.26	0.194
609.47	0.195
609.67	0.193
609.87	0.194
610.07	0.193
610.28	0.192
610.48	0.192
610.68	0.193
610.88	0.191
611.08	0.192
611.29	0.191
611.49	0.190
611.69	0.191
611.89	0.189
612.09	0.189
612.29	0.188
612.50	0.188
612.70	0.188
612.90	0.187
613.10	0.186
613.30	0.185
613.51	0.185
613.71	0.185
613.91	0.189
614.11	0.185
614.31	0.184
614.51	0.184
614.72	0.184
614.92	0.183
615.12	0.183
615.32	0.183
615.52	0.183
615.72	0.183
615.93	0.183
616.13	0.182
616.33	0.182
616.53	0.182
616.73	0.182
616.93	0.181
617.14	0.181
617.34	0.181
617.54	0.181
617.74	0.181
617.94	0.180
618.14	0.180
618.34	0.179
618.55	0.178
618.75	0.179
618.95	0.179
619.15	0.178
619.35	0.178
619.55	0.177
619.75	0.177
619.96	0.176
620.16	0.176
620.36	0.175
620.56	0.175
620.76	0.175
620.96	0.175
621.16	0.175
621.36	0.175
621.57	0.174
621.77	0.174
621.97	0.173
622.17	0.173
622.37	0.173
622.57	0.174
622.77	0.173
622.97	0.172
623.18	0.172
623.38	0.172
623.58	0.172
623.78	0.171
623.98	0.171
624.18	0.170
624.38	0.170
624.58	0.170
624.78	0.170
624.98	0.170
625.19	0.170
625.39	0.169
625.59	0.168
625.79	0.169
625.99	0.168
626.19	0.168
626.39	0.168
626.59	0.168
626.79	0.168
626.99	0.167
627.19	0.167
627.40	0.167
627.60	0.167
627.80	0.167
628.00	0.166
628.20	0.165
628.40	0.165
628.60	0.165
628.80	0.164
629.00	0.164
629.20	0.163
629.40	0.163
629.60	0.162
629.80	0.162
630.00	0.162
630.20	0.162
630.41	0.161
630.61	0.161
630.81	0.161
631.01	0.161
631.21	0.161
631.41	0.161
631.61	0.161
631.81	0.161
632.01	0.161
632.21	0.161
632.41	0.160
632.61	0.160
632.81	0.160
633.01	0.160
633.21	0.159
633.41	0.160
633.61	0.159
633.81	0.158
634.01	0.158
634.21	0.158
634.41	0.157
634.61	0.158
634.81	0.157
635.01	0.157
635.22	0.157
635.42	0.156
635.62	0.157
635.82	0.157
636.02	0.156
636.22	0.156
636.42	0.156
636.62	0.156
636.82	0.156
637.02	0.155
637.22	0.156
637.42	0.155
637.62	0.154
637.82	0.154
638.02	0.153
638.22	0.153
638.42	0.153
638.62	0.153
638.82	0.152
639.02	0.152
639.22	0.152
639.42	0.151
639.62	0.151
639.82	0.150
640.02	0.150
640.22	0.150
640.42	0.150
640.62	0.149
640.82	0.149
641.02	0.149
641.22	0.149
641.42	0.148
641.61	0.148
641.81	0.148
642.01	0.148
642.21	0.148
642.41	0.148
642.61	0.147
642.81	0.147
643.01	0.147
643.21	0.147
643.41	0.147
643.61	0.147
643.81	0.147
644.01	0.146
644.21	0.146
644.41	0.146
644.61	0.146
644.81	0.146
645.01	0.146
645.21	0.145
645.41	0.145
645.61	0.145
645.81	0.144
646.01	0.143
646.21	0.144
646.40	0.143
646.60	0.144
646.80	0.144
647.00	0.143
647.20	0.142
647.40	0.142
647.60	0.142
647.80	0.142
648.00	0.142
648.20	0.142
648.40	0.142
648.60	0.141
648.80	0.141
649.00	0.141
649.20	0.141
649.39	0.140
649.59	0.140
649.79	0.140
649.99	0.140
650.19	0.139
650.39	0.139
650.59	0.139
650.79	0.139
650.99	0.139
651.19	0.138
651.39	0.138
651.58	0.137
651.78	0.137
651.98	0.137
652.18	0.137
652.38	0.136
652.58	0.137
652.78	0.137
652.98	0.136
653.18	0.137
653.38	0.137
653.57	0.137
653.77	0.137
653.97	0.137
654.17	0.136
654.37	0.136
654.57	0.136
654.77	0.135
654.97	0.135
655.16	0.135
655.36	0.135
655.56	0.134
655.76	0.134
655.96	0.134
656.16	0.133
656.36	0.133
656.56	0.132
656.75	0.132
656.95	0.132
657.15	0.132
657.35	0.132
657.55	0.131
657.75	0.132
657.95	0.131
658.14	0.131
658.34	0.131
658.54	0.131
658.74	0.131
658.94	0.131
659.14	0.130
659.34	0.130
659.53	0.129
659.73	0.129
659.93	0.128
660.13	0.128
660.33	0.128
660.53	0.128
660.72	0.129
660.92	0.128
661.12	0.128
661.32	0.128
661.52	0.127
661.72	0.127
661.91	0.127
662.11	0.127
662.31	0.126
662.51	0.126
662.71	0.126
662.90	0.125
663.10	0.125
663.30	0.125
663.50	0.125
663.70	0.125
663.90	0.125
664.09	0.125
664.29	0.124
664.49	0.124
664.69	0.124
664.89	0.124
665.08	0.124
665.28	0.123
665.48	0.123
665.68	0.122
665.88	0.122
666.07	0.122
666.27	0.122
666.47	0.122
666.67	0.122
666.87	0.122
667.06	0.121
667.26	0.121
667.46	0.121
667.66	0.121
667.85	0.121
668.05	0.121
668.25	0.121
668.45	0.120
668.65	0.121
668.84	0.121
669.04	0.121
669.24	0.121
669.44	0.120
669.63	0.120
669.83	0.120
670.03	0.118
670.23	0.118
670.42	0.118
670.62	0.117
670.82	0.117
671.02	0.116
671.22	0.115
671.41	0.115
671.61	0.116
671.81	0.116
672.01	0.116
672.20	0.116
672.40	0.116
672.60	0.116
672.80	0.116
672.99	0.116
673.19	0.115
673.39	0.115
673.58	0.115
673.78	0.114
673.98	0.114
674.18	0.114
674.37	0.113
674.57	0.113
674.77	0.113
674.97	0.113
675.16	0.113
675.36	0.113
675.56	0.112
675.75	0.113
675.95	0.112
676.15	0.113
676.35	0.112
676.54	0.112
676.74	0.111
676.94	0.112
677.13	0.111
677.33	0.111
677.53	0.111
677.73	0.111
677.92	0.111
678.12	0.111
678.32	0.110
678.51	0.110
678.71	0.110
678.91	0.110
679.11	0.109
679.30	0.109
679.50	0.109
679.70	0.109
679.89	0.109
680.09	0.109
680.29	0.108
680.48	0.108
680.68	0.107
680.88	0.107
681.07	0.108
681.27	0.107
681.47	0.107
681.66	0.107
681.86	0.106
682.06	0.106
682.25	0.106
682.45	0.106
682.65	0.106
682.84	0.105
683.04	0.105
683.24	0.104
683.43	0.105
683.63	0.104
683.83	0.104
684.02	0.104
684.22	0.104
684.42	0.104
684.61	0.104
684.81	0.104
685.01	0.104
685.20	0.104
685.40	0.104
685.60	0.104
685.79	0.104
685.99	0.103
686.19	0.103
686.38	0.102
686.58	0.103
686.77	0.103
686.97	0.102
687.17	0.102
687.36	0.102
687.56	0.102
687.76	0.101
687.95	0.101
688.15	0.101
688.34	0.101
688.54	0.101
688.74	0.101
688.93	0.100
689.13	0.100
689.33	0.100
689.52	0.100
689.72	0.100
689.91	0.100
690.11	0.100
690.31	0.099
690.50	0.099
690.70	0.099
690.89	0.099
691.09	0.098
691.29	0.098
691.48	0.098
691.68	0.097
691.87	0.097
692.07	0.097
692.27	0.097
692.46	0.097
692.66	0.097
692.85	0.096
693.05	0.096
693.25	0.096
693.44	0.096
693.64	0.096
693.83	0.097
694.03	0.096
694.22	0.096
694.42	0.096
694.62	0.096
694.81	0.096
695.01	0.096
695.20	0.096
695.40	0.095
695.59	0.095
695.79	0.095
695.99	0.095
696.18	0.095
696.38	0.094
696.57	0.094
696.77	0.094
696.96	0.094
697.16	0.094
697.36	0.094
697.55	0.094
697.75	0.094
697.94	0.093
698.14	0.093
698.33	0.093
698.53	0.092
698.72	0.092
698.92	0.092
699.11	0.092
699.31	0.092
699.51	0.092
699.70	0.091
699.90	0.091
700.09	0.092
700.29	0.091
700.48	0.092
700.68	0.092
700.87	0.092
701.07	0.091
701.26	0.091
701.46	0.091
701.65	0.091
701.85	0.090
702.04	0.090
702.24	0.090
702.43	0.090
702.63	0.089
702.82	0.090
703.02	0.089
703.21	0.090
703.41	0.090
703.60	0.090
703.80	0.090
703.99	0.089
704.19	0.090
704.38	0.089
704.58	0.089
704.77	0.089
704.97	0.089
705.16	0.089
705.36	0.089
705.55	0.088
705.75	0.088
705.94	0.088
706.14	0.088
706.33	0.088
706.53	0.088
706.72	0.088
706.92	0.088
707.11	0.087
707.31	0.087
707.50	0.087
707.70	0.088
707.89	0.088
708.09	0.087
708.28	0.087
708.48	0.087
708.67	0.087
708.86	0.087
709.06	0.087
709.25	0.087
709.45	0.087
709.64	0.086
709.84	0.086
710.03	0.086
710.23	0.086
710.42	0.086
710.62	0.086
710.81	0.086
711.00	0.086
711.20	0.086
711.39	0.086
711.59	0.086
711.78	0.086
711.98	0.086
712.17	0.087
712.37	0.086
712.56	0.086
712.75	0.086
712.95	0.086
713.14	0.086
713.34	0.087
713.53	0.086
713.73	0.087
713.92	0.086
714.11	0.086
714.31	0.086
714.50	0.086
714.70	0.086
714.89	0.085
715.08	0.085
715.28	0.085
715.47	0.084
715.67	0.084
715.86	0.084
716.06	0.084
716.25	0.084
716.44	0.083
716.64	0.083
716.83	0.083
717.03	0.083
717.22	0.083
717.41	0.083
717.61	0.083
717.80	0.083
717.99	0.083
718.19	0.083
718.38	0.083
718.58	0.083
718.77	0.083
718.96	0.083
719.16	0.083
719.35	0.082
719.55	0.083
719.74	0.082
719.93	0.082
720.13	0.082
720.32	0.082
720.51	0.082
720.71	0.082
720.90	0.082
721.10	0.082
721.29	0.082
721.48	0.082
721.68	0.081
721.87	0.082
722.06	0.082
722.26	0.082
722.45	0.082
722.64	0.082
722.84	0.082
723.03	0.082
723.22	0.082
723.42	0.083
723.61	0.082
723.80	0.083
724.00	0.083
724.19	0.083
724.38	0.082
724.58	0.082
724.77	0.082
724.96	0.082
725.16	0.082
725.35	0.082
725.54	0.082
725.74	0.082
725.93	0.082
726.12	0.082
726.32	0.082
726.51	0.082
726.70	0.082
726.90	0.082
727.09	0.082
727.28	0.082
727.48	0.082
727.67	0.082
727.86	0.082
728.06	0.082
728.25	0.082
728.44	0.082
728.64	0.082
728.83	0.082
729.02	0.082
729.21	0.082
729.41	0.082
729.60	0.082
729.79	0.082
729.99	0.082
730.18	0.082
730.37	0.082
730.56	0.081
730.76	0.081
730.95	0.081
731.14	0.081
731.34	0.081
731.53	0.082
731.72	0.082
731.91	0.082
732.11	0.082
732.30	0.082
732.49	0.082
732.69	0.083
732.88	0.082
733.07	0.082
733.26	0.083
733.46	0.082
733.65	0.082
733.84	0.082
734.03	0.082
734.23	0.082
734.42	0.082
734.61	0.082
734.80	0.082
735.00	0.082
735.19	0.082
735.38	0.082
735.57	0.082
735.77	0.082
735.96	0.082
736.15	0.082
736.34	0.082
736.54	0.082
736.73	0.082
736.92	0.083
737.11	0.083
737.31	0.082
737.50	0.083
737.69	0.083
737.88	0.082
738.07	0.082
738.27	0.082
738.46	0.083
738.65	0.082
738.84	0.082
739.04	0.082
739.23	0.082
739.42	0.082
739.61	0.083
739.80	0.082
740.00	0.082
740.19	0.082
740.38	0.082
740.57	0.082
740.76	0.081
740.96	0.081
741.15	0.081
741.34	0.081
741.53	0.081
741.72	0.081
741.92	0.081
742.11	0.081
742.30	0.081
742.49	0.081
742.68	0.081
742.88	0.081
743.07	0.081
743.26	0.081
743.45	0.081
743.64	0.080
743.84	0.080
744.03	0.080
744.22	0.080
744.41	0.080
744.60	0.080
744.79	0.080
744.99	0.080
745.18	0.080
745.37	0.080
745.56	0.080
745.75	0.080
745.94	0.080
746.14	0.079
746.33	0.080
746.52	0.080
746.71	0.079
746.90	0.079
747.09	0.079
747.28	0.078
747.48	0.079
747.67	0.078
747.86	0.078
748.05	0.079
748.24	0.079
748.43	0.079
748.62	0.079
748.82	0.079
749.01	0.079
749.20	0.079
749.39	0.079
749.58	0.079
749.77	0.079
749.96	0.079
750.16	0.079
750.35	0.079
750.54	0.079
750.73	0.079
750.92	0.079
751.11	0.079
751.30	0.079
751.49	0.079
751.68	0.079
751.88	0.079
752.07	0.078
752.26	0.078
752.45	0.078
752.64	0.078
752.83	0.078
753.02	0.078
753.21	0.078
753.40	0.078
753.60	0.078
753.79	0.078
753.98	0.078
754.17	0.078
754.36	0.078
754.55	0.077
754.74	0.078
754.93	0.077
755.12	0.077
755.31	0.077
755.50	0.077
755.70	0.077
755.89	0.077
756.08	0.077
756.27	0.076
756.46	0.076
756.65	0.076
756.84	0.076
757.03	0.076
757.22	0.075
757.41	0.075
757.60	0.075
757.79	0.075
757.98	0.075
758.17	0.075
758.36	0.075
758.56	0.075
758.75	0.075
758.94	0.075
759.13	0.075
759.32	0.075
759.51	0.075
759.70	0.075
759.89	0.075
760.08	0.075
760.27	0.075
760.46	0.075
760.65	0.075
760.84	0.075
761.03	0.075
761.22	0.076
761.41	0.076
761.60	0.076
761.79	0.076
761.98	0.076
762.17	0.076
762.36	0.076
762.55	0.076
762.74	0.076
762.93	0.076
763.12	0.076
763.31	0.075
763.50	0.075
763.69	0.075
763.88	0.075
764.07	0.075
764.26	0.075
764.45	0.075
764.64	0.075
764.83	0.074
765.02	0.075
765.21	0.075
765.40	0.075
765.59	0.075
765.78	0.075
765.97	0.075
766.16	0.075
766.35	0.075
766.54	0.075
766.73	0.075
766.92	0.074
767.11	0.074
767.30	0.074
767.49	0.074
767.68	0.074
767.87	0.073
768.06	0.073
768.25	0.073
768.44	0.073
768.63	0.073
768.82	0.073
769.01	0.073
769.20	0.073
769.39	0.073
769.58	0.074
769.77	0.073
769.96	0.073
770.15	0.074
770.34	0.074
770.53	0.073
770.72	0.073
770.91	0.073
771.10	0.074
771.29	0.073
771.47	0.073
771.66	0.073
771.85	0.073
772.04	0.073
772.23	0.073
772.42	0.072
772.61	0.072
772.80	0.072
772.99	0.072
773.18	0.072
773.37	0.072
773.56	0.072
773.75	0.072
773.94	0.072
774.13	0.071
774.31	0.072
774.50	0.072
774.69	0.072
774.88	0.072
775.07	0.072
775.26	0.072
775.45	0.072
775.64	0.072
775.83	0.072
776.02	0.071
776.21	0.071
776.40	0.072
776.58	0.072
776.77	0.072
776.96	0.072
777.15	0.072
777.34	0.072
777.53	0.072
777.72	0.072
777.91	0.072
778.10	0.072
778.28	0.072
778.47	0.072
778.66	0.071
778.85	0.071
779.04	0.070
779.23	0.071
779.42	0.070
779.61	0.070
779.79	0.070
779.98	0.070
780.17	0.070
780.36	0.070
780.55	0.069
780.74	0.069
780.93	0.069
781.12	0.070
781.30	0.069
781.49	0.070
781.68	0.070
781.87	0.070
782.06	0.070
782.25	0.070
782.44	0.070
782.62	0.070
782.81	0.070
783.00	0.070
783.19	0.070
783.38	0.070
783.57	0.070
783.75	0.069
783.94	0.069
784.13	0.069
784.32	0.069
784.51	0.069
784.70	0.069
784.88	0.069
785.07	0.069
785.26	0.069
785.45	0.069
785.64	0.069
785.83	0.070
786.01	0.069
786.20	0.070
786.39	0.070
786.58	0.069
786.77	0.069
786.95	0.069
787.14	0.069
787.33	0.069
787.52	0.069
787.71	0.069
787.90	0.068
788.08	0.068
788.27	0.068
788.46	0.068
788.65	0.069
788.84	0.069
789.02	0.069
789.21	0.069
789.40	0.069
789.59	0.069
789.77	0.069
789.96	0.069
790.15	0.069
790.34	0.069
790.53	0.069
790.71	0.069
790.90	0.068
791.09	0.068
791.28	0.068
791.46	0.068
791.65	0.068
791.84	0.068
792.03	0.068
792.22	0.068
792.40	0.068
792.59	0.068
792.78	0.068
792.97	0.068
793.15	0.068
793.34	0.068
793.53	0.068
793.72	0.068
793.90	0.067
794.09	0.068
794.28	0.068
794.47	0.068
794.65	0.068
794.84	0.068
795.03	0.068
795.22	0.068
795.40	0.068
795.59	0.068
795.78	0.068
795.97	0.068
796.15	0.068
796.34	0.068
796.53	0.068
796.71	0.069
796.90	0.069
797.09	0.069
797.28	0.069
797.46	0.068
797.65	0.068
797.84	0.068
798.02	0.068
798.21	0.067
798.40	0.067
798.59	0.067
798.77	0.066
798.96	0.066
799.15	0.066
799.33	0.066
799.52	0.066
799.71	0.066
799.90	0.067
800.08	0.067
800.27	0.067
800.46	0.067
800.64	0.067
800.83	0.067
801.02	0.067
801.20	0.067
801.39	0.067
801.58	0.067
801.76	0.067
801.95	0.067
802.14	0.066
802.32	0.066
802.51	0.066
802.70	0.066
802.88	0.066
803.07	0.066
803.26	0.066
803.44	0.066
803.63	0.066
803.82	0.066
804.00	0.066
804.19	0.067
804.38	0.067
804.56	0.066
804.75	0.066
804.94	0.066
805.12	0.066
805.31	0.066
805.50	0.067
805.68	0.066
805.87	0.066
806.06	0.066
806.24	0.066
806.43	0.066
806.62	0.066
806.80	0.066
806.99	0.066
807.17	0.066
807.36	0.066
807.55	0.066
807.73	0.066
807.92	0.067
808.11	0.066
808.29	0.066
808.48	0.066
808.66	0.066
808.85	0.066
809.04	0.066
809.22	0.066
809.41	0.066
809.59	0.065
809.78	0.065
809.97	0.065
810.15	0.065
810.34	0.065
810.53	0.066
810.71	0.065
810.90	0.065
811.08	0.065
811.27	0.065
811.45	0.065
811.64	0.065
811.83	0.065
812.01	0.065
812.20	0.065
812.38	0.065
812.57	0.065
812.76	0.065
812.94	0.065
813.13	0.065
813.31	0.065
813.50	0.065
813.68	0.065
813.87	0.065
814.06	0.065
814.24	0.065
814.43	0.065
814.61	0.065
814.80	0.065
814.98	0.066
815.17	0.065
815.36	0.065
815.54	0.065
815.73	0.065
815.91	0.065
816.10	0.066
816.28	0.066
816.47	0.065
816.65	0.065
816.84	0.065
817.03	0.066
817.21	0.066
817.40	0.066
817.58	0.066
817.77	0.066
817.95	0.065
818.14	0.065
818.32	0.065
818.51	0.065
818.69	0.065
818.88	0.065
819.06	0.065
819.25	0.065
819.43	0.065
819.62	0.065
819.80	0.065
819.99	0.065
820.18	0.066
820.36	0.065
820.55	0.066
820.73	0.066
820.92	0.066
821.10	0.066
821.29	0.065
821.47	0.065
821.66	0.065
821.84	0.065
822.03	0.066
822.21	0.065
822.40	0.065
822.58	0.065
822.77	0.065
822.95	0.066
823.14	0.065
823.32	0.066
823.50	0.066
823.69	0.066
823.87	0.067
824.06	0.067
824.24	0.067
824.43	0.067
824.61	0.067
824.80	0.067
824.98	0.067
825.17	0.068
825.35	0.067
825.54	0.068
825.72	0.067
825.91	0.067
826.09	0.067
826.28	0.067
826.46	0.068
826.64	0.068
826.83	0.068
827.01	0.068
827.20	0.068
827.38	0.067
827.57	0.068
827.75	0.068
827.94	0.068
828.12	0.068
828.31	0.068
828.49	0.068
828.67	0.069
828.86	0.069
829.04	0.069
829.23	0.069
829.41	0.069
829.60	0.069
829.78	0.069
829.96	0.070
830.15	0.070
830.33	0.070
830.52	0.070
830.70	0.070
830.88	0.070
831.07	0.070
831.25	0.070
831.44	0.070
831.62	0.070
831.81	0.071
831.99	0.070
832.17	0.071
832.36	0.071
832.54	0.071
832.73	0.071
832.91	0.071
833.09	0.071
833.28	0.071
833.46	0.071
833.65	0.071
833.83	0.071
834.01	0.071
834.20	0.071
834.38	0.070
834.56	0.071
834.75	0.071
834.93	0.071
835.12	0.071
835.30	0.071
835.48	0.071
835.67	0.071
835.85	0.071
836.03	0.071
836.22	0.071
836.40	0.071
836.59	0.071
836.77	0.071
836.95	0.072
837.14	0.072
837.32	0.071
837.50	0.071
837.69	0.072
837.87	0.072
838.05	0.072
838.24	0.072
838.42	0.072
838.60	0.072
838.79	0.072
838.97	0.072
839.15	0.072
839.34	0.072
839.52	0.072
839.70	0.072
839.89	0.072
840.07	0.073
840.25	0.073
840.44	0.073
840.62	0.073
840.80	0.073
840.99	0.073
841.17	0.073
841.35	0.073
841.54	0.073
841.72	0.073
841.90	0.073
842.09	0.072
842.27	0.072
842.45	0.072
842.64	0.072
842.82	0.072
843.00	0.072
843.19	0.072
843.37	0.072
843.55	0.073
843.73	0.073
843.92	0.072
844.10	0.073
844.28	0.073
844.47	0.073
844.65	0.073
844.83	0.073
845.01	0.073
845.20	0.074
845.38	0.074
845.56	0.074
845.75	0.074
845.93	0.074
846.11	0.074
846.29	0.074
846.48	0.074
846.66	0.074
846.84	0.074
847.02	0.074
847.21	0.073
847.39	0.074
847.57	0.073
847.76	0.074
847.94	0.073
848.12	0.073
848.30	0.073
848.49	0.074
848.67	0.073
848.85	0.073
849.03	0.074
849.22	0.074
849.40	0.074
849.58	0.074
849.76	0.074
849.95	0.074
850.13	0.074
850.31	0.074
850.49	0.074
850.67	0.074
850.86	0.074
851.04	0.074
851.22	0.074
851.40	0.074
851.59	0.073
851.77	0.074
851.95	0.074
852.13	0.074
852.31	0.074
852.50	0.074
852.68	0.075
852.86	0.074
853.04	0.074
853.23	0.074
853.41	0.074
853.59	0.074
853.77	0.074
853.95	0.074
854.14	0.074
854.32	0.074
854.50	0.074
854.68	0.073
854.86	0.073
855.04	0.073
855.23	0.073
855.41	0.074
855.59	0.074
855.77	0.074
855.95	0.074
856.14	0.074
856.32	0.075
856.50	0.075
856.68	0.075
856.86	0.075
857.04	0.075
857.23	0.074
857.41	0.074
857.59	0.074
857.77	0.074
857.95	0.074
858.13	0.074
858.32	0.074
858.50	0.074
858.68	0.073
858.86	0.073
859.04	0.074
859.22	0.074
859.41	0.074
859.59	0.074
859.77	0.074
859.95	0.074
860.13	0.074
860.31	0.074
860.49	0.074
860.68	0.074
860.86	0.074
861.04	0.074
861.22	0.074
861.40	0.074
861.58	0.074
861.76	0.074
861.94	0.074
862.13	0.074
862.31	0.075
862.49	0.075
862.67	0.075
862.85	0.075
863.03	0.075
863.21	0.075
863.39	0.075
863.57	0.075
863.76	0.075
863.94	0.075
864.12	0.075
864.30	0.075
864.48	0.075
864.66	0.075
864.84	0.075
865.02	0.075
865.20	0.075
865.38	0.075
865.57	0.075
865.75	0.075
865.93	0.076
866.11	0.075
866.29	0.076
866.47	0.076
866.65	0.076
866.83	0.077
867.01	0.076
867.19	0.076
867.37	0.076
867.55	0.076
867.73	0.076
867.92	0.076
868.10	0.076
868.28	0.076
868.46	0.076
868.64	0.075
868.82	0.075
869.00	0.075
869.18	0.076
869.36	0.075
869.54	0.076
869.72	0.076
869.90	0.076
870.08	0.075
870.26	0.076
870.44	0.076
870.62	0.076
870.80	0.076
870.98	0.076
871.16	0.076
871.34	0.076
871.53	0.076
871.71	0.075
871.89	0.076
872.07	0.076
872.25	0.076
872.43	0.076
872.61	0.076
872.79	0.077
872.97	0.077
873.15	0.077
873.33	0.078
873.51	0.078
873.69	0.078
873.87	0.078
874.05	0.078
874.23	0.078
874.41	0.078
874.59	0.078
874.77	0.078
874.95	0.077
875.13	0.077
875.31	0.077
875.49	0.077
875.67	0.077
875.85	0.077
876.03	0.077
876.21	0.078
876.39	0.078
876.57	0.078
876.75	0.078
876.93	0.078
877.11	0.078
877.29	0.078
877.47	0.078
877.65	0.078
877.82	0.078
878.00	0.078
878.18	0.078
878.36	0.078
878.54	0.078
878.72	0.078
878.90	0.078
879.08	0.078
879.26	0.078
879.44	0.079
879.62	0.078
879.80	0.078
879.98	0.079
880.16	0.078
880.34	0.078
880.52	0.079
880.70	0.078
880.88	0.078
881.06	0.078
881.24	0.078
881.42	0.078
881.59	0.079
881.77	0.078
881.95	0.079
882.13	0.078
882.31	0.079
882.49	0.078
882.67	0.079
882.85	0.079
883.03	0.079
883.21	0.079
883.39	0.079
883.57	0.079
883.75	0.079
883.92	0.079
884.10	0.079
884.28	0.079
884.46	0.079
884.64	0.079
884.82	0.079
885.00	0.079
885.18	0.080
885.36	0.079
885.54	0.079
885.71	0.080
885.89	0.080
886.07	0.080
886.25	0.079
886.43	0.079
886.61	0.079
886.79	0.079
886.97	0.079
887.15	0.079
887.32	0.079
887.50	0.080
887.68	0.079
887.86	0.079
888.04	0.080
888.22	0.080
888.40	0.080
888.57	0.080
888.75	0.080
888.93	0.080
889.11	0.080
889.29	0.080
889.47	0.080
889.65	0.080
889.82	0.081
890.00	0.081
890.18	0.081
890.36	0.081
890.54	0.081
890.72	0.081
890.90	0.081
891.07	0.082
891.25	0.081
891.43	0.081
891.61	0.081
891.79	0.081
891.97	0.080
892.14	0.081
892.32	0.081
892.50	0.081
892.68	0.081
892.86	0.081
893.03	0.081
893.21	0.082
893.39	0.082
893.57	0.082
893.75	0.082
893.93	0.082
894.10	0.082
894.28	0.082
894.46	0.081
894.64	0.081
894.82	0.081
894.99	0.081
895.17	0.081
895.35	0.081
895.53	0.081
895.71	0.081
895.88	0.081
896.06	0.081
896.24	0.082
896.42	0.082
896.59	0.082
896.77	0.082
896.95	0.082
897.13	0.082
897.31	0.082
897.48	0.082
897.66	0.083
897.84	0.082
898.02	0.082
898.19	0.082
898.37	0.082
898.55	0.082
898.73	0.083
898.91	0.083
899.08	0.083
899.26	0.082
899.44	0.083
899.62	0.082
899.79	0.083
899.97	0.083
900.15	0.083
900.33	0.083
900.50	0.083
900.68	0.082
900.86	0.083
901.04	0.083
901.21	0.083
901.39	0.083
901.57	0.083
901.74	0.083
901.92	0.083
902.10	0.084
902.28	0.084
902.45	0.084
902.63	0.084
902.81	0.084
902.99	0.084
903.16	0.084
903.34	0.084
903.52	0.084
903.69	0.084
903.87	0.084
904.05	0.084
904.22	0.084
904.40	0.084
904.58	0.084
904.76	0.085
904.93	0.085
905.11	0.085
905.29	0.085
905.46	0.085
905.64	0.085
905.82	0.086
905.99	0.085
906.17	0.085
906.35	0.086
906.53	0.085
906.70	0.085
906.88	0.085
907.06	0.085
907.23	0.085
907.41	0.085
907.59	0.085
907.76	0.086
907.94	0.086
908.12	0.086
908.29	0.086
908.47	0.086
908.65	0.086
908.82	0.086
909.00	0.086
909.18	0.087
909.35	0.086
909.53	0.086
909.71	0.086
909.88	0.086
910.06	0.086
910.23	0.086
910.41	0.087
910.59	0.087
910.76	0.086
910.94	0.087
911.12	0.087
911.29	0.087
911.47	0.087
911.65	0.087
911.82	0.087
912.00	0.087
912.17	0.087
912.35	0.088
912.53	0.088
912.70	0.088
912.88	0.088
913.06	0.089
913.23	0.088
913.41	0.089
913.58	0.089
913.76	0.089
913.94	0.089
914.11	0.089
914.29	0.089
914.46	0.089
914.64	0.089
914.82	0.089
914.99	0.089
915.17	0.089
915.34	0.089
915.52	0.089
915.70	0.089
915.87	0.090
916.05	0.090
916.22	0.090
916.40	0.090
916.57	0.091
916.75	0.091
916.93	0.091
917.10	0.091
917.28	0.091
917.45	0.090
917.63	0.091
917.80	0.091
917.98	0.091
918.16	0.091
918.33	0.091
918.51	0.091
918.68	0.091
918.86	0.092
919.03	0.092
919.21	0.092
919.39	0.092
919.56	0.093
919.74	0.093
919.91	0.093
920.09	0.093
920.26	0.093
920.44	0.094
920.61	0.094
920.79	0.094
920.96	0.094
921.14	0.095
921.31	0.095
921.49	0.095
921.67	0.095
921.84	0.095
922.02	0.095
922.19	0.096
922.37	0.096
922.54	0.096
922.72	0.096
922.89	0.097
923.07	0.097
923.24	0.097
923.42	0.097
923.59	0.098
923.77	0.098
923.94	0.098
924.12	0.098
924.29	0.099
924.47	0.099
924.64	0.100
924.82	0.099
924.99	0.100
925.17	0.100
925.34	0.100
925.52	0.100
925.69	0.101
925.87	0.101
926.04	0.101
926.22	0.102
926.39	0.102
926.57	0.102
926.74	0.102
926.91	0.103
927.09	0.103
927.26	0.103
927.44	0.104
927.61	0.105
927.79	0.104
927.96	0.105
928.14	0.106
928.31	0.106
928.49	0.106
928.66	0.107
928.84	0.107
929.01	0.107
929.18	0.108
929.36	0.108
929.53	0.109
929.71	0.109
929.88	0.110
930.06	0.110
930.23	0.111
930.41	0.110
930.58	0.111
930.75	0.112
930.93	0.112
931.10	0.112
931.28	0.112
931.45	0.113
931.63	0.113
931.80	0.113
931.97	0.114
932.15	0.114
932.32	0.115
932.50	0.115
932.67	0.115
932.84	0.116
933.02	0.117
933.19	0.117
933.37	0.117
933.54	0.118
933.71	0.119
933.89	0.119
934.06	0.120
934.24	0.120
934.41	0.120
934.58	0.121
934.76	0.122
934.93	0.122
935.11	0.123
935.28	0.123
935.45	0.123
935.63	0.124
935.80	0.124
935.98	0.125
936.15	0.125
936.32	0.126
936.50	0.126
936.67	0.126
936.84	0.127
937.02	0.128
937.19	0.128
937.36	0.129
937.54	0.129
937.71	0.130
937.89	0.130
938.06	0.130
938.23	0.131
938.41	0.132
938.58	0.132
938.75	0.132
938.93	0.133
939.10	0.133
939.27	0.134
939.45	0.135
939.62	0.135
939.79	0.136
939.97	0.137
940.14	0.137
940.31	0.138
940.49	0.138
940.66	0.139
940.83	0.140
941.01	0.140
941.18	0.141
941.35	0.142
941.53	0.142
941.70	0.143
941.87	0.143
942.05	0.143
942.22	0.144
942.39	0.145
942.57	0.145
942.74	0.146
942.91	0.146
943.08	0.147
943.26	0.147
943.43	0.148
943.60	0.149
943.78	0.149
943.95	0.150
944.12	0.151
944.29	0.151
944.47	0.152
944.64	0.153
944.81	0.154
944.99	0.155
945.16	0.155
945.33	0.156
945.50	0.157
945.68	0.158
945.85	0.159
946.02	0.161
946.20	0.161
946.37	0.162
946.54	0.163
946.71	0.164
946.89	0.164
947.06	0.165
947.23	0.166
947.40	0.167
947.58	0.167
947.75	0.169
947.92	0.169
948.09	0.170
948.27	0.171
948.44	0.172
948.61	0.173
948.78	0.174
948.96	0.176
949.13	0.177
949.30	0.177
949.47	0.178
949.65	0.179
949.82	0.181
949.99	0.181
950.16	0.182
950.33	0.184
950.51	0.185
950.68	0.186
950.85	0.187
951.02	0.188
951.20	0.189
951.37	0.191
951.54	0.192
951.71	0.193
951.88	0.194
952.06	0.196
952.23	0.196
952.40	0.198
952.57	0.199
952.74	0.201
952.92	0.202
953.09	0.203
953.26	0.205
953.43	0.206
953.60	0.207
953.77	0.208
953.95	0.209
954.12	0.210
954.29	0.211
954.46	0.213
954.63	0.214
954.81	0.215
954.98	0.215
955.15	0.217
955.32	0.218
955.49	0.218
955.66	0.220
955.84	0.221
956.01	0.222
956.18	0.224
956.35	0.226
956.52	0.226
956.69	0.228
956.87	0.228
957.04	0.230
957.21	0.232
957.38	0.232
957.55	0.233
957.72	0.234
957.89	0.235
958.07	0.234
958.24	0.237
958.41	0.238
958.58	0.238
958.75	0.239
958.92	0.240
959.09	0.240
959.26	0.241
959.44	0.242
959.61	0.243
959.78	0.244
959.95	0.245
960.12	0.245
960.29	0.248
960.46	0.247
960.63	0.247
960.81	0.247
960.98	0.248
961.15	0.249
961.32	0.249
961.49	0.249
961.66	0.250
961.83	0.250
962.00	0.250
962.17	0.251
962.34	0.251
962.52	0.251
962.69	0.252
962.86	0.252
963.03	0.252
963.20	0.253
963.37	0.252
963.54	0.253
963.71	0.253
963.88	0.253
964.05	0.253
964.22	0.255
964.39	0.254
964.56	0.254
964.74	0.255
964.91	0.255
965.08	0.256
965.25	0.256
965.42	0.257
965.59	0.258
965.76	0.258
965.93	0.260
966.10	0.258
966.27	0.258
966.44	0.258
966.61	0.259
966.78	0.258
966.95	0.257
967.12	0.258
967.29	0.260
967.46	0.259
967.63	0.258
967.80	0.259
967.97	0.258
968.14	0.258
968.32	0.259
968.49	0.260
968.66	0.259
968.83	0.261
969.00	0.260
969.17	0.260
969.34	0.262
969.51	0.262
969.68	0.261
969.85	0.261
970.02	0.262
970.19	0.261
970.36	0.262
970.53	0.262
970.70	0.260
970.87	0.261
971.04	0.260
971.21	0.261
971.38	0.261
971.55	0.261
971.72	0.261
971.89	0.261
972.06	0.260
972.23	0.260
972.40	0.260
972.57	0.259
972.74	0.260
972.91	0.261
973.07	0.261
973.24	0.261
973.41	0.261
973.58	0.260
973.75	0.272
973.92	0.260
974.09	0.260
974.26	0.260
974.43	0.259
974.60	0.260
974.77	0.261
974.94	0.260
975.11	0.261
975.28	0.262
975.45	0.260
975.62	0.262
975.79	0.263
975.96	0.261
976.13	0.260
976.30	0.262
976.47	0.260
976.64	0.261
976.80	0.261
976.97	0.260
977.14	0.259
977.31	0.259
977.48	0.260
977.65	0.259
977.82	0.258
977.99	0.260
978.16	0.260
978.33	0.260
978.50	0.258
978.67	0.258
978.83	0.258
979.00	0.259
979.17	0.259
979.34	0.258
979.51	0.257
979.68	0.258
979.85	0.257
980.02	0.258
980.19	0.255
980.36	0.257
980.52	0.258
980.69	0.257
980.86	0.257
981.03	0.256
981.20	0.255
981.37	0.256
981.54	0.256
981.71	0.255
981.88	0.256
982.04	0.255
982.21	0.254
982.38	0.256
982.55	0.255
982.72	0.254
982.89	0.256
983.06	0.254
983.22	0.255
983.39	0.255
983.56	0.254
983.73	0.253
983.90	0.252
984.07	0.254
984.24	0.253
984.40	0.252
984.57	0.250
984.74	0.252
984.91	0.253
985.08	0.251
985.25	0.249
985.41	0.250
985.58	0.251
985.75	0.252
985.92	0.251
986.09	0.250
986.26	0.250
986.42	0.249
986.59	0.248
986.76	0.249
986.93	0.249
987.10	0.250
987.27	0.247
987.43	0.246
987.60	0.247
987.77	0.247
987.94	0.246
988.11	0.247
988.27	0.247
988.44	0.246
988.61	0.245
988.78	0.243
988.95	0.243
989.11	0.245
989.28	0.243
989.45	0.242
989.62	0.242
989.79	0.242
989.95	0.241
990.12	0.242
990.29	0.242
990.46	0.240
990.62	0.239
990.79	0.240
990.96	0.240
991.13	0.240
991.30	0.239
991.46	0.238
991.63	0.236
991.80	0.236
991.97	0.236
992.13	0.236
992.30	0.238
992.47	0.236
992.64	0.236
992.80	0.236
992.97	0.236
993.14	0.234
993.31	0.231
993.47	0.234
993.64	0.232
993.81	0.231
993.98	0.231
994.14	0.230
994.31	0.229
994.48	0.229
994.64	0.230
994.81	0.228
994.98	0.229
995.15	0.227
995.31	0.228
995.48	0.228
995.65	0.230
995.82	0.227
995.98	0.227
996.15	0.228
996.32	0.230
996.48	0.228
996.65	0.227
996.82	0.224
996.99	0.225
997.15	0.224
997.32	0.225
997.49	0.223
997.65	0.223
997.82	0.223
997.99	0.221
998.15	0.221
998.32	0.223
998.49	0.222
998.65	0.222
998.82	0.221
998.99	0.219
999.15	0.219
999.32	0.219
999.49	0.219
999.65	0.219
999.82	0.216
999.99	0.216
1000.15	0.216
1000.32	0.217
1000.49	0.217
1000.65	0.215
1000.82	0.215
1000.99	0.215
1001.15	0.215
1001.32	0.214
1001.49	0.214
1001.65	0.214
1001.82	0.216
1001.99	0.213
1002.15	0.212
1002.32	0.212
1002.49	0.212
1002.65	0.211
1002.82	0.210
1002.99	0.209
1003.15	0.211
1003.32	0.209
1003.48	0.209
1003.65	0.209
1003.82	0.209
1003.98	0.206
1004.15	0.206
1004.32	0.207
1004.48	0.208
1004.65	0.209
1004.81	0.206
1004.98	0.204
1005.15	0.206
1005.31	0.205
1005.48	0.203
1005.64	0.203
1005.81	0.206
1005.98	0.202
1006.14	0.201
1006.31	0.201
1006.47	0.200
1006.64	0.199
1006.81	0.199
1006.97	0.199
1007.14	0.199
1007.30	0.201
1007.47	0.200
1007.63	0.197
1007.80	0.195
1007.97	0.196
1008.13	0.196
1008.30	0.195
1008.46	0.195
1008.63	0.194
1008.79	0.195
1008.96	0.194
1009.13	0.195
1009.29	0.193
1009.46	0.194
1009.62	0.194
1009.79	0.192
1009.95	0.192
1010.12	0.193
1010.28	0.193
1010.45	0.192
1010.62	0.192
1010.78	0.190
1010.95	0.189
1011.11	0.189
1011.28	0.188
1011.44	0.190
1011.61	0.188
1011.77	0.187
1011.94	0.187
1012.10	0.187
1012.27	0.187
1012.43	0.187
1012.60	0.186
1012.76	0.187
1012.93	0.186
1013.10	0.184
1013.26	0.181
1013.43	0.183
1013.59	0.190
1013.76	0.183
1013.92	0.181
1014.09	0.180
1014.25	0.181
1014.42	0.181
1014.58	0.180
1014.75	0.182
1014.91	0.181
1015.08	0.183
1015.24	0.179
1015.41	0.180
1015.57	0.180
1015.73	0.179
1015.90	0.177
1016.06	0.179
1016.23	0.178
1016.39	0.179
1016.56	0.180
1016.72	0.180
1016.89	0.179
1017.05	0.182
1017.22	0.178
1017.38	0.178
1017.55	0.176
1017.71	0.178
1017.88	0.177
1018.04	0.177
1018.21	0.174
1018.37	0.173
1018.53	0.173
1018.70	0.171
1018.86	0.170
1019.03	0.173
1019.19	0.170
1019.36	0.171
1019.52	0.172
1019.69	0.172
1019.85	0.170
1020.01	0.170
1020.18	0.169
1020.34	0.169
1020.51	0.169
1020.67	0.170
1020.84	0.169
1021.00	0.170
1021.16	0.167
1021.33	0.168
1021.49	0.166
1021.66	0.167
1021.82	0.165
1021.98	0.165
1022.15	0.164
1022.31	0.164
1022.48	0.163
1022.64	0.164
1022.80	0.164
1022.97	0.162
1023.13	0.162
1023.30	0.163
1023.46	0.164
1023.62	0.161
1023.79	0.163
1023.95	0.163
1024.12	0.162
1024.28	0.161
1024.44	0.160
1024.61	0.159
1024.77	0.158
1024.93	0.157
1025.10	0.157
1025.26	0.155
1025.43	0.155
1025.59	0.151
1025.75	0.155
1025.92	0.154
1026.08	0.153
1026.24	0.152
1026.41	0.154
1026.57	0.154
1026.73	0.152
1026.90	0.155
1027.06	0.153
1027.23	0.155
1027.39	0.155
1027.55	0.155
1027.72	0.153
1027.88	0.153
1028.04	0.154
1028.21	0.153
1028.37	0.146
1028.53	0.152
1028.70	0.150
1028.86	0.147
1029.02	0.146
1029.19	0.148
1029.35	0.147
1029.51	0.147
1029.67	0.146
1029.84	0.147
1030.00	0.142
1030.16	0.144
1030.33	0.147
1030.49	0.144
1030.65	0.142
1030.82	0.157
1030.98	0.145
1031.14	0.144
1031.31	0.144
1031.47	0.142
1031.63	0.144
1031.79	0.143
1031.96	0.144
1032.12	0.145
1032.28	0.143
1032.45	0.147
1032.61	0.147
1032.77	0.145
1032.93	0.143
1033.10	0.145
1033.26	0.147
1033.42	0.144
1033.58	0.145
1033.75	0.146
1033.91	0.144
1034.07	0.146
1034.24	0.143
1034.40	0.141
1034.56	0.141
1034.72	0.141
1034.89	0.141
1035.05	0.138
1035.21	0.138
1035.37	0.137
1035.54	0.139
1035.70	0.138
1035.86	0.137
1036.02	0.139
1036.19	0.137
1036.35	0.135
1036.51	0.139
1036.67	0.137
1036.83	0.137
1037.00	0.136
1037.16	0.137
1037.32	0.137
1037.48	0.135
1037.65	0.140
1037.81	0.135
1037.97	0.135
1038.13	0.136
1038.29	0.133
1038.46	0.129
1038.62	0.133
1038.78	0.132
1038.94	0.129
1039.10	0.134
1039.27	0.129
1039.43	0.131
1039.59	0.130
1039.75	0.130
1039.91	0.129
1040.08	0.130
1040.24	0.135
1040.40	0.136
1040.56	0.134
1040.72	0.128
1040.89	0.131
1041.05	0.135
1041.21	0.133
1041.37	0.132
1041.53	0.138
1041.69	0.134
1041.86	0.132
1042.02	0.128
1042.18	0.128
1042.34	0.129
1042.50	0.132
1042.66	0.127
1042.83	0.126
1042.99	0.128
1043.15	0.125
1043.31	0.126
1043.47	0.129
1043.63	0.127
1043.79	0.128
1043.96	0.128
1044.12	0.132
1044.28	0.130
1044.44	0.131
1044.60	0.125
1044.76	0.125
1044.92	0.127
1045.09	0.128
1045.25	0.126
1045.41	0.127
1045.57	0.121
1045.73	0.123
1045.89	0.124
1046.05	0.127
1046.21	0.136
1046.38	0.123
1046.54	0.129
1046.70	0.137
1046.86	0.130
>>>>>End Processed Spectral Data<<<<<
