SpectraSuite Data File
++++++++++++++++++++++++++++++++++++
Date: Mon May 20 12:12:28 CDT 2013
User: Students
Dark Spectrum Present: Yes
Reference Spectrum Present: Yes
Number of Sampled Component Spectra: 1
Spectrometers: USB4H00887
Integration Time (usec): 60000 (USB4H00887)
Spectra Averaged: 5 (USB4H00887)
Boxcar Smoothing: 5 (USB4H00887)
Correct for Electrical Dark: No (USB4H00887)
Strobe/Lamp Enabled: No (USB4H00887)
Correct for Detector Non-linearity: No (USB4H00887)
Correct for Stray Light: No (USB4H00887)
Number of Pixels in Processed Spectrum: 3648
>>>>>Begin Processed Spectral Data<<<<<
345.83	-0.049
346.05	-0.049
346.26	-0.049
346.48	-0.000
346.70	-0.000
346.92	0.055
347.14	0.042
347.35	0.038
347.57	0.294
347.79	-0.240
348.01	-0.214
348.23	-0.354
348.44	-0.000
348.66	0.389
348.88	-0.483
349.10	-0.284
349.32	0.164
349.53	-0.066
349.75	-0.109
349.97	-0.055
350.19	0.007
350.41	0.025
350.62	-0.104
350.84	0.012
351.06	0.028
351.28	0.055
351.50	0.160
351.71	0.163
351.93	0.188
352.15	0.045
352.37	0.230
352.58	0.049
352.80	0.051
353.02	0.073
353.24	0.081
353.46	0.272
353.67	-0.081
353.89	0.019
354.11	0.030
354.33	0.040
354.54	0.058
354.76	0.113
354.98	0.159
355.20	0.154
355.41	0.084
355.63	0.157
355.85	0.078
356.07	1.496
356.28	0.076
356.50	0.144
356.72	0.053
356.94	0.166
357.15	0.243
357.37	-0.000
357.59	0.151
357.81	0.086
358.02	0.184
358.24	0.130
358.46	0.274
358.68	0.255
358.89	0.133
359.11	-0.000
359.33	0.100
359.55	-0.580
359.76	0.104
359.98	0.112
360.20	0.134
360.42	0.096
360.63	0.101
360.85	0.072
361.07	0.529
361.29	0.069
361.50	0.179
361.72	0.082
361.94	0.325
362.15	0.147
362.37	0.075
362.59	0.067
362.81	0.108
363.02	0.191
363.24	0.261
363.46	0.155
363.68	0.206
363.89	0.144
364.11	0.184
364.33	0.204
364.54	0.134
364.76	0.171
364.98	0.208
365.20	0.215
365.41	0.132
365.63	0.164
365.85	0.108
366.06	0.265
366.28	0.207
366.50	0.172
366.71	0.066
366.93	0.103
367.15	0.101
367.37	0.083
367.58	0.108
367.80	0.127
368.02	0.308
368.23	0.109
368.45	0.135
368.67	0.134
368.88	0.105
369.10	-0.000
369.32	0.091
369.53	0.050
369.75	0.096
369.97	0.268
370.19	0.165
370.40	0.074
370.62	0.259
370.84	0.103
371.05	0.510
371.27	0.165
371.49	0.193
371.70	0.245
371.92	0.385
372.14	0.144
372.35	0.156
372.57	0.182
372.79	0.531
373.00	0.101
373.22	0.145
373.44	0.167
373.65	0.120
373.87	0.159
374.09	0.916
374.30	0.165
374.52	0.184
374.74	0.124
374.95	0.541
375.17	0.139
375.39	-0.000
375.60	0.162
375.82	0.244
376.04	0.103
376.25	0.108
376.47	0.063
376.68	0.138
376.90	0.092
377.12	0.195
377.33	0.113
377.55	0.289
377.77	0.146
377.98	0.231
378.20	0.151
378.42	0.194
378.63	0.274
378.85	-0.000
379.07	0.185
379.28	0.786
379.50	0.405
379.71	0.222
379.93	0.151
380.15	0.209
380.36	0.305
380.58	0.186
380.80	0.487
381.01	0.146
381.23	0.114
381.44	0.120
381.66	0.150
381.88	0.192
382.09	-0.084
382.31	0.122
382.53	0.128
382.74	0.774
382.96	0.199
383.17	0.163
383.39	0.214
383.61	0.264
383.82	0.176
384.04	0.200
384.25	0.260
384.47	0.227
384.69	0.227
384.90	0.205
385.12	0.431
385.33	0.281
385.55	0.219
385.77	0.349
385.98	0.171
386.20	0.246
386.41	0.206
386.63	0.210
386.85	0.175
387.06	0.199
387.28	0.289
387.49	0.177
387.71	0.142
387.93	0.130
388.14	0.344
388.36	0.168
388.57	0.160
388.79	0.189
389.01	0.974
389.22	0.241
389.44	0.232
389.65	0.207
389.87	0.207
390.08	0.243
390.30	0.183
390.52	0.369
390.73	0.401
390.95	0.264
391.16	0.253
391.38	-0.000
391.59	0.298
391.81	0.243
392.03	0.221
392.24	0.249
392.46	0.213
392.67	0.197
392.89	0.266
393.10	0.369
393.32	0.237
393.53	0.259
393.75	0.176
393.97	0.191
394.18	0.258
394.40	0.227
394.61	0.238
394.83	0.214
395.04	0.256
395.26	0.169
395.47	0.269
395.69	0.242
395.91	0.273
396.12	0.339
396.34	0.342
396.55	0.210
396.77	0.304
396.98	1.146
397.20	0.326
397.41	0.363
397.63	0.265
397.84	0.230
398.06	0.214
398.27	0.218
398.49	0.247
398.71	0.182
398.92	0.231
399.14	0.296
399.35	0.396
399.57	0.395
399.78	0.272
400.00	0.259
400.21	0.335
400.43	0.261
400.64	0.264
400.86	0.549
401.07	0.322
401.29	0.276
401.50	0.293
401.72	0.398
401.93	0.245
402.15	0.285
402.36	0.267
402.58	0.218
402.79	0.249
403.01	0.395
403.22	0.316
403.44	0.217
403.65	0.338
403.87	0.394
404.08	0.312
404.30	0.517
404.51	0.287
404.73	0.347
404.94	0.287
405.16	0.295
405.37	0.238
405.59	0.395
405.80	0.252
406.02	0.295
406.23	0.284
406.45	0.310
406.66	0.314
406.88	0.217
407.09	0.307
407.31	0.270
407.52	0.315
407.74	0.268
407.95	0.308
408.17	0.303
408.38	0.322
408.60	0.215
408.81	0.342
409.03	0.269
409.24	0.263
409.45	0.300
409.67	0.280
409.88	0.257
410.10	0.308
410.31	0.272
410.53	0.260
410.74	0.340
410.96	0.346
411.17	0.373
411.39	0.301
411.60	0.291
411.82	0.326
412.03	0.318
412.24	0.308
412.46	0.428
412.67	0.364
412.89	0.349
413.10	0.356
413.32	0.321
413.53	0.358
413.75	0.365
413.96	0.294
414.17	0.385
414.39	0.393
414.60	0.331
414.82	0.413
415.03	0.329
415.25	0.375
415.46	0.262
415.68	0.354
415.89	0.591
416.10	0.500
416.32	0.289
416.53	0.337
416.75	0.322
416.96	0.382
417.18	0.345
417.39	0.330
417.60	0.329
417.82	0.470
418.03	0.421
418.25	0.351
418.46	0.372
418.67	0.349
418.89	0.374
419.10	0.389
419.32	0.492
419.53	0.455
419.75	0.402
419.96	0.356
420.17	0.419
420.39	0.396
420.60	0.411
420.82	0.481
421.03	0.395
421.24	0.330
421.46	0.358
421.67	0.387
421.89	0.341
422.10	0.351
422.31	0.348
422.53	0.454
422.74	0.362
422.96	0.296
423.17	0.324
423.38	0.383
423.60	0.337
423.81	0.402
424.03	0.354
424.24	0.379
424.45	0.384
424.67	0.378
424.88	0.351
425.09	0.377
425.31	0.361
425.52	0.380
425.74	0.431
425.95	0.465
426.16	0.374
426.38	0.433
426.59	0.410
426.80	0.463
427.02	0.486
427.23	0.392
427.45	0.483
427.66	0.471
427.87	0.378
428.09	0.389
428.30	0.428
428.51	0.420
428.73	0.446
428.94	0.399
429.15	0.390
429.37	0.379
429.58	0.399
429.79	0.379
430.01	0.434
430.22	0.432
430.44	0.442
430.65	0.407
430.86	0.439
431.08	0.431
431.29	0.404
431.50	0.467
431.72	0.579
431.93	0.489
432.14	0.384
432.36	0.418
432.57	0.425
432.78	0.437
433.00	0.404
433.21	0.399
433.42	0.480
433.64	0.431
433.85	0.475
434.06	0.400
434.28	0.420
434.49	0.429
434.70	0.435
434.92	0.442
435.13	0.465
435.34	0.473
435.56	0.447
435.77	0.447
435.98	0.528
436.20	0.461
436.41	0.407
436.62	0.401
436.83	0.449
437.05	0.491
437.26	0.444
437.47	0.409
437.69	0.439
437.90	0.408
438.11	0.397
438.33	0.438
438.54	0.448
438.75	0.537
438.97	0.530
439.18	0.425
439.39	0.446
439.60	0.473
439.82	0.449
440.03	0.417
440.24	0.557
440.46	0.457
440.67	0.437
440.88	0.461
441.10	0.441
441.31	0.438
441.52	0.469
441.73	0.507
441.95	0.468
442.16	0.442
442.37	0.625
442.58	0.444
442.80	0.430
443.01	0.530
443.22	0.499
443.44	0.438
443.65	0.499
443.86	0.494
444.07	0.520
444.29	0.461
444.50	0.552
444.71	0.443
444.92	0.421
445.14	0.511
445.35	0.533
445.56	0.444
445.78	0.504
445.99	0.501
446.20	0.450
446.41	0.499
446.63	0.501
446.84	0.481
447.05	0.486
447.26	0.554
447.48	0.494
447.69	0.472
447.90	0.519
448.11	0.478
448.33	0.495
448.54	0.503
448.75	0.514
448.96	0.521
449.18	0.536
449.39	0.495
449.60	0.487
449.81	0.558
450.03	0.499
450.24	0.534
450.45	0.510
450.66	0.498
450.87	0.516
451.09	0.492
451.30	0.476
451.51	0.516
451.72	0.521
451.94	0.530
452.15	0.558
452.36	0.492
452.57	0.504
452.78	0.501
453.00	0.523
453.21	0.499
453.42	0.486
453.63	0.538
453.85	0.524
454.06	0.518
454.27	0.581
454.48	0.539
454.69	0.504
454.91	0.537
455.12	0.489
455.33	0.533
455.54	0.547
455.75	0.533
455.97	0.546
456.18	0.540
456.39	0.547
456.60	0.563
456.81	0.532
457.03	0.535
457.24	0.537
457.45	0.581
457.66	0.554
457.87	0.532
458.09	0.539
458.30	0.496
458.51	0.564
458.72	0.575
458.93	0.577
459.15	0.521
459.36	0.558
459.57	0.569
459.78	0.590
459.99	0.540
460.20	0.516
460.42	0.562
460.63	0.539
460.84	0.528
461.05	0.536
461.26	0.568
461.47	0.534
461.69	0.558
461.90	0.576
462.11	0.557
462.32	0.590
462.53	0.559
462.74	0.607
462.96	0.547
463.17	0.543
463.38	0.566
463.59	0.622
463.80	0.541
464.01	0.554
464.23	0.599
464.44	0.580
464.65	0.583
464.86	0.593
465.07	0.595
465.28	0.576
465.49	0.586
465.71	0.564
465.92	0.580
466.13	0.603
466.34	0.569
466.55	0.599
466.76	0.578
466.97	0.591
467.19	0.588
467.40	0.607
467.61	0.611
467.82	0.572
468.03	0.566
468.24	0.603
468.45	0.620
468.66	0.614
468.88	0.614
469.09	0.616
469.30	0.636
469.51	0.599
469.72	0.617
469.93	0.604
470.14	0.596
470.35	0.639
470.57	0.616
470.78	0.588
470.99	0.652
471.20	0.625
471.41	0.604
471.62	0.635
471.83	0.622
472.04	0.638
472.25	0.660
472.47	0.620
472.68	0.621
472.89	0.626
473.10	0.647
473.31	0.622
473.52	0.652
473.73	0.663
473.94	0.624
474.15	0.639
474.36	0.643
474.57	0.655
474.79	0.642
475.00	0.642
475.21	0.635
475.42	0.679
475.63	0.633
475.84	0.649
476.05	0.654
476.26	0.639
476.47	0.655
476.68	0.676
476.89	0.641
477.10	0.665
477.32	0.659
477.53	0.684
477.74	0.645
477.95	0.664
478.16	0.639
478.37	0.660
478.58	0.664
478.79	0.670
479.00	0.669
479.21	0.650
479.42	0.669
479.63	0.671
479.84	0.654
480.05	0.655
480.26	0.669
480.47	0.678
480.69	0.678
480.90	0.659
481.11	0.658
481.32	0.688
481.53	0.660
481.74	0.686
481.95	0.672
482.16	0.679
482.37	0.685
482.58	0.667
482.79	0.675
483.00	0.688
483.21	0.662
483.42	0.649
483.63	0.684
483.84	0.695
484.05	0.690
484.26	0.676
484.47	0.676
484.68	0.659
484.89	0.663
485.10	0.685
485.31	0.675
485.52	0.679
485.73	0.680
485.94	0.698
486.15	0.675
486.37	0.682
486.58	0.666
486.79	0.671
487.00	0.692
487.21	0.690
487.42	0.690
487.63	0.693
487.84	0.703
488.05	0.701
488.26	0.682
488.47	0.685
488.68	0.700
488.89	0.690
489.10	0.687
489.31	0.693
489.52	0.708
489.73	0.693
489.94	0.710
490.15	0.689
490.36	0.708
490.57	0.687
490.78	0.679
490.99	0.697
491.20	0.731
491.41	0.713
491.62	0.686
491.83	0.702
492.04	0.700
492.25	0.703
492.45	0.703
492.66	0.714
492.87	0.710
493.08	0.705
493.29	0.699
493.50	0.695
493.71	0.700
493.92	0.700
494.13	0.705
494.34	0.714
494.55	0.718
494.76	0.733
494.97	0.729
495.18	0.714
495.39	0.721
495.60	0.698
495.81	0.699
496.02	0.708
496.23	0.706
496.44	0.723
496.65	0.720
496.86	0.721
497.07	0.732
497.28	0.732
497.49	0.707
497.70	0.709
497.91	0.720
498.12	0.711
498.32	0.732
498.53	0.723
498.74	0.718
498.95	0.728
499.16	0.708
499.37	0.711
499.58	0.715
499.79	0.729
500.00	0.726
500.21	0.738
500.42	0.714
500.63	0.714
500.84	0.723
501.05	0.713
501.26	0.726
501.46	0.744
501.67	0.727
501.88	0.728
502.09	0.718
502.30	0.722
502.51	0.743
502.72	0.724
502.93	0.730
503.14	0.739
503.35	0.727
503.56	0.725
503.77	0.740
503.97	0.730
504.18	0.728
504.39	0.744
504.60	0.728
504.81	0.741
505.02	0.735
505.23	0.736
505.44	0.728
505.65	0.730
505.86	0.722
506.07	0.750
506.27	0.732
506.48	0.735
506.69	0.728
506.90	0.739
507.11	0.738
507.32	0.728
507.53	0.731
507.74	0.728
507.95	0.735
508.15	0.739
508.36	0.740
508.57	0.745
508.78	0.738
508.99	0.737
509.20	0.724
509.41	0.736
509.62	0.730
509.82	0.729
510.03	0.734
510.24	0.734
510.45	0.742
510.66	0.738
510.87	0.737
511.08	0.719
511.29	0.739
511.49	0.730
511.70	0.750
511.91	0.720
512.12	0.719
512.33	0.734
512.54	0.741
512.75	0.735
512.95	0.748
513.16	0.744
513.37	0.734
513.58	0.750
513.79	0.733
514.00	0.736
514.20	0.744
514.41	0.737
514.62	0.722
514.83	0.740
515.04	0.734
515.25	0.723
515.46	0.728
515.66	0.728
515.87	0.734
516.08	0.722
516.29	0.732
516.50	0.723
516.71	0.721
516.91	0.725
517.12	0.734
517.33	0.729
517.54	0.723
517.75	0.723
517.95	0.729
518.16	0.734
518.37	0.719
518.58	0.722
518.79	0.710
519.00	0.725
519.20	0.729
519.41	0.715
519.62	0.722
519.83	0.726
520.04	0.712
520.24	0.710
520.45	0.714
520.66	0.724
520.87	0.706
521.08	0.704
521.28	0.705
521.49	0.712
521.70	0.699
521.91	0.706
522.12	0.698
522.32	0.707
522.53	0.698
522.74	0.694
522.95	0.698
523.16	0.698
523.36	0.702
523.57	0.692
523.78	0.689
523.99	0.691
524.20	0.687
524.40	0.692
524.61	0.694
524.82	0.682
525.03	0.683
525.23	0.683
525.44	0.676
525.65	0.676
525.86	0.687
526.06	0.674
526.27	0.674
526.48	0.678
526.69	0.670
526.90	0.673
527.10	0.688
527.31	0.667
527.52	0.664
527.73	0.661
527.93	0.665
528.14	0.667
528.35	0.662
528.56	0.662
528.76	0.658
528.97	0.652
529.18	0.646
529.39	0.647
529.59	0.648
529.80	0.662
530.01	0.647
530.22	0.646
530.42	0.631
530.63	0.640
530.84	0.628
531.05	0.635
531.25	0.637
531.46	0.632
531.67	0.621
531.88	0.631
532.08	0.628
532.29	0.625
532.50	0.621
532.70	0.617
532.91	0.611
533.12	0.613
533.33	0.625
533.53	0.610
533.74	0.610
533.95	0.612
534.15	0.606
534.36	0.605
534.57	0.597
534.78	0.599
534.98	0.604
535.19	0.587
535.40	0.588
535.60	0.597
535.81	0.585
536.02	0.586
536.23	0.582
536.43	0.583
536.64	0.576
536.85	0.580
537.05	0.585
537.26	0.572
537.47	0.575
537.67	0.569
537.88	0.566
538.09	0.570
538.30	0.563
538.50	0.557
538.71	0.564
538.92	0.556
539.12	0.553
539.33	0.551
539.54	0.550
539.74	0.553
539.95	0.547
540.16	0.547
540.36	0.542
540.57	0.543
540.78	0.539
540.98	0.539
541.19	0.537
541.40	0.531
541.60	0.537
541.81	0.534
542.02	0.534
542.22	0.528
542.43	0.524
542.64	0.522
542.84	0.521
543.05	0.515
543.26	0.515
543.46	0.518
543.67	0.517
543.88	0.514
544.08	0.508
544.29	0.505
544.50	0.505
544.70	0.506
544.91	0.501
545.12	0.502
545.32	0.500
545.53	0.504
545.74	0.497
545.94	0.495
546.15	0.494
546.35	0.492
546.56	0.490
546.77	0.487
546.97	0.486
547.18	0.481
547.39	0.481
547.59	0.480
547.80	0.477
548.01	0.481
548.21	0.478
548.42	0.472
548.62	0.471
548.83	0.469
549.04	0.467
549.24	0.462
549.45	0.462
549.65	0.460
549.86	0.457
550.07	0.456
550.27	0.454
550.48	0.460
550.69	0.450
550.89	0.451
551.10	0.449
551.30	0.448
551.51	0.448
551.72	0.441
551.92	0.443
552.13	0.443
552.33	0.443
552.54	0.440
552.75	0.435
552.95	0.436
553.16	0.433
553.36	0.432
553.57	0.431
553.78	0.430
553.98	0.430
554.19	0.424
554.39	0.421
554.60	0.424
554.80	0.425
555.01	0.419
555.22	0.421
555.42	0.418
555.63	0.414
555.83	0.417
556.04	0.414
556.25	0.416
556.45	0.409
556.66	0.409
556.86	0.411
557.07	0.410
557.27	0.409
557.48	0.405
557.68	0.404
557.89	0.405
558.10	0.402
558.30	0.399
558.51	0.397
558.71	0.396
558.92	0.393
559.12	0.395
559.33	0.397
559.54	0.393
559.74	0.390
559.95	0.389
560.15	0.388
560.36	0.387
560.56	0.383
560.77	0.384
560.97	0.384
561.18	0.380
561.38	0.379
561.59	0.382
561.79	0.379
562.00	0.377
562.21	0.375
562.41	0.375
562.62	0.373
562.82	0.372
563.03	0.370
563.23	0.369
563.44	0.369
563.64	0.368
563.85	0.369
564.05	0.364
564.26	0.364
564.46	0.363
564.67	0.363
564.87	0.361
565.08	0.359
565.28	0.359
565.49	0.359
565.69	0.357
565.90	0.354
566.10	0.356
566.31	0.352
566.51	0.353
566.72	0.355
566.92	0.350
567.13	0.349
567.33	0.349
567.54	0.348
567.74	0.347
567.95	0.344
568.15	0.346
568.36	0.345
568.56	0.344
568.77	0.340
568.97	0.339
569.18	0.339
569.38	0.337
569.59	0.338
569.79	0.337
570.00	0.335
570.20	0.335
570.41	0.333
570.61	0.332
570.82	0.334
571.02	0.331
571.23	0.334
571.43	0.330
571.64	0.330
571.84	0.329
572.05	0.328
572.25	0.327
572.45	0.326
572.66	0.324
572.86	0.323
573.07	0.321
573.27	0.321
573.48	0.320
573.68	0.317
573.89	0.317
574.09	0.318
574.30	0.316
574.50	0.315
574.70	0.316
574.91	0.314
575.11	0.314
575.32	0.314
575.52	0.311
575.73	0.311
575.93	0.311
576.14	0.310
576.34	0.308
576.54	0.308
576.75	0.307
576.95	0.306
577.16	0.304
577.36	0.303
577.57	0.303
577.77	0.301
577.97	0.299
578.18	0.301
578.38	0.298
578.59	0.297
578.79	0.295
579.00	0.296
579.20	0.295
579.40	0.294
579.61	0.294
579.81	0.293
580.02	0.291
580.22	0.291
580.42	0.290
580.63	0.291
580.83	0.290
581.04	0.289
581.24	0.289
581.45	0.287
581.65	0.287
581.85	0.286
582.06	0.285
582.26	0.285
582.47	0.284
582.67	0.284
582.87	0.283
583.08	0.282
583.28	0.282
583.48	0.280
583.69	0.278
583.89	0.279
584.10	0.280
584.30	0.277
584.50	0.276
584.71	0.275
584.91	0.275
585.12	0.274
585.32	0.275
585.52	0.273
585.73	0.272
585.93	0.272
586.13	0.271
586.34	0.270
586.54	0.270
586.75	0.269
586.95	0.268
587.15	0.268
587.36	0.267
587.56	0.266
587.76	0.266
587.97	0.265
588.17	0.264
588.37	0.265
588.58	0.265
588.78	0.262
588.98	0.264
589.19	0.262
589.39	0.260
589.60	0.262
589.80	0.260
590.00	0.259
590.21	0.260
590.41	0.258
590.61	0.258
590.82	0.257
591.02	0.257
591.22	0.256
591.43	0.256
591.63	0.255
591.83	0.254
592.04	0.253
592.24	0.254
592.44	0.251
592.65	0.250
592.85	0.251
593.05	0.251
593.26	0.249
593.46	0.249
593.66	0.249
593.86	0.248
594.07	0.247
594.27	0.247
594.47	0.246
594.68	0.245
594.88	0.246
595.08	0.245
595.29	0.246
595.49	0.244
595.69	0.244
595.90	0.243
596.10	0.244
596.30	0.243
596.50	0.242
596.71	0.241
596.91	0.241
597.11	0.240
597.32	0.240
597.52	0.239
597.72	0.239
597.93	0.239
598.13	0.237
598.33	0.237
598.53	0.236
598.74	0.235
598.94	0.235
599.14	0.234
599.35	0.234
599.55	0.234
599.75	0.233
599.95	0.232
600.16	0.233
600.36	0.232
600.56	0.233
600.76	0.232
600.97	0.231
601.17	0.231
601.37	0.231
601.58	0.231
601.78	0.231
601.98	0.230
602.18	0.228
602.39	0.228
602.59	0.229
602.79	0.228
602.99	0.227
603.20	0.226
603.40	0.226
603.60	0.226
603.80	0.226
604.01	0.225
604.21	0.225
604.41	0.224
604.61	0.223
604.82	0.223
605.02	0.223
605.22	0.222
605.42	0.222
605.62	0.223
605.83	0.221
606.03	0.220
606.23	0.221
606.43	0.220
606.64	0.220
606.84	0.219
607.04	0.219
607.24	0.220
607.45	0.220
607.65	0.218
607.85	0.218
608.05	0.217
608.25	0.216
608.46	0.216
608.66	0.216
608.86	0.215
609.06	0.214
609.26	0.213
609.47	0.214
609.67	0.213
609.87	0.214
610.07	0.213
610.28	0.212
610.48	0.212
610.68	0.213
610.88	0.211
611.08	0.212
611.29	0.211
611.49	0.210
611.69	0.211
611.89	0.209
612.09	0.209
612.29	0.208
612.50	0.208
612.70	0.208
612.90	0.207
613.10	0.207
613.30	0.206
613.51	0.207
613.71	0.206
613.91	0.211
614.11	0.206
614.31	0.206
614.51	0.206
614.72	0.205
614.92	0.205
615.12	0.205
615.32	0.205
615.52	0.204
615.72	0.205
615.93	0.204
616.13	0.203
616.33	0.203
616.53	0.203
616.73	0.203
616.93	0.201
617.14	0.202
617.34	0.202
617.54	0.202
617.74	0.202
617.94	0.201
618.14	0.201
618.34	0.200
618.55	0.199
618.75	0.200
618.95	0.199
619.15	0.200
619.35	0.199
619.55	0.198
619.75	0.199
619.96	0.197
620.16	0.198
620.36	0.197
620.56	0.197
620.76	0.197
620.96	0.197
621.16	0.197
621.36	0.197
621.57	0.197
621.77	0.197
621.97	0.196
622.17	0.196
622.37	0.196
622.57	0.196
622.77	0.195
622.97	0.194
623.18	0.194
623.38	0.195
623.58	0.194
623.78	0.193
623.98	0.193
624.18	0.192
624.38	0.192
624.58	0.192
624.78	0.193
624.98	0.193
625.19	0.193
625.39	0.193
625.59	0.192
625.79	0.192
625.99	0.192
626.19	0.192
626.39	0.192
626.59	0.192
626.79	0.192
626.99	0.191
627.19	0.191
627.40	0.191
627.60	0.190
627.80	0.190
628.00	0.190
628.20	0.189
628.40	0.189
628.60	0.189
628.80	0.188
629.00	0.188
629.20	0.187
629.40	0.188
629.60	0.186
629.80	0.186
630.00	0.186
630.20	0.186
630.41	0.185
630.61	0.184
630.81	0.184
631.01	0.184
631.21	0.184
631.41	0.184
631.61	0.184
631.81	0.184
632.01	0.183
632.21	0.184
632.41	0.182
632.61	0.182
632.81	0.182
633.01	0.183
633.21	0.182
633.41	0.183
633.61	0.181
633.81	0.181
634.01	0.181
634.21	0.181
634.41	0.180
634.61	0.181
634.81	0.180
635.01	0.179
635.22	0.180
635.42	0.180
635.62	0.180
635.82	0.180
636.02	0.179
636.22	0.179
636.42	0.179
636.62	0.179
636.82	0.179
637.02	0.178
637.22	0.178
637.42	0.177
637.62	0.176
637.82	0.177
638.02	0.176
638.22	0.176
638.42	0.176
638.62	0.175
638.82	0.175
639.02	0.174
639.22	0.174
639.42	0.174
639.62	0.174
639.82	0.173
640.02	0.173
640.22	0.173
640.42	0.173
640.62	0.173
640.82	0.173
641.02	0.172
641.22	0.172
641.42	0.172
641.61	0.172
641.81	0.172
642.01	0.172
642.21	0.172
642.41	0.171
642.61	0.171
642.81	0.170
643.01	0.169
643.21	0.169
643.41	0.169
643.61	0.169
643.81	0.168
644.01	0.167
644.21	0.167
644.41	0.167
644.61	0.167
644.81	0.167
645.01	0.167
645.21	0.167
645.41	0.167
645.61	0.166
645.81	0.166
646.01	0.166
646.21	0.167
646.40	0.166
646.60	0.166
646.80	0.167
647.00	0.166
647.20	0.165
647.40	0.165
647.60	0.165
647.80	0.165
648.00	0.165
648.20	0.164
648.40	0.164
648.60	0.164
648.80	0.163
649.00	0.163
649.20	0.163
649.39	0.163
649.59	0.162
649.79	0.161
649.99	0.161
650.19	0.160
650.39	0.160
650.59	0.160
650.79	0.160
650.99	0.160
651.19	0.159
651.39	0.159
651.58	0.159
651.78	0.159
651.98	0.159
652.18	0.159
652.38	0.159
652.58	0.159
652.78	0.158
652.98	0.158
653.18	0.158
653.38	0.158
653.57	0.158
653.77	0.158
653.97	0.157
654.17	0.157
654.37	0.157
654.57	0.157
654.77	0.157
654.97	0.157
655.16	0.156
655.36	0.156
655.56	0.155
655.76	0.155
655.96	0.155
656.16	0.154
656.36	0.154
656.56	0.154
656.75	0.153
656.95	0.153
657.15	0.153
657.35	0.152
657.55	0.151
657.75	0.152
657.95	0.152
658.14	0.151
658.34	0.151
658.54	0.151
658.74	0.150
658.94	0.150
659.14	0.151
659.34	0.150
659.53	0.150
659.73	0.150
659.93	0.149
660.13	0.149
660.33	0.149
660.53	0.149
660.72	0.150
660.92	0.149
661.12	0.148
661.32	0.148
661.52	0.148
661.72	0.147
661.91	0.147
662.11	0.147
662.31	0.147
662.51	0.147
662.71	0.146
662.90	0.146
663.10	0.146
663.30	0.145
663.50	0.145
663.70	0.145
663.90	0.145
664.09	0.145
664.29	0.144
664.49	0.143
664.69	0.143
664.89	0.143
665.08	0.142
665.28	0.142
665.48	0.141
665.68	0.141
665.88	0.141
666.07	0.141
666.27	0.141
666.47	0.141
666.67	0.141
666.87	0.141
667.06	0.140
667.26	0.140
667.46	0.139
667.66	0.140
667.85	0.139
668.05	0.139
668.25	0.139
668.45	0.139
668.65	0.139
668.84	0.139
669.04	0.139
669.24	0.138
669.44	0.138
669.63	0.138
669.83	0.138
670.03	0.137
670.23	0.136
670.42	0.136
670.62	0.136
670.82	0.135
671.02	0.135
671.22	0.134
671.41	0.134
671.61	0.134
671.81	0.134
672.01	0.134
672.20	0.133
672.40	0.132
672.60	0.132
672.80	0.132
672.99	0.132
673.19	0.132
673.39	0.132
673.58	0.131
673.78	0.131
673.98	0.131
674.18	0.131
674.37	0.131
674.57	0.130
674.77	0.131
674.97	0.130
675.16	0.131
675.36	0.130
675.56	0.129
675.75	0.129
675.95	0.129
676.15	0.129
676.35	0.129
676.54	0.129
676.74	0.128
676.94	0.129
677.13	0.128
677.33	0.128
677.53	0.128
677.73	0.128
677.92	0.127
678.12	0.128
678.32	0.127
678.51	0.127
678.71	0.127
678.91	0.126
679.11	0.126
679.30	0.126
679.50	0.126
679.70	0.125
679.89	0.125
680.09	0.126
680.29	0.125
680.48	0.125
680.68	0.124
680.88	0.124
681.07	0.124
681.27	0.123
681.47	0.123
681.66	0.124
681.86	0.123
682.06	0.123
682.25	0.122
682.45	0.122
682.65	0.122
682.84	0.121
683.04	0.121
683.24	0.121
683.43	0.121
683.63	0.121
683.83	0.120
684.02	0.120
684.22	0.120
684.42	0.120
684.61	0.119
684.81	0.119
685.01	0.119
685.20	0.118
685.40	0.119
685.60	0.119
685.79	0.118
685.99	0.119
686.19	0.118
686.38	0.118
686.58	0.118
686.77	0.118
686.97	0.118
687.17	0.118
687.36	0.118
687.56	0.117
687.76	0.116
687.95	0.116
688.15	0.116
688.34	0.116
688.54	0.116
688.74	0.115
688.93	0.115
689.13	0.115
689.33	0.115
689.52	0.114
689.72	0.115
689.91	0.114
690.11	0.114
690.31	0.113
690.50	0.113
690.70	0.114
690.89	0.113
691.09	0.113
691.29	0.113
691.48	0.113
691.68	0.113
691.87	0.113
692.07	0.113
692.27	0.112
692.46	0.112
692.66	0.112
692.85	0.111
693.05	0.111
693.25	0.111
693.44	0.111
693.64	0.111
693.83	0.111
694.03	0.110
694.22	0.109
694.42	0.109
694.62	0.110
694.81	0.110
695.01	0.110
695.20	0.110
695.40	0.109
695.59	0.109
695.79	0.109
695.99	0.109
696.18	0.109
696.38	0.109
696.57	0.109
696.77	0.108
696.96	0.109
697.16	0.108
697.36	0.108
697.55	0.108
697.75	0.107
697.94	0.107
698.14	0.107
698.33	0.107
698.53	0.106
698.72	0.106
698.92	0.106
699.11	0.106
699.31	0.106
699.51	0.106
699.70	0.105
699.90	0.105
700.09	0.105
700.29	0.105
700.48	0.105
700.68	0.105
700.87	0.105
701.07	0.105
701.26	0.104
701.46	0.104
701.65	0.104
701.85	0.104
702.04	0.104
702.24	0.104
702.43	0.104
702.63	0.104
702.82	0.104
703.02	0.103
703.21	0.103
703.41	0.103
703.60	0.102
703.80	0.102
703.99	0.102
704.19	0.102
704.38	0.101
704.58	0.100
704.77	0.100
704.97	0.100
705.16	0.100
705.36	0.100
705.55	0.100
705.75	0.100
705.94	0.100
706.14	0.100
706.33	0.100
706.53	0.100
706.72	0.100
706.92	0.100
707.11	0.100
707.31	0.099
707.50	0.099
707.70	0.099
707.89	0.099
708.09	0.099
708.28	0.099
708.48	0.099
708.67	0.099
708.86	0.099
709.06	0.099
709.25	0.099
709.45	0.099
709.64	0.099
709.84	0.099
710.03	0.098
710.23	0.098
710.42	0.098
710.62	0.098
710.81	0.098
711.00	0.098
711.20	0.098
711.39	0.097
711.59	0.097
711.78	0.097
711.98	0.097
712.17	0.098
712.37	0.097
712.56	0.097
712.75	0.097
712.95	0.097
713.14	0.097
713.34	0.097
713.53	0.097
713.73	0.097
713.92	0.097
714.11	0.097
714.31	0.097
714.50	0.096
714.70	0.096
714.89	0.096
715.08	0.096
715.28	0.096
715.47	0.096
715.67	0.097
715.86	0.096
716.06	0.096
716.25	0.096
716.44	0.096
716.64	0.095
716.83	0.095
717.03	0.095
717.22	0.095
717.41	0.095
717.61	0.094
717.80	0.094
717.99	0.094
718.19	0.094
718.38	0.095
718.58	0.094
718.77	0.094
718.96	0.094
719.16	0.094
719.35	0.094
719.55	0.093
719.74	0.093
719.93	0.093
720.13	0.093
720.32	0.092
720.51	0.092
720.71	0.092
720.90	0.092
721.10	0.092
721.29	0.092
721.48	0.092
721.68	0.091
721.87	0.092
722.06	0.091
722.26	0.092
722.45	0.092
722.64	0.092
722.84	0.092
723.03	0.092
723.22	0.093
723.42	0.093
723.61	0.093
723.80	0.093
724.00	0.093
724.19	0.093
724.38	0.093
724.58	0.092
724.77	0.092
724.96	0.092
725.16	0.092
725.35	0.092
725.54	0.092
725.74	0.091
725.93	0.091
726.12	0.091
726.32	0.091
726.51	0.091
726.70	0.091
726.90	0.092
727.09	0.091
727.28	0.091
727.48	0.091
727.67	0.091
727.86	0.091
728.06	0.091
728.25	0.091
728.44	0.091
728.64	0.091
728.83	0.091
729.02	0.091
729.21	0.091
729.41	0.091
729.60	0.090
729.79	0.091
729.99	0.090
730.18	0.090
730.37	0.090
730.56	0.090
730.76	0.090
730.95	0.090
731.14	0.090
731.34	0.090
731.53	0.091
731.72	0.091
731.91	0.091
732.11	0.091
732.30	0.091
732.49	0.091
732.69	0.092
732.88	0.092
733.07	0.092
733.26	0.092
733.46	0.091
733.65	0.092
733.84	0.091
734.03	0.091
734.23	0.091
734.42	0.091
734.61	0.091
734.80	0.090
735.00	0.091
735.19	0.090
735.38	0.090
735.57	0.091
735.77	0.090
735.96	0.090
736.15	0.090
736.34	0.091
736.54	0.091
736.73	0.091
736.92	0.091
737.11	0.091
737.31	0.090
737.50	0.091
737.69	0.091
737.88	0.090
738.07	0.090
738.27	0.090
738.46	0.090
738.65	0.090
738.84	0.090
739.04	0.090
739.23	0.090
739.42	0.090
739.61	0.090
739.80	0.090
740.00	0.090
740.19	0.090
740.38	0.090
740.57	0.090
740.76	0.090
740.96	0.089
741.15	0.090
741.34	0.089
741.53	0.090
741.72	0.089
741.92	0.089
742.11	0.089
742.30	0.089
742.49	0.089
742.68	0.089
742.88	0.089
743.07	0.089
743.26	0.088
743.45	0.088
743.64	0.088
743.84	0.087
744.03	0.088
744.22	0.088
744.41	0.087
744.60	0.087
744.79	0.087
744.99	0.087
745.18	0.087
745.37	0.087
745.56	0.087
745.75	0.087
745.94	0.087
746.14	0.086
746.33	0.087
746.52	0.087
746.71	0.087
746.90	0.087
747.09	0.087
747.28	0.087
747.48	0.087
747.67	0.087
747.86	0.087
748.05	0.087
748.24	0.087
748.43	0.087
748.62	0.086
748.82	0.086
749.01	0.086
749.20	0.086
749.39	0.086
749.58	0.086
749.77	0.086
749.96	0.085
750.16	0.085
750.35	0.085
750.54	0.085
750.73	0.085
750.92	0.085
751.11	0.085
751.30	0.085
751.49	0.085
751.68	0.085
751.88	0.085
752.07	0.085
752.26	0.085
752.45	0.085
752.64	0.085
752.83	0.085
753.02	0.085
753.21	0.084
753.40	0.084
753.60	0.084
753.79	0.084
753.98	0.084
754.17	0.084
754.36	0.084
754.55	0.084
754.74	0.084
754.93	0.084
755.12	0.084
755.31	0.084
755.50	0.084
755.70	0.084
755.89	0.083
756.08	0.083
756.27	0.083
756.46	0.083
756.65	0.083
756.84	0.083
757.03	0.082
757.22	0.082
757.41	0.082
757.60	0.082
757.79	0.082
757.98	0.082
758.17	0.082
758.36	0.082
758.56	0.082
758.75	0.081
758.94	0.081
759.13	0.082
759.32	0.081
759.51	0.081
759.70	0.082
759.89	0.082
760.08	0.081
760.27	0.081
760.46	0.081
760.65	0.081
760.84	0.082
761.03	0.082
761.22	0.081
761.41	0.082
761.60	0.082
761.79	0.081
761.98	0.081
762.17	0.081
762.36	0.081
762.55	0.081
762.74	0.081
762.93	0.080
763.12	0.080
763.31	0.080
763.50	0.080
763.69	0.079
763.88	0.080
764.07	0.080
764.26	0.080
764.45	0.080
764.64	0.080
764.83	0.080
765.02	0.081
765.21	0.080
765.40	0.080
765.59	0.080
765.78	0.080
765.97	0.080
766.16	0.080
766.35	0.080
766.54	0.080
766.73	0.080
766.92	0.080
767.11	0.079
767.30	0.080
767.49	0.080
767.68	0.080
767.87	0.080
768.06	0.080
768.25	0.079
768.44	0.080
768.63	0.079
768.82	0.079
769.01	0.079
769.20	0.079
769.39	0.079
769.58	0.079
769.77	0.079
769.96	0.079
770.15	0.079
770.34	0.079
770.53	0.079
770.72	0.078
770.91	0.078
771.10	0.078
771.29	0.078
771.47	0.078
771.66	0.078
771.85	0.078
772.04	0.078
772.23	0.078
772.42	0.078
772.61	0.078
772.80	0.078
772.99	0.078
773.18	0.077
773.37	0.078
773.56	0.078
773.75	0.078
773.94	0.077
774.13	0.077
774.31	0.077
774.50	0.077
774.69	0.078
774.88	0.077
775.07	0.078
775.26	0.078
775.45	0.077
775.64	0.077
775.83	0.077
776.02	0.077
776.21	0.077
776.40	0.077
776.58	0.076
776.77	0.076
776.96	0.077
777.15	0.077
777.34	0.076
777.53	0.077
777.72	0.077
777.91	0.077
778.10	0.076
778.28	0.076
778.47	0.076
778.66	0.076
778.85	0.076
779.04	0.076
779.23	0.076
779.42	0.076
779.61	0.076
779.79	0.076
779.98	0.076
780.17	0.076
780.36	0.076
780.55	0.075
780.74	0.075
780.93	0.075
781.12	0.075
781.30	0.075
781.49	0.075
781.68	0.075
781.87	0.075
782.06	0.075
782.25	0.075
782.44	0.075
782.62	0.075
782.81	0.075
783.00	0.075
783.19	0.075
783.38	0.075
783.57	0.075
783.75	0.074
783.94	0.074
784.13	0.074
784.32	0.074
784.51	0.074
784.70	0.074
784.88	0.074
785.07	0.074
785.26	0.074
785.45	0.074
785.64	0.074
785.83	0.074
786.01	0.073
786.20	0.073
786.39	0.073
786.58	0.073
786.77	0.073
786.95	0.073
787.14	0.073
787.33	0.073
787.52	0.073
787.71	0.073
787.90	0.073
788.08	0.073
788.27	0.073
788.46	0.073
788.65	0.073
788.84	0.073
789.02	0.073
789.21	0.073
789.40	0.073
789.59	0.073
789.77	0.073
789.96	0.073
790.15	0.073
790.34	0.073
790.53	0.073
790.71	0.073
790.90	0.073
791.09	0.072
791.28	0.073
791.46	0.073
791.65	0.073
791.84	0.073
792.03	0.073
792.22	0.073
792.40	0.072
792.59	0.072
792.78	0.072
792.97	0.073
793.15	0.073
793.34	0.072
793.53	0.072
793.72	0.072
793.90	0.072
794.09	0.072
794.28	0.072
794.47	0.072
794.65	0.072
794.84	0.072
795.03	0.072
795.22	0.072
795.40	0.072
795.59	0.072
795.78	0.072
795.97	0.072
796.15	0.072
796.34	0.073
796.53	0.072
796.71	0.073
796.90	0.073
797.09	0.073
797.28	0.073
797.46	0.073
797.65	0.072
797.84	0.072
798.02	0.072
798.21	0.072
798.40	0.071
798.59	0.071
798.77	0.071
798.96	0.070
799.15	0.070
799.33	0.070
799.52	0.070
799.71	0.070
799.90	0.070
800.08	0.070
800.27	0.070
800.46	0.070
800.64	0.070
800.83	0.070
801.02	0.070
801.20	0.070
801.39	0.070
801.58	0.070
801.76	0.070
801.95	0.070
802.14	0.070
802.32	0.070
802.51	0.070
802.70	0.070
802.88	0.070
803.07	0.070
803.26	0.069
803.44	0.069
803.63	0.069
803.82	0.069
804.00	0.069
804.19	0.069
804.38	0.070
804.56	0.070
804.75	0.070
804.94	0.070
805.12	0.070
805.31	0.070
805.50	0.070
805.68	0.070
805.87	0.070
806.06	0.070
806.24	0.070
806.43	0.070
806.62	0.070
806.80	0.070
806.99	0.069
807.17	0.070
807.36	0.070
807.55	0.070
807.73	0.070
807.92	0.070
808.11	0.070
808.29	0.070
808.48	0.069
808.66	0.070
808.85	0.069
809.04	0.069
809.22	0.069
809.41	0.069
809.59	0.069
809.78	0.069
809.97	0.069
810.15	0.069
810.34	0.069
810.53	0.069
810.71	0.069
810.90	0.069
811.08	0.069
811.27	0.069
811.45	0.069
811.64	0.069
811.83	0.068
812.01	0.069
812.20	0.069
812.38	0.068
812.57	0.068
812.76	0.068
812.94	0.068
813.13	0.068
813.31	0.069
813.50	0.069
813.68	0.069
813.87	0.068
814.06	0.069
814.24	0.069
814.43	0.069
814.61	0.069
814.80	0.069
814.98	0.069
815.17	0.069
815.36	0.069
815.54	0.069
815.73	0.069
815.91	0.069
816.10	0.069
816.28	0.069
816.47	0.068
816.65	0.069
816.84	0.069
817.03	0.069
817.21	0.069
817.40	0.069
817.58	0.069
817.77	0.069
817.95	0.069
818.14	0.069
818.32	0.069
818.51	0.069
818.69	0.069
818.88	0.069
819.06	0.069
819.25	0.069
819.43	0.069
819.62	0.069
819.80	0.069
819.99	0.069
820.18	0.069
820.36	0.069
820.55	0.069
820.73	0.069
820.92	0.069
821.10	0.069
821.29	0.069
821.47	0.069
821.66	0.069
821.84	0.069
822.03	0.069
822.21	0.069
822.40	0.069
822.58	0.069
822.77	0.069
822.95	0.069
823.14	0.069
823.32	0.070
823.50	0.070
823.69	0.070
823.87	0.070
824.06	0.070
824.24	0.070
824.43	0.070
824.61	0.070
824.80	0.070
824.98	0.070
825.17	0.070
825.35	0.070
825.54	0.070
825.72	0.070
825.91	0.070
826.09	0.070
826.28	0.070
826.46	0.071
826.64	0.071
826.83	0.071
827.01	0.071
827.20	0.071
827.38	0.071
827.57	0.071
827.75	0.071
827.94	0.071
828.12	0.071
828.31	0.071
828.49	0.071
828.67	0.072
828.86	0.072
829.04	0.072
829.23	0.072
829.41	0.072
829.60	0.072
829.78	0.072
829.96	0.073
830.15	0.073
830.33	0.073
830.52	0.073
830.70	0.073
830.88	0.073
831.07	0.074
831.25	0.074
831.44	0.073
831.62	0.073
831.81	0.073
831.99	0.073
832.17	0.073
832.36	0.074
832.54	0.073
832.73	0.074
832.91	0.074
833.09	0.074
833.28	0.074
833.46	0.074
833.65	0.074
833.83	0.075
834.01	0.075
834.20	0.074
834.38	0.074
834.56	0.074
834.75	0.075
834.93	0.074
835.12	0.074
835.30	0.074
835.48	0.074
835.67	0.074
835.85	0.074
836.03	0.074
836.22	0.074
836.40	0.075
836.59	0.075
836.77	0.074
836.95	0.075
837.14	0.075
837.32	0.075
837.50	0.075
837.69	0.075
837.87	0.075
838.05	0.075
838.24	0.075
838.42	0.075
838.60	0.075
838.79	0.076
838.97	0.076
839.15	0.076
839.34	0.076
839.52	0.076
839.70	0.076
839.89	0.076
840.07	0.076
840.25	0.077
840.44	0.077
840.62	0.076
840.80	0.076
840.99	0.076
841.17	0.076
841.35	0.076
841.54	0.076
841.72	0.076
841.90	0.076
842.09	0.076
842.27	0.076
842.45	0.076
842.64	0.076
842.82	0.076
843.00	0.076
843.19	0.076
843.37	0.076
843.55	0.076
843.73	0.076
843.92	0.076
844.10	0.076
844.28	0.076
844.47	0.076
844.65	0.076
844.83	0.076
845.01	0.076
845.20	0.076
845.38	0.076
845.56	0.077
845.75	0.077
845.93	0.077
846.11	0.076
846.29	0.077
846.48	0.077
846.66	0.077
846.84	0.076
847.02	0.076
847.21	0.076
847.39	0.076
847.57	0.076
847.76	0.076
847.94	0.076
848.12	0.076
848.30	0.076
848.49	0.076
848.67	0.076
848.85	0.076
849.03	0.077
849.22	0.077
849.40	0.077
849.58	0.077
849.76	0.077
849.95	0.077
850.13	0.077
850.31	0.077
850.49	0.077
850.67	0.078
850.86	0.078
851.04	0.077
851.22	0.077
851.40	0.077
851.59	0.077
851.77	0.077
851.95	0.077
852.13	0.077
852.31	0.077
852.50	0.078
852.68	0.078
852.86	0.078
853.04	0.078
853.23	0.078
853.41	0.077
853.59	0.077
853.77	0.077
853.95	0.077
854.14	0.077
854.32	0.077
854.50	0.077
854.68	0.076
854.86	0.076
855.04	0.076
855.23	0.076
855.41	0.077
855.59	0.077
855.77	0.077
855.95	0.077
856.14	0.077
856.32	0.078
856.50	0.078
856.68	0.078
856.86	0.078
857.04	0.078
857.23	0.077
857.41	0.077
857.59	0.077
857.77	0.077
857.95	0.077
858.13	0.077
858.32	0.077
858.50	0.077
858.68	0.077
858.86	0.077
859.04	0.077
859.22	0.077
859.41	0.077
859.59	0.077
859.77	0.077
859.95	0.077
860.13	0.077
860.31	0.077
860.49	0.077
860.68	0.077
860.86	0.077
861.04	0.077
861.22	0.077
861.40	0.077
861.58	0.077
861.76	0.077
861.94	0.077
862.13	0.077
862.31	0.077
862.49	0.078
862.67	0.077
862.85	0.078
863.03	0.078
863.21	0.078
863.39	0.079
863.57	0.079
863.76	0.079
863.94	0.079
864.12	0.079
864.30	0.079
864.48	0.078
864.66	0.079
864.84	0.079
865.02	0.079
865.20	0.078
865.38	0.078
865.57	0.078
865.75	0.078
865.93	0.078
866.11	0.078
866.29	0.079
866.47	0.080
866.65	0.080
866.83	0.080
867.01	0.079
867.19	0.080
867.37	0.079
867.55	0.080
867.73	0.080
867.92	0.080
868.10	0.080
868.28	0.079
868.46	0.079
868.64	0.079
868.82	0.079
869.00	0.079
869.18	0.080
869.36	0.079
869.54	0.079
869.72	0.080
869.90	0.080
870.08	0.079
870.26	0.080
870.44	0.080
870.62	0.079
870.80	0.079
870.98	0.079
871.16	0.079
871.34	0.079
871.53	0.079
871.71	0.079
871.89	0.079
872.07	0.079
872.25	0.079
872.43	0.079
872.61	0.079
872.79	0.080
872.97	0.080
873.15	0.080
873.33	0.081
873.51	0.081
873.69	0.081
873.87	0.081
874.05	0.081
874.23	0.081
874.41	0.081
874.59	0.081
874.77	0.081
874.95	0.080
875.13	0.080
875.31	0.080
875.49	0.081
875.67	0.080
875.85	0.080
876.03	0.081
876.21	0.081
876.39	0.081
876.57	0.081
876.75	0.081
876.93	0.081
877.11	0.081
877.29	0.080
877.47	0.080
877.65	0.081
877.82	0.081
878.00	0.081
878.18	0.081
878.36	0.081
878.54	0.081
878.72	0.080
878.90	0.080
879.08	0.081
879.26	0.081
879.44	0.081
879.62	0.081
879.80	0.081
879.98	0.081
880.16	0.081
880.34	0.080
880.52	0.081
880.70	0.081
880.88	0.081
881.06	0.081
881.24	0.081
881.42	0.081
881.59	0.081
881.77	0.081
881.95	0.081
882.13	0.081
882.31	0.081
882.49	0.081
882.67	0.082
882.85	0.081
883.03	0.081
883.21	0.081
883.39	0.081
883.57	0.082
883.75	0.082
883.92	0.082
884.10	0.082
884.28	0.082
884.46	0.083
884.64	0.083
884.82	0.083
885.00	0.083
885.18	0.083
885.36	0.082
885.54	0.082
885.71	0.082
885.89	0.083
886.07	0.082
886.25	0.082
886.43	0.082
886.61	0.082
886.79	0.082
886.97	0.083
887.15	0.083
887.32	0.083
887.50	0.083
887.68	0.083
887.86	0.084
888.04	0.084
888.22	0.084
888.40	0.084
888.57	0.084
888.75	0.084
888.93	0.084
889.11	0.084
889.29	0.084
889.47	0.084
889.65	0.084
889.82	0.084
890.00	0.084
890.18	0.084
890.36	0.084
890.54	0.084
890.72	0.084
890.90	0.084
891.07	0.084
891.25	0.084
891.43	0.083
891.61	0.084
891.79	0.084
891.97	0.083
892.14	0.084
892.32	0.084
892.50	0.084
892.68	0.084
892.86	0.084
893.03	0.084
893.21	0.085
893.39	0.085
893.57	0.085
893.75	0.085
893.93	0.085
894.10	0.085
894.28	0.085
894.46	0.085
894.64	0.085
894.82	0.085
894.99	0.085
895.17	0.085
895.35	0.085
895.53	0.085
895.71	0.085
895.88	0.085
896.06	0.085
896.24	0.085
896.42	0.086
896.59	0.086
896.77	0.086
896.95	0.085
897.13	0.086
897.31	0.086
897.48	0.086
897.66	0.086
897.84	0.085
898.02	0.086
898.19	0.086
898.37	0.086
898.55	0.086
898.73	0.086
898.91	0.085
899.08	0.086
899.26	0.085
899.44	0.086
899.62	0.086
899.79	0.086
899.97	0.086
900.15	0.086
900.33	0.086
900.50	0.086
900.68	0.086
900.86	0.086
901.04	0.087
901.21	0.086
901.39	0.086
901.57	0.087
901.74	0.087
901.92	0.086
902.10	0.087
902.28	0.087
902.45	0.087
902.63	0.087
902.81	0.086
902.99	0.087
903.16	0.087
903.34	0.087
903.52	0.087
903.69	0.087
903.87	0.087
904.05	0.087
904.22	0.088
904.40	0.088
904.58	0.088
904.76	0.088
904.93	0.088
905.11	0.088
905.29	0.088
905.46	0.088
905.64	0.088
905.82	0.088
905.99	0.088
906.17	0.088
906.35	0.088
906.53	0.088
906.70	0.088
906.88	0.088
907.06	0.088
907.23	0.088
907.41	0.089
907.59	0.089
907.76	0.089
907.94	0.089
908.12	0.089
908.29	0.089
908.47	0.090
908.65	0.089
908.82	0.090
909.00	0.090
909.18	0.090
909.35	0.090
909.53	0.090
909.71	0.090
909.88	0.090
910.06	0.090
910.23	0.090
910.41	0.090
910.59	0.090
910.76	0.090
910.94	0.090
911.12	0.089
911.29	0.090
911.47	0.089
911.65	0.090
911.82	0.090
912.00	0.090
912.17	0.090
912.35	0.091
912.53	0.091
912.70	0.091
912.88	0.092
913.06	0.092
913.23	0.092
913.41	0.093
913.58	0.093
913.76	0.093
913.94	0.092
914.11	0.093
914.29	0.093
914.46	0.093
914.64	0.093
914.82	0.093
914.99	0.093
915.17	0.093
915.34	0.092
915.52	0.093
915.70	0.093
915.87	0.093
916.05	0.093
916.22	0.093
916.40	0.093
916.57	0.093
916.75	0.093
916.93	0.093
917.10	0.093
917.28	0.094
917.45	0.093
917.63	0.093
917.80	0.093
917.98	0.093
918.16	0.093
918.33	0.094
918.51	0.094
918.68	0.094
918.86	0.095
919.03	0.095
919.21	0.095
919.39	0.096
919.56	0.096
919.74	0.097
919.91	0.097
920.09	0.097
920.26	0.096
920.44	0.097
920.61	0.097
920.79	0.097
920.96	0.097
921.14	0.097
921.31	0.097
921.49	0.097
921.67	0.098
921.84	0.098
922.02	0.098
922.19	0.099
922.37	0.099
922.54	0.099
922.72	0.100
922.89	0.100
923.07	0.100
923.24	0.101
923.42	0.100
923.59	0.100
923.77	0.101
923.94	0.101
924.12	0.101
924.29	0.102
924.47	0.102
924.64	0.102
924.82	0.102
924.99	0.103
925.17	0.103
925.34	0.104
925.52	0.104
925.69	0.104
925.87	0.105
926.04	0.105
926.22	0.105
926.39	0.106
926.57	0.106
926.74	0.106
926.91	0.107
927.09	0.107
927.26	0.107
927.44	0.107
927.61	0.107
927.79	0.107
927.96	0.108
928.14	0.109
928.31	0.109
928.49	0.109
928.66	0.110
928.84	0.110
929.01	0.111
929.18	0.111
929.36	0.112
929.53	0.112
929.71	0.113
929.88	0.113
930.06	0.113
930.23	0.113
930.41	0.114
930.58	0.114
930.75	0.114
930.93	0.115
931.10	0.114
931.28	0.115
931.45	0.116
931.63	0.116
931.80	0.116
931.97	0.117
932.15	0.117
932.32	0.118
932.50	0.118
932.67	0.119
932.84	0.119
933.02	0.120
933.19	0.120
933.37	0.121
933.54	0.122
933.71	0.122
933.89	0.123
934.06	0.123
934.24	0.124
934.41	0.125
934.58	0.125
934.76	0.126
934.93	0.126
935.11	0.126
935.28	0.127
935.45	0.127
935.63	0.128
935.80	0.128
935.98	0.129
936.15	0.128
936.32	0.129
936.50	0.129
936.67	0.130
936.84	0.130
937.02	0.131
937.19	0.132
937.36	0.132
937.54	0.133
937.71	0.134
937.89	0.134
938.06	0.134
938.23	0.134
938.41	0.135
938.58	0.135
938.75	0.135
938.93	0.136
939.10	0.136
939.27	0.136
939.45	0.137
939.62	0.137
939.79	0.138
939.97	0.139
940.14	0.140
940.31	0.141
940.49	0.141
940.66	0.141
940.83	0.142
941.01	0.143
941.18	0.144
941.35	0.144
941.53	0.145
941.70	0.146
941.87	0.146
942.05	0.147
942.22	0.147
942.39	0.149
942.57	0.149
942.74	0.150
942.91	0.150
943.08	0.151
943.26	0.151
943.43	0.152
943.60	0.152
943.78	0.153
943.95	0.154
944.12	0.155
944.29	0.156
944.47	0.156
944.64	0.157
944.81	0.158
944.99	0.159
945.16	0.160
945.33	0.160
945.50	0.161
945.68	0.162
945.85	0.162
946.02	0.164
946.20	0.164
946.37	0.165
946.54	0.166
946.71	0.167
946.89	0.167
947.06	0.168
947.23	0.168
947.40	0.170
947.58	0.170
947.75	0.171
947.92	0.172
948.09	0.173
948.27	0.174
948.44	0.175
948.61	0.176
948.78	0.177
948.96	0.178
949.13	0.179
949.30	0.180
949.47	0.181
949.65	0.182
949.82	0.184
949.99	0.184
950.16	0.186
950.33	0.187
950.51	0.188
950.68	0.190
950.85	0.191
951.02	0.192
951.20	0.193
951.37	0.194
951.54	0.195
951.71	0.196
951.88	0.197
952.06	0.198
952.23	0.199
952.40	0.200
952.57	0.201
952.74	0.203
952.92	0.204
953.09	0.205
953.26	0.207
953.43	0.208
953.60	0.209
953.77	0.210
953.95	0.211
954.12	0.213
954.29	0.214
954.46	0.216
954.63	0.217
954.81	0.218
954.98	0.218
955.15	0.221
955.32	0.222
955.49	0.222
955.66	0.223
955.84	0.224
956.01	0.225
956.18	0.227
956.35	0.229
956.52	0.229
956.69	0.231
956.87	0.231
957.04	0.232
957.21	0.235
957.38	0.234
957.55	0.236
957.72	0.237
957.89	0.237
958.07	0.237
958.24	0.240
958.41	0.242
958.58	0.241
958.75	0.242
958.92	0.243
959.09	0.243
959.26	0.244
959.44	0.245
959.61	0.246
959.78	0.247
959.95	0.249
960.12	0.249
960.29	0.251
960.46	0.250
960.63	0.250
960.81	0.250
960.98	0.251
961.15	0.252
961.32	0.252
961.49	0.252
961.66	0.253
961.83	0.253
962.00	0.253
962.17	0.254
962.34	0.254
962.52	0.255
962.69	0.256
962.86	0.256
963.03	0.256
963.20	0.257
963.37	0.257
963.54	0.257
963.71	0.257
963.88	0.257
964.05	0.258
964.22	0.259
964.39	0.258
964.56	0.258
964.74	0.259
964.91	0.260
965.08	0.260
965.25	0.260
965.42	0.261
965.59	0.262
965.76	0.262
965.93	0.263
966.10	0.261
966.27	0.262
966.44	0.261
966.61	0.263
966.78	0.262
966.95	0.261
967.12	0.262
967.29	0.264
967.46	0.263
967.63	0.262
967.80	0.263
967.97	0.262
968.14	0.262
968.32	0.263
968.49	0.263
968.66	0.262
968.83	0.263
969.00	0.263
969.17	0.263
969.34	0.265
969.51	0.266
969.68	0.264
969.85	0.265
970.02	0.265
970.19	0.264
970.36	0.265
970.53	0.265
970.70	0.263
970.87	0.264
971.04	0.262
971.21	0.263
971.38	0.263
971.55	0.264
971.72	0.264
971.89	0.265
972.06	0.264
972.23	0.264
972.40	0.264
972.57	0.263
972.74	0.263
972.91	0.264
973.07	0.264
973.24	0.263
973.41	0.263
973.58	0.262
973.75	0.275
973.92	0.263
974.09	0.263
974.26	0.263
974.43	0.262
974.60	0.264
974.77	0.264
974.94	0.263
975.11	0.264
975.28	0.265
975.45	0.262
975.62	0.263
975.79	0.264
975.96	0.263
976.13	0.262
976.30	0.264
976.47	0.262
976.64	0.262
976.80	0.263
976.97	0.263
977.14	0.263
977.31	0.263
977.48	0.264
977.65	0.263
977.82	0.262
977.99	0.264
978.16	0.263
978.33	0.263
978.50	0.262
978.67	0.262
978.83	0.262
979.00	0.262
979.17	0.262
979.34	0.261
979.51	0.260
979.68	0.261
979.85	0.260
980.02	0.260
980.19	0.258
980.36	0.260
980.52	0.261
980.69	0.259
980.86	0.259
981.03	0.259
981.20	0.258
981.37	0.259
981.54	0.259
981.71	0.258
981.88	0.259
982.04	0.258
982.21	0.258
982.38	0.259
982.55	0.258
982.72	0.257
982.89	0.258
983.06	0.256
983.22	0.257
983.39	0.257
983.56	0.257
983.73	0.256
983.90	0.255
984.07	0.257
984.24	0.255
984.40	0.255
984.57	0.254
984.74	0.256
984.91	0.257
985.08	0.255
985.25	0.253
985.41	0.254
985.58	0.254
985.75	0.255
985.92	0.254
986.09	0.253
986.26	0.253
986.42	0.252
986.59	0.250
986.76	0.252
986.93	0.252
987.10	0.252
987.27	0.249
987.43	0.248
987.60	0.250
987.77	0.249
987.94	0.248
988.11	0.249
988.27	0.249
988.44	0.248
988.61	0.246
988.78	0.245
988.95	0.246
989.11	0.248
989.28	0.246
989.45	0.245
989.62	0.244
989.79	0.245
989.95	0.244
990.12	0.245
990.29	0.245
990.46	0.244
990.62	0.242
990.79	0.242
990.96	0.242
991.13	0.243
991.30	0.241
991.46	0.241
991.63	0.239
991.80	0.238
991.97	0.238
992.13	0.239
992.30	0.240
992.47	0.238
992.64	0.238
992.80	0.238
992.97	0.238
993.14	0.236
993.31	0.233
993.47	0.236
993.64	0.235
993.81	0.234
993.98	0.235
994.14	0.234
994.31	0.233
994.48	0.234
994.64	0.233
994.81	0.232
994.98	0.232
995.15	0.231
995.31	0.230
995.48	0.230
995.65	0.232
995.82	0.229
995.98	0.228
996.15	0.229
996.32	0.231
996.48	0.229
996.65	0.229
996.82	0.226
996.99	0.227
997.15	0.226
997.32	0.227
997.49	0.225
997.65	0.226
997.82	0.225
997.99	0.223
998.15	0.224
998.32	0.225
998.49	0.224
998.65	0.225
998.82	0.224
998.99	0.222
999.15	0.223
999.32	0.222
999.49	0.222
999.65	0.222
999.82	0.220
999.99	0.220
1000.15	0.220
1000.32	0.221
1000.49	0.220
1000.65	0.218
1000.82	0.218
1000.99	0.218
1001.15	0.218
1001.32	0.217
1001.49	0.217
1001.65	0.217
1001.82	0.220
1001.99	0.216
1002.15	0.215
1002.32	0.215
1002.49	0.216
1002.65	0.214
1002.82	0.214
1002.99	0.213
1003.15	0.215
1003.32	0.214
1003.48	0.214
1003.65	0.213
1003.82	0.211
1003.98	0.209
1004.15	0.208
1004.32	0.209
1004.48	0.209
1004.65	0.209
1004.81	0.207
1004.98	0.205
1005.15	0.206
1005.31	0.206
1005.48	0.204
1005.64	0.205
1005.81	0.207
1005.98	0.203
1006.14	0.203
1006.31	0.203
1006.47	0.202
1006.64	0.200
1006.81	0.200
1006.97	0.200
1007.14	0.200
1007.30	0.201
1007.47	0.200
1007.63	0.199
1007.80	0.198
1007.97	0.197
1008.13	0.198
1008.30	0.199
1008.46	0.199
1008.63	0.198
1008.79	0.198
1008.96	0.198
1009.13	0.199
1009.29	0.197
1009.46	0.196
1009.62	0.196
1009.79	0.195
1009.95	0.194
1010.12	0.194
1010.28	0.194
1010.45	0.194
1010.62	0.194
1010.78	0.192
1010.95	0.190
1011.11	0.191
1011.28	0.190
1011.44	0.193
1011.61	0.191
1011.77	0.190
1011.94	0.190
1012.10	0.190
1012.27	0.189
1012.43	0.189
1012.60	0.188
1012.76	0.189
1012.93	0.188
1013.10	0.186
1013.26	0.184
1013.43	0.185
1013.59	0.192
1013.76	0.185
1013.92	0.183
1014.09	0.182
1014.25	0.184
1014.42	0.184
1014.58	0.183
1014.75	0.186
1014.91	0.185
1015.08	0.186
1015.24	0.183
1015.41	0.184
1015.57	0.184
1015.73	0.183
1015.90	0.181
1016.06	0.183
1016.23	0.182
1016.39	0.182
1016.56	0.182
1016.72	0.181
1016.89	0.181
1017.05	0.183
1017.22	0.179
1017.38	0.180
1017.55	0.178
1017.71	0.179
1017.88	0.178
1018.04	0.179
1018.21	0.176
1018.37	0.175
1018.53	0.175
1018.70	0.172
1018.86	0.172
1019.03	0.174
1019.19	0.172
1019.36	0.171
1019.52	0.173
1019.69	0.173
1019.85	0.172
1020.01	0.173
1020.18	0.171
1020.34	0.171
1020.51	0.171
1020.67	0.172
1020.84	0.170
1021.00	0.171
1021.16	0.170
1021.33	0.170
1021.49	0.170
1021.66	0.169
1021.82	0.167
1021.98	0.167
1022.15	0.168
1022.31	0.168
1022.48	0.166
1022.64	0.169
1022.80	0.167
1022.97	0.165
1023.13	0.165
1023.30	0.165
1023.46	0.166
1023.62	0.164
1023.79	0.165
1023.95	0.166
1024.12	0.165
1024.28	0.164
1024.44	0.164
1024.61	0.162
1024.77	0.162
1024.93	0.160
1025.10	0.161
1025.26	0.160
1025.43	0.160
1025.59	0.156
1025.75	0.160
1025.92	0.158
1026.08	0.158
1026.24	0.157
1026.41	0.159
1026.57	0.157
1026.73	0.154
1026.90	0.156
1027.06	0.154
1027.23	0.156
1027.39	0.155
1027.55	0.155
1027.72	0.154
1027.88	0.154
1028.04	0.154
1028.21	0.154
1028.37	0.149
1028.53	0.154
1028.70	0.153
1028.86	0.151
1029.02	0.151
1029.19	0.152
1029.35	0.150
1029.51	0.150
1029.67	0.148
1029.84	0.150
1030.00	0.145
1030.16	0.145
1030.33	0.149
1030.49	0.145
1030.65	0.143
1030.82	0.159
1030.98	0.146
1031.14	0.147
1031.31	0.147
1031.47	0.145
1031.63	0.148
1031.79	0.148
1031.96	0.148
1032.12	0.148
1032.28	0.147
1032.45	0.151
1032.61	0.148
1032.77	0.148
1032.93	0.145
1033.10	0.146
1033.26	0.148
1033.42	0.145
1033.58	0.147
1033.75	0.148
1033.91	0.146
1034.07	0.148
1034.24	0.146
1034.40	0.143
1034.56	0.143
1034.72	0.143
1034.89	0.143
1035.05	0.142
1035.21	0.142
1035.37	0.140
1035.54	0.143
1035.70	0.141
1035.86	0.141
1036.02	0.143
1036.19	0.141
1036.35	0.138
1036.51	0.143
1036.67	0.140
1036.83	0.140
1037.00	0.139
1037.16	0.139
1037.32	0.140
1037.48	0.138
1037.65	0.143
1037.81	0.138
1037.97	0.138
1038.13	0.139
1038.29	0.137
1038.46	0.134
1038.62	0.138
1038.78	0.135
1038.94	0.132
1039.10	0.137
1039.27	0.133
1039.43	0.135
1039.59	0.135
1039.75	0.134
1039.91	0.134
1040.08	0.133
1040.24	0.137
1040.40	0.138
1040.56	0.137
1040.72	0.131
1040.89	0.133
1041.05	0.135
1041.21	0.133
1041.37	0.131
1041.53	0.138
1041.69	0.134
1041.86	0.134
1042.02	0.130
1042.18	0.129
1042.34	0.131
1042.50	0.135
1042.66	0.132
1042.83	0.131
1042.99	0.134
1043.15	0.128
1043.31	0.128
1043.47	0.133
1043.63	0.129
1043.79	0.128
1043.96	0.130
1044.12	0.133
1044.28	0.130
1044.44	0.132
1044.60	0.125
1044.76	0.123
1044.92	0.127
1045.09	0.129
1045.25	0.125
1045.41	0.126
1045.57	0.122
1045.73	0.123
1045.89	0.124
1046.05	0.126
1046.21	0.129
1046.38	0.123
1046.54	0.142
1046.70	0.126
1046.86	0.130
>>>>>End Processed Spectral Data<<<<<
