SpectraSuite Data File
++++++++++++++++++++++++++++++++++++
Date: Mon May 20 12:11:17 CDT 2013
User: Students
Dark Spectrum Present: Yes
Reference Spectrum Present: Yes
Number of Sampled Component Spectra: 1
Spectrometers: USB4H00887
Integration Time (usec): 60000 (USB4H00887)
Spectra Averaged: 5 (USB4H00887)
Boxcar Smoothing: 5 (USB4H00887)
Correct for Electrical Dark: No (USB4H00887)
Strobe/Lamp Enabled: No (USB4H00887)
Correct for Detector Non-linearity: No (USB4H00887)
Correct for Stray Light: No (USB4H00887)
Number of Pixels in Processed Spectrum: 3648
>>>>>Begin Processed Spectral Data<<<<<
345.83	-0.028
346.05	-0.028
346.26	-0.028
346.48	-0.000
346.70	0.186
346.92	0.151
347.14	0.101
347.35	0.129
347.57	-0.000
347.79	-0.351
348.01	-0.229
348.23	-0.329
348.44	-0.000
348.66	0.292
348.88	-0.369
349.10	-0.064
349.32	0.030
349.53	0.024
349.75	0.112
349.97	0.080
350.19	0.103
350.41	0.081
350.62	-0.059
350.84	-0.003
351.06	0.012
351.28	0.005
351.50	-0.176
351.71	-0.063
351.93	-0.066
352.15	-0.008
352.37	-0.033
352.58	0.003
352.80	0.021
353.02	0.054
353.24	0.077
353.46	0.172
353.67	-0.021
353.89	0.030
354.11	0.029
354.33	0.040
354.54	0.066
354.76	0.152
354.98	0.229
355.20	0.183
355.41	0.081
355.63	0.165
355.85	0.096
356.07	-0.000
356.28	0.086
356.50	0.145
356.72	0.044
356.94	0.101
357.15	0.139
357.37	-0.000
357.59	0.065
357.81	0.031
358.02	0.070
358.24	0.048
358.46	0.114
358.68	0.128
358.89	0.077
359.11	-0.000
359.33	0.075
359.55	-0.458
359.76	0.106
359.98	0.131
360.20	0.131
360.42	0.113
360.63	0.143
360.85	0.110
361.07	0.581
361.29	0.097
361.50	0.342
361.72	0.141
361.94	0.713
362.15	0.222
362.37	0.114
362.59	0.118
362.81	0.188
363.02	0.338
363.24	0.584
363.46	0.309
363.68	0.382
363.89	0.232
364.11	0.311
364.33	0.389
364.54	0.221
364.76	0.259
364.98	0.298
365.20	0.335
365.41	0.184
365.63	0.204
365.85	0.115
366.06	0.290
366.28	0.268
366.50	0.153
366.71	0.079
366.93	0.106
367.15	0.107
367.37	0.081
367.58	0.107
367.80	0.123
368.02	0.331
368.23	0.123
368.45	0.128
368.67	0.109
368.88	0.113
369.10	-0.000
369.32	0.104
369.53	0.060
369.75	0.118
369.97	0.285
370.19	0.168
370.40	0.073
370.62	0.246
370.84	0.108
371.05	0.711
371.27	0.167
371.49	0.193
371.70	0.196
371.92	0.357
372.14	0.129
372.35	0.132
372.57	0.150
372.79	0.374
373.00	0.087
373.22	0.127
373.44	0.117
373.65	0.095
373.87	0.123
374.09	0.448
374.30	0.098
374.52	0.123
374.74	0.094
374.95	0.371
375.17	0.108
375.39	-0.000
375.60	0.111
375.82	0.173
376.04	0.068
376.25	0.100
376.47	0.075
376.68	0.177
376.90	0.094
377.12	0.191
377.33	0.119
377.55	0.245
377.77	0.122
377.98	0.190
378.20	0.126
378.42	0.158
378.63	0.168
378.85	-0.000
379.07	0.115
379.28	0.407
379.50	0.254
379.71	0.138
379.93	0.106
380.15	0.152
380.36	0.224
380.58	0.158
380.80	0.378
381.01	0.143
381.23	0.119
381.44	0.140
381.66	0.184
381.88	0.245
382.09	-0.097
382.31	0.151
382.53	0.148
382.74	0.899
382.96	0.208
383.17	0.171
383.39	0.220
383.61	0.267
383.82	0.181
384.04	0.186
384.25	0.204
384.47	0.192
384.69	0.189
384.90	0.186
385.12	0.403
385.33	0.265
385.55	0.214
385.77	0.350
385.98	0.183
386.20	0.241
386.41	0.208
386.63	0.231
386.85	0.193
387.06	0.251
387.28	0.375
387.49	0.236
387.71	0.161
387.93	0.148
388.14	0.394
388.36	0.187
388.57	0.176
388.79	0.198
389.01	1.551
389.22	0.272
389.44	0.229
389.65	0.186
389.87	0.187
390.08	0.218
390.30	0.162
390.52	0.305
390.73	0.286
390.95	0.195
391.16	0.188
391.38	-0.000
391.59	0.222
391.81	0.191
392.03	0.187
392.24	0.211
392.46	0.192
392.67	0.177
392.89	0.251
393.10	0.416
393.32	0.291
393.53	0.335
393.75	0.207
393.97	0.228
394.18	0.320
394.40	0.275
394.61	0.301
394.83	0.258
395.04	0.311
395.26	0.204
395.47	0.309
395.69	0.257
395.91	0.293
396.12	0.355
396.34	0.357
396.55	0.229
396.77	0.355
396.98	-0.000
397.20	0.418
397.41	0.445
397.63	0.326
397.84	0.289
398.06	0.278
398.27	0.275
398.49	0.321
398.71	0.243
398.92	0.298
399.14	0.391
399.35	0.477
399.57	0.459
399.78	0.323
400.00	0.311
400.21	0.381
400.43	0.298
400.64	0.305
400.86	0.689
401.07	0.376
401.29	0.315
401.50	0.328
401.72	0.469
401.93	0.310
402.15	0.375
402.36	0.341
402.58	0.277
402.79	0.303
403.01	0.508
403.22	0.379
403.44	0.247
403.65	0.385
403.87	0.459
404.08	0.375
404.30	0.587
404.51	0.322
404.73	0.379
404.94	0.333
405.16	0.344
405.37	0.267
405.59	0.499
405.80	0.321
406.02	0.390
406.23	0.367
406.45	0.402
406.66	0.420
406.88	0.280
407.09	0.422
407.31	0.339
407.52	0.412
407.74	0.350
407.95	0.423
408.17	0.398
408.38	0.421
408.60	0.278
408.81	0.463
409.03	0.365
409.24	0.368
409.45	0.430
409.67	0.409
409.88	0.364
410.10	0.451
410.31	0.369
410.53	0.348
410.74	0.505
410.96	0.508
411.17	0.529
411.39	0.392
411.60	0.362
411.82	0.421
412.03	0.417
412.24	0.416
412.46	0.627
412.67	0.504
412.89	0.482
413.10	0.477
413.32	0.419
413.53	0.492
413.75	0.512
413.96	0.388
414.17	0.517
414.39	0.525
414.60	0.432
414.82	0.585
415.03	0.456
415.25	0.511
415.46	0.346
415.68	0.503
415.89	1.006
416.10	0.764
416.32	0.394
416.53	0.472
416.75	0.439
416.96	0.517
417.18	0.436
417.39	0.414
417.60	0.433
417.82	0.629
418.03	0.547
418.25	0.447
418.46	0.474
418.67	0.428
418.89	0.470
419.10	0.496
419.32	0.665
419.53	0.603
419.75	0.502
419.96	0.437
420.17	0.537
420.39	0.505
420.60	0.525
420.82	0.627
421.03	0.505
421.24	0.418
421.46	0.451
421.67	0.491
421.89	0.426
422.10	0.462
422.31	0.450
422.53	0.633
422.74	0.467
422.96	0.379
423.17	0.426
423.38	0.527
423.60	0.445
423.81	0.546
424.03	0.480
424.24	0.532
424.45	0.529
424.67	0.532
424.88	0.475
425.09	0.521
425.31	0.483
425.52	0.505
425.74	0.562
425.95	0.609
426.16	0.486
426.38	0.562
426.59	0.517
426.80	0.587
427.02	0.610
427.23	0.478
427.45	0.614
427.66	0.602
427.87	0.467
428.09	0.494
428.30	0.552
428.51	0.540
428.73	0.602
428.94	0.537
429.15	0.533
429.37	0.516
429.58	0.545
429.79	0.505
430.01	0.596
430.22	0.600
430.44	0.621
430.65	0.559
430.86	0.601
431.08	0.579
431.29	0.520
431.50	0.612
431.72	0.806
431.93	0.659
432.14	0.494
432.36	0.553
432.57	0.562
432.78	0.576
433.00	0.524
433.21	0.517
433.42	0.642
433.64	0.560
433.85	0.625
434.06	0.510
434.28	0.540
434.49	0.563
434.70	0.571
434.92	0.586
435.13	0.645
435.34	0.658
435.56	0.618
435.77	0.617
435.98	0.812
436.20	0.684
436.41	0.592
436.62	0.576
436.83	0.652
437.05	0.735
437.26	0.640
437.47	0.560
437.69	0.609
437.90	0.560
438.11	0.547
438.33	0.595
438.54	0.606
438.75	0.767
438.97	0.760
439.18	0.581
439.39	0.611
439.60	0.653
439.82	0.606
440.03	0.561
440.24	0.808
440.46	0.612
440.67	0.586
440.88	0.628
441.10	0.589
441.31	0.582
441.52	0.625
441.73	0.703
441.95	0.629
442.16	0.594
442.37	0.923
442.58	0.588
442.80	0.577
443.01	0.755
443.22	0.682
443.44	0.582
443.65	0.692
443.86	0.687
444.07	0.728
444.29	0.638
444.50	0.801
444.71	0.609
444.92	0.569
445.14	0.712
445.35	0.757
445.56	0.601
445.78	0.695
445.99	0.688
446.20	0.598
446.41	0.672
446.63	0.666
446.84	0.631
447.05	0.637
447.26	0.764
447.48	0.655
447.69	0.618
447.90	0.713
448.11	0.636
448.33	0.661
448.54	0.682
448.75	0.712
448.96	0.716
449.18	0.764
449.39	0.685
449.60	0.665
449.81	0.800
450.03	0.692
450.24	0.745
450.45	0.709
450.66	0.687
450.87	0.718
451.09	0.676
451.30	0.656
451.51	0.724
451.72	0.731
451.94	0.749
452.15	0.812
452.36	0.682
452.57	0.694
452.78	0.693
453.00	0.738
453.21	0.694
453.42	0.660
453.63	0.759
453.85	0.721
454.06	0.715
454.27	0.838
454.48	0.749
454.69	0.676
454.91	0.744
455.12	0.652
455.33	0.723
455.54	0.739
455.75	0.715
455.97	0.740
456.18	0.732
456.39	0.736
456.60	0.761
456.81	0.705
457.03	0.719
457.24	0.725
457.45	0.810
457.66	0.757
457.87	0.717
458.09	0.736
458.30	0.652
458.51	0.771
458.72	0.796
458.93	0.810
459.15	0.710
459.36	0.773
459.57	0.797
459.78	0.833
459.99	0.741
460.20	0.703
460.42	0.784
460.63	0.741
460.84	0.723
461.05	0.743
461.26	0.793
461.47	0.719
461.69	0.759
461.90	0.786
462.11	0.746
462.32	0.805
462.53	0.753
462.74	0.841
462.96	0.740
463.17	0.729
463.38	0.771
463.59	0.877
463.80	0.736
464.01	0.760
464.23	0.844
464.44	0.810
464.65	0.812
464.86	0.831
465.07	0.839
465.28	0.798
465.49	0.822
465.71	0.773
465.92	0.807
466.13	0.855
466.34	0.797
466.55	0.847
466.76	0.812
466.97	0.833
467.19	0.822
467.40	0.856
467.61	0.860
467.82	0.786
468.03	0.769
468.24	0.840
468.45	0.866
468.66	0.848
468.88	0.857
469.09	0.856
469.30	0.903
469.51	0.832
469.72	0.868
469.93	0.835
470.14	0.810
470.35	0.895
470.57	0.846
470.78	0.794
470.99	0.911
471.20	0.858
471.41	0.822
471.62	0.872
471.83	0.847
472.04	0.879
472.25	0.923
472.47	0.846
472.68	0.852
472.89	0.856
473.10	0.891
473.31	0.844
473.52	0.900
473.73	0.921
473.94	0.848
474.15	0.870
474.36	0.868
474.57	0.894
474.79	0.870
475.00	0.870
475.21	0.857
475.42	0.944
475.63	0.857
475.84	0.886
476.05	0.891
476.26	0.861
476.47	0.893
476.68	0.936
476.89	0.868
477.10	0.913
477.32	0.902
477.53	0.954
477.74	0.878
477.95	0.913
478.16	0.865
478.37	0.911
478.58	0.915
478.79	0.929
479.00	0.929
479.21	0.887
479.42	0.928
479.63	0.934
479.84	0.898
480.05	0.899
480.26	0.926
480.47	0.941
480.69	0.939
480.90	0.909
481.11	0.905
481.32	0.964
481.53	0.910
481.74	0.957
481.95	0.922
482.16	0.935
482.37	0.946
482.58	0.917
482.79	0.936
483.00	0.960
483.21	0.911
483.42	0.886
483.63	0.958
483.84	0.981
484.05	0.976
484.26	0.951
484.47	0.953
484.68	0.911
484.89	0.920
485.10	0.965
485.31	0.947
485.52	0.948
485.73	0.951
485.94	0.990
486.15	0.944
486.37	0.957
486.58	0.920
486.79	0.932
487.00	0.982
487.21	0.972
487.42	0.968
487.63	0.975
487.84	0.992
488.05	0.985
488.26	0.945
488.47	0.949
488.68	0.975
488.89	0.956
489.10	0.951
489.31	0.960
489.52	0.988
489.73	0.955
489.94	0.988
490.15	0.947
490.36	0.985
490.57	0.944
490.78	0.929
490.99	0.967
491.20	1.039
491.41	0.996
491.62	0.943
491.83	0.973
492.04	0.971
492.25	0.979
492.45	0.983
492.66	1.007
492.87	0.991
493.08	0.978
493.29	0.961
493.50	0.951
493.71	0.960
493.92	0.957
494.13	0.971
494.34	0.989
494.55	0.993
494.76	1.018
494.97	1.010
495.18	0.979
495.39	0.994
495.60	0.949
495.81	0.951
496.02	0.970
496.23	0.964
496.44	0.993
496.65	0.982
496.86	0.989
497.07	1.012
497.28	1.004
497.49	0.958
497.70	0.963
497.91	0.982
498.12	0.966
498.32	1.005
498.53	0.988
498.74	0.979
498.95	1.004
499.16	0.963
499.37	0.966
499.58	0.979
499.79	1.007
500.00	0.999
500.21	1.026
500.42	0.975
500.63	0.976
500.84	0.997
501.05	0.976
501.26	1.003
501.46	1.039
501.67	1.002
501.88	1.002
502.09	0.981
502.30	0.989
502.51	1.037
502.72	0.994
502.93	1.012
503.14	1.033
503.35	1.003
503.56	0.997
503.77	1.026
503.97	1.005
504.18	1.005
504.39	1.039
504.60	1.011
504.81	1.036
505.02	1.026
505.23	1.023
505.44	1.005
505.65	1.014
505.86	0.998
506.07	1.060
506.27	1.023
506.48	1.029
506.69	1.010
506.90	1.028
507.11	1.025
507.32	1.002
507.53	1.009
507.74	1.004
507.95	1.015
508.15	1.017
508.36	1.020
508.57	1.031
508.78	1.015
508.99	1.014
509.20	0.993
509.41	1.016
509.62	1.003
509.82	1.002
510.03	1.011
510.24	1.013
510.45	1.038
510.66	1.031
510.87	1.026
511.08	0.989
511.29	1.030
511.49	1.008
511.70	1.053
511.91	0.991
512.12	0.988
512.33	1.021
512.54	1.036
512.75	1.017
512.95	1.041
513.16	1.034
513.37	1.010
513.58	1.045
513.79	1.009
514.00	1.016
514.20	1.032
514.41	1.019
514.62	0.985
514.83	1.023
515.04	1.015
515.25	0.997
515.46	1.008
515.66	1.011
515.87	1.023
516.08	0.993
516.29	1.015
516.50	0.997
516.71	0.992
516.91	1.003
517.12	1.021
517.33	1.006
517.54	0.993
517.75	0.993
517.95	1.005
518.16	1.016
518.37	0.985
518.58	0.990
518.79	0.967
519.00	0.996
519.20	1.004
519.41	0.978
519.62	0.995
519.83	1.004
520.04	0.973
520.24	0.970
520.45	0.977
520.66	0.999
520.87	0.963
521.08	0.960
521.28	0.964
521.49	0.979
521.70	0.951
521.91	0.965
522.12	0.948
522.32	0.968
522.53	0.951
522.74	0.941
522.95	0.950
523.16	0.954
523.36	0.962
523.57	0.944
523.78	0.939
523.99	0.945
524.20	0.940
524.40	0.950
524.61	0.957
524.82	0.933
525.03	0.940
525.23	0.940
525.44	0.925
525.65	0.925
525.86	0.946
526.06	0.919
526.27	0.919
526.48	0.927
526.69	0.912
526.90	0.913
527.10	0.948
527.31	0.903
527.52	0.898
527.73	0.889
527.93	0.899
528.14	0.904
528.35	0.895
528.56	0.896
528.76	0.886
528.97	0.875
529.18	0.868
529.39	0.867
529.59	0.870
529.80	0.897
530.01	0.872
530.22	0.869
530.42	0.840
530.63	0.855
530.84	0.835
531.05	0.849
531.25	0.853
531.46	0.845
531.67	0.825
531.88	0.841
532.08	0.835
532.29	0.831
532.50	0.824
532.70	0.818
532.91	0.808
533.12	0.810
533.33	0.831
533.53	0.803
533.74	0.802
533.95	0.808
534.15	0.797
534.36	0.799
534.57	0.783
534.78	0.785
534.98	0.794
535.19	0.767
535.40	0.767
535.60	0.786
535.81	0.767
536.02	0.769
536.23	0.762
536.43	0.763
536.64	0.749
536.85	0.757
537.05	0.765
537.26	0.743
537.47	0.746
537.67	0.737
537.88	0.731
538.09	0.738
538.30	0.729
538.50	0.719
538.71	0.731
538.92	0.719
539.12	0.714
539.33	0.708
539.54	0.709
539.74	0.713
539.95	0.704
540.16	0.701
540.36	0.692
540.57	0.691
540.78	0.684
540.98	0.683
541.19	0.681
541.40	0.670
541.60	0.681
541.81	0.676
542.02	0.676
542.22	0.667
542.43	0.662
542.64	0.658
542.84	0.659
543.05	0.651
543.26	0.650
543.46	0.651
543.67	0.649
543.88	0.644
544.08	0.634
544.29	0.628
544.50	0.628
544.70	0.628
544.91	0.620
545.12	0.621
545.32	0.617
545.53	0.621
545.74	0.610
545.94	0.607
546.15	0.603
546.35	0.601
546.56	0.598
546.77	0.595
546.97	0.593
547.18	0.585
547.39	0.585
547.59	0.583
547.80	0.579
548.01	0.584
548.21	0.580
548.42	0.573
548.62	0.572
548.83	0.570
549.04	0.566
549.24	0.560
549.45	0.558
549.65	0.555
549.86	0.551
550.07	0.550
550.27	0.548
550.48	0.555
550.69	0.541
550.89	0.541
551.10	0.537
551.30	0.534
551.51	0.534
551.72	0.524
551.92	0.525
552.13	0.525
552.33	0.526
552.54	0.521
552.75	0.514
552.95	0.515
553.16	0.510
553.36	0.508
553.57	0.507
553.78	0.505
553.98	0.506
554.19	0.497
554.39	0.494
554.60	0.496
554.80	0.495
555.01	0.488
555.22	0.489
555.42	0.486
555.63	0.480
555.83	0.484
556.04	0.477
556.25	0.479
556.45	0.471
556.66	0.469
556.86	0.472
557.07	0.470
557.27	0.468
557.48	0.463
557.68	0.461
557.89	0.462
558.10	0.458
558.30	0.455
558.51	0.453
558.71	0.451
558.92	0.446
559.12	0.448
559.33	0.452
559.54	0.446
559.74	0.442
559.95	0.439
560.15	0.439
560.36	0.437
560.56	0.433
560.77	0.433
560.97	0.433
561.18	0.428
561.38	0.427
561.59	0.429
561.79	0.425
562.00	0.423
562.21	0.420
562.41	0.418
562.62	0.417
562.82	0.414
563.03	0.411
563.23	0.410
563.44	0.410
563.64	0.407
563.85	0.409
564.05	0.402
564.26	0.402
564.46	0.401
564.67	0.402
564.87	0.398
565.08	0.395
565.28	0.395
565.49	0.395
565.69	0.393
565.90	0.390
566.10	0.392
566.31	0.386
566.51	0.388
566.72	0.389
566.92	0.383
567.13	0.382
567.33	0.381
567.54	0.380
567.74	0.379
567.95	0.375
568.15	0.376
568.36	0.375
568.56	0.373
568.77	0.368
568.97	0.367
569.18	0.366
569.38	0.365
569.59	0.365
569.79	0.362
570.00	0.359
570.20	0.358
570.41	0.357
570.61	0.356
570.82	0.357
571.02	0.353
571.23	0.355
571.43	0.350
571.64	0.349
571.84	0.349
572.05	0.348
572.25	0.347
572.45	0.345
572.66	0.342
572.86	0.341
573.07	0.339
573.27	0.339
573.48	0.339
573.68	0.335
573.89	0.335
574.09	0.335
574.30	0.334
574.50	0.332
574.70	0.333
574.91	0.330
575.11	0.331
575.32	0.330
575.52	0.326
575.73	0.326
575.93	0.326
576.14	0.324
576.34	0.322
576.54	0.321
576.75	0.319
576.95	0.319
577.16	0.317
577.36	0.315
577.57	0.315
577.77	0.313
577.97	0.311
578.18	0.313
578.38	0.309
578.59	0.308
578.79	0.306
579.00	0.307
579.20	0.305
579.40	0.304
579.61	0.304
579.81	0.302
580.02	0.300
580.22	0.299
580.42	0.298
580.63	0.298
580.83	0.297
581.04	0.295
581.24	0.294
581.45	0.293
581.65	0.293
581.85	0.292
582.06	0.290
582.26	0.290
582.47	0.289
582.67	0.288
582.87	0.287
583.08	0.285
583.28	0.285
583.48	0.284
583.69	0.281
583.89	0.281
584.10	0.282
584.30	0.280
584.50	0.278
584.71	0.278
584.91	0.277
585.12	0.276
585.32	0.277
585.52	0.274
585.73	0.273
585.93	0.272
586.13	0.272
586.34	0.271
586.54	0.270
586.75	0.268
586.95	0.267
587.15	0.267
587.36	0.266
587.56	0.265
587.76	0.263
587.97	0.263
588.17	0.262
588.37	0.261
588.58	0.261
588.78	0.258
588.98	0.259
589.19	0.259
589.39	0.256
589.60	0.259
589.80	0.256
590.00	0.255
590.21	0.255
590.41	0.253
590.61	0.253
590.82	0.253
591.02	0.253
591.22	0.251
591.43	0.252
591.63	0.250
591.83	0.249
592.04	0.248
592.24	0.248
592.44	0.246
592.65	0.245
592.85	0.245
593.05	0.245
593.26	0.243
593.46	0.242
593.66	0.242
593.86	0.241
594.07	0.239
594.27	0.239
594.47	0.238
594.68	0.237
594.88	0.238
595.08	0.237
595.29	0.237
595.49	0.235
595.69	0.235
595.90	0.235
596.10	0.235
596.30	0.234
596.50	0.233
596.71	0.233
596.91	0.232
597.11	0.231
597.32	0.231
597.52	0.230
597.72	0.229
597.93	0.229
598.13	0.227
598.33	0.227
598.53	0.226
598.74	0.226
598.94	0.225
599.14	0.225
599.35	0.225
599.55	0.225
599.75	0.224
599.95	0.223
600.16	0.224
600.36	0.222
600.56	0.222
600.76	0.221
600.97	0.220
601.17	0.219
601.37	0.219
601.58	0.218
601.78	0.217
601.98	0.216
602.18	0.215
602.39	0.215
602.59	0.215
602.79	0.213
602.99	0.213
603.20	0.212
603.40	0.212
603.60	0.212
603.80	0.212
604.01	0.212
604.21	0.211
604.41	0.211
604.61	0.210
604.82	0.209
605.02	0.209
605.22	0.208
605.42	0.208
605.62	0.208
605.83	0.207
606.03	0.206
606.23	0.206
606.43	0.206
606.64	0.206
606.84	0.206
607.04	0.205
607.24	0.206
607.45	0.205
607.65	0.204
607.85	0.205
608.05	0.203
608.25	0.203
608.46	0.202
608.66	0.202
608.86	0.201
609.06	0.200
609.26	0.199
609.47	0.200
609.67	0.199
609.87	0.200
610.07	0.199
610.28	0.198
610.48	0.198
610.68	0.198
610.88	0.196
611.08	0.197
611.29	0.195
611.49	0.195
611.69	0.195
611.89	0.193
612.09	0.193
612.29	0.192
612.50	0.193
612.70	0.193
612.90	0.192
613.10	0.191
613.30	0.191
613.51	0.191
613.71	0.191
613.91	0.195
614.11	0.190
614.31	0.190
614.51	0.189
614.72	0.188
614.92	0.188
615.12	0.187
615.32	0.188
615.52	0.187
615.72	0.187
615.93	0.187
616.13	0.186
616.33	0.186
616.53	0.186
616.73	0.186
616.93	0.185
617.14	0.185
617.34	0.185
617.54	0.185
617.74	0.185
617.94	0.184
618.14	0.183
618.34	0.183
618.55	0.182
618.75	0.183
618.95	0.183
619.15	0.183
619.35	0.182
619.55	0.181
619.75	0.182
619.96	0.181
620.16	0.181
620.36	0.181
620.56	0.180
620.76	0.179
620.96	0.179
621.16	0.178
621.36	0.178
621.57	0.178
621.77	0.178
621.97	0.177
622.17	0.177
622.37	0.177
622.57	0.177
622.77	0.176
622.97	0.176
623.18	0.176
623.38	0.176
623.58	0.176
623.78	0.175
623.98	0.174
624.18	0.174
624.38	0.173
624.58	0.173
624.78	0.173
624.98	0.173
625.19	0.172
625.39	0.173
625.59	0.172
625.79	0.172
625.99	0.172
626.19	0.172
626.39	0.172
626.59	0.172
626.79	0.172
626.99	0.172
627.19	0.172
627.40	0.172
627.60	0.171
627.80	0.171
628.00	0.171
628.20	0.170
628.40	0.170
628.60	0.170
628.80	0.169
629.00	0.169
629.20	0.168
629.40	0.169
629.60	0.168
629.80	0.168
630.00	0.168
630.20	0.167
630.41	0.167
630.61	0.167
630.81	0.167
631.01	0.167
631.21	0.166
631.41	0.165
631.61	0.166
631.81	0.165
632.01	0.164
632.21	0.165
632.41	0.163
632.61	0.163
632.81	0.163
633.01	0.164
633.21	0.163
633.41	0.164
633.61	0.163
633.81	0.162
634.01	0.162
634.21	0.162
634.41	0.161
634.61	0.162
634.81	0.161
635.01	0.161
635.22	0.161
635.42	0.161
635.62	0.161
635.82	0.161
636.02	0.161
636.22	0.160
636.42	0.160
636.62	0.160
636.82	0.160
637.02	0.159
637.22	0.159
637.42	0.158
637.62	0.157
637.82	0.157
638.02	0.157
638.22	0.156
638.42	0.156
638.62	0.156
638.82	0.156
639.02	0.156
639.22	0.156
639.42	0.155
639.62	0.155
639.82	0.154
640.02	0.155
640.22	0.155
640.42	0.155
640.62	0.155
640.82	0.154
641.02	0.154
641.22	0.154
641.42	0.153
641.61	0.154
641.81	0.154
642.01	0.155
642.21	0.154
642.41	0.154
642.61	0.154
642.81	0.153
643.01	0.153
643.21	0.152
643.41	0.152
643.61	0.152
643.81	0.151
644.01	0.150
644.21	0.149
644.41	0.150
644.61	0.150
644.81	0.150
645.01	0.150
645.21	0.149
645.41	0.149
645.61	0.149
645.81	0.149
646.01	0.148
646.21	0.149
646.40	0.148
646.60	0.149
646.80	0.149
647.00	0.148
647.20	0.148
647.40	0.148
647.60	0.148
647.80	0.147
648.00	0.147
648.20	0.147
648.40	0.147
648.60	0.146
648.80	0.146
649.00	0.146
649.20	0.146
649.39	0.146
649.59	0.145
649.79	0.145
649.99	0.145
650.19	0.144
650.39	0.144
650.59	0.144
650.79	0.144
650.99	0.144
651.19	0.143
651.39	0.143
651.58	0.143
651.78	0.142
651.98	0.142
652.18	0.142
652.38	0.142
652.58	0.142
652.78	0.142
652.98	0.141
653.18	0.141
653.38	0.141
653.57	0.141
653.77	0.141
653.97	0.140
654.17	0.140
654.37	0.139
654.57	0.139
654.77	0.139
654.97	0.139
655.16	0.139
655.36	0.138
655.56	0.137
655.76	0.137
655.96	0.137
656.16	0.136
656.36	0.137
656.56	0.136
656.75	0.137
656.95	0.136
657.15	0.136
657.35	0.136
657.55	0.136
657.75	0.136
657.95	0.136
658.14	0.136
658.34	0.136
658.54	0.136
658.74	0.135
658.94	0.135
659.14	0.135
659.34	0.135
659.53	0.134
659.73	0.134
659.93	0.133
660.13	0.133
660.33	0.133
660.53	0.132
660.72	0.133
660.92	0.133
661.12	0.132
661.32	0.132
661.52	0.131
661.72	0.131
661.91	0.131
662.11	0.131
662.31	0.131
662.51	0.131
662.71	0.130
662.90	0.129
663.10	0.129
663.30	0.129
663.50	0.129
663.70	0.128
663.90	0.128
664.09	0.128
664.29	0.127
664.49	0.127
664.69	0.127
664.89	0.127
665.08	0.128
665.28	0.127
665.48	0.127
665.68	0.126
665.88	0.126
666.07	0.126
666.27	0.126
666.47	0.126
666.67	0.126
666.87	0.126
667.06	0.125
667.26	0.125
667.46	0.124
667.66	0.125
667.85	0.125
668.05	0.125
668.25	0.125
668.45	0.124
668.65	0.124
668.84	0.124
669.04	0.124
669.24	0.123
669.44	0.123
669.63	0.123
669.83	0.123
670.03	0.122
670.23	0.121
670.42	0.121
670.62	0.121
670.82	0.120
671.02	0.120
671.22	0.119
671.41	0.119
671.61	0.119
671.81	0.120
672.01	0.119
672.20	0.119
672.40	0.119
672.60	0.119
672.80	0.119
672.99	0.118
673.19	0.118
673.39	0.118
673.58	0.118
673.78	0.118
673.98	0.117
674.18	0.117
674.37	0.117
674.57	0.116
674.77	0.116
674.97	0.116
675.16	0.116
675.36	0.116
675.56	0.115
675.75	0.115
675.95	0.115
676.15	0.115
676.35	0.115
676.54	0.115
676.74	0.115
676.94	0.115
677.13	0.115
677.33	0.114
677.53	0.115
677.73	0.115
677.92	0.114
678.12	0.114
678.32	0.113
678.51	0.114
678.71	0.114
678.91	0.113
679.11	0.112
679.30	0.113
679.50	0.112
679.70	0.112
679.89	0.112
680.09	0.112
680.29	0.112
680.48	0.112
680.68	0.111
680.88	0.111
681.07	0.111
681.27	0.111
681.47	0.110
681.66	0.110
681.86	0.110
682.06	0.110
682.25	0.109
682.45	0.109
682.65	0.109
682.84	0.108
683.04	0.108
683.24	0.108
683.43	0.108
683.63	0.108
683.83	0.108
684.02	0.108
684.22	0.108
684.42	0.107
684.61	0.107
684.81	0.107
685.01	0.107
685.20	0.106
685.40	0.106
685.60	0.106
685.79	0.106
685.99	0.107
686.19	0.106
686.38	0.106
686.58	0.106
686.77	0.106
686.97	0.106
687.17	0.106
687.36	0.106
687.56	0.105
687.76	0.105
687.95	0.105
688.15	0.105
688.34	0.105
688.54	0.104
688.74	0.104
688.93	0.103
689.13	0.103
689.33	0.103
689.52	0.102
689.72	0.103
689.91	0.102
690.11	0.102
690.31	0.102
690.50	0.101
690.70	0.102
690.89	0.101
691.09	0.101
691.29	0.101
691.48	0.101
691.68	0.100
691.87	0.100
692.07	0.100
692.27	0.100
692.46	0.100
692.66	0.100
692.85	0.100
693.05	0.100
693.25	0.100
693.44	0.100
693.64	0.100
693.83	0.100
694.03	0.100
694.22	0.099
694.42	0.099
694.62	0.099
694.81	0.099
695.01	0.099
695.20	0.099
695.40	0.099
695.59	0.099
695.79	0.099
695.99	0.099
696.18	0.098
696.38	0.098
696.57	0.098
696.77	0.098
696.96	0.098
697.16	0.098
697.36	0.097
697.55	0.097
697.75	0.097
697.94	0.097
698.14	0.097
698.33	0.097
698.53	0.097
698.72	0.096
698.92	0.096
699.11	0.096
699.31	0.096
699.51	0.096
699.70	0.095
699.90	0.095
700.09	0.095
700.29	0.095
700.48	0.094
700.68	0.094
700.87	0.094
701.07	0.093
701.26	0.093
701.46	0.093
701.65	0.093
701.85	0.093
702.04	0.093
702.24	0.093
702.43	0.093
702.63	0.093
702.82	0.093
703.02	0.093
703.21	0.093
703.41	0.093
703.60	0.092
703.80	0.093
703.99	0.092
704.19	0.092
704.38	0.092
704.58	0.091
704.77	0.092
704.97	0.091
705.16	0.091
705.36	0.092
705.55	0.091
705.75	0.091
705.94	0.091
706.14	0.091
706.33	0.091
706.53	0.091
706.72	0.091
706.92	0.091
707.11	0.091
707.31	0.091
707.50	0.091
707.70	0.091
707.89	0.091
708.09	0.090
708.28	0.090
708.48	0.090
708.67	0.090
708.86	0.090
709.06	0.090
709.25	0.090
709.45	0.089
709.64	0.089
709.84	0.089
710.03	0.088
710.23	0.089
710.42	0.089
710.62	0.089
710.81	0.089
711.00	0.089
711.20	0.089
711.39	0.088
711.59	0.088
711.78	0.088
711.98	0.088
712.17	0.089
712.37	0.088
712.56	0.088
712.75	0.088
712.95	0.088
713.14	0.088
713.34	0.088
713.53	0.088
713.73	0.089
713.92	0.088
714.11	0.088
714.31	0.088
714.50	0.088
714.70	0.087
714.89	0.088
715.08	0.088
715.28	0.088
715.47	0.087
715.67	0.087
715.86	0.087
716.06	0.087
716.25	0.087
716.44	0.087
716.64	0.086
716.83	0.086
717.03	0.086
717.22	0.085
717.41	0.085
717.61	0.085
717.80	0.086
717.99	0.086
718.19	0.086
718.38	0.086
718.58	0.086
718.77	0.086
718.96	0.086
719.16	0.086
719.35	0.086
719.55	0.086
719.74	0.085
719.93	0.085
720.13	0.085
720.32	0.085
720.51	0.085
720.71	0.085
720.90	0.085
721.10	0.085
721.29	0.085
721.48	0.084
721.68	0.084
721.87	0.084
722.06	0.084
722.26	0.085
722.45	0.084
722.64	0.085
722.84	0.085
723.03	0.085
723.22	0.085
723.42	0.085
723.61	0.085
723.80	0.085
724.00	0.085
724.19	0.085
724.38	0.085
724.58	0.085
724.77	0.084
724.96	0.084
725.16	0.084
725.35	0.084
725.54	0.084
725.74	0.085
725.93	0.084
726.12	0.084
726.32	0.085
726.51	0.085
726.70	0.085
726.90	0.085
727.09	0.085
727.28	0.085
727.48	0.085
727.67	0.084
727.86	0.085
728.06	0.085
728.25	0.085
728.44	0.085
728.64	0.084
728.83	0.085
729.02	0.084
729.21	0.084
729.41	0.084
729.60	0.084
729.79	0.084
729.99	0.084
730.18	0.084
730.37	0.084
730.56	0.083
730.76	0.083
730.95	0.083
731.14	0.083
731.34	0.084
731.53	0.084
731.72	0.084
731.91	0.084
732.11	0.084
732.30	0.084
732.49	0.084
732.69	0.084
732.88	0.084
733.07	0.084
733.26	0.085
733.46	0.084
733.65	0.084
733.84	0.084
734.03	0.084
734.23	0.084
734.42	0.084
734.61	0.084
734.80	0.084
735.00	0.084
735.19	0.084
735.38	0.084
735.57	0.084
735.77	0.084
735.96	0.084
736.15	0.084
736.34	0.084
736.54	0.084
736.73	0.084
736.92	0.084
737.11	0.084
737.31	0.084
737.50	0.084
737.69	0.084
737.88	0.084
738.07	0.084
738.27	0.084
738.46	0.084
738.65	0.084
738.84	0.084
739.04	0.084
739.23	0.084
739.42	0.084
739.61	0.084
739.80	0.084
740.00	0.084
740.19	0.084
740.38	0.084
740.57	0.084
740.76	0.084
740.96	0.083
741.15	0.083
741.34	0.083
741.53	0.083
741.72	0.083
741.92	0.083
742.11	0.083
742.30	0.082
742.49	0.083
742.68	0.083
742.88	0.083
743.07	0.083
743.26	0.083
743.45	0.083
743.64	0.083
743.84	0.082
744.03	0.083
744.22	0.083
744.41	0.082
744.60	0.082
744.79	0.082
744.99	0.082
745.18	0.082
745.37	0.082
745.56	0.082
745.75	0.082
745.94	0.082
746.14	0.082
746.33	0.082
746.52	0.082
746.71	0.082
746.90	0.081
747.09	0.081
747.28	0.081
747.48	0.081
747.67	0.081
747.86	0.081
748.05	0.081
748.24	0.081
748.43	0.081
748.62	0.080
748.82	0.080
749.01	0.080
749.20	0.080
749.39	0.080
749.58	0.080
749.77	0.080
749.96	0.080
750.16	0.080
750.35	0.080
750.54	0.080
750.73	0.080
750.92	0.080
751.11	0.080
751.30	0.080
751.49	0.080
751.68	0.080
751.88	0.080
752.07	0.080
752.26	0.080
752.45	0.080
752.64	0.080
752.83	0.080
753.02	0.080
753.21	0.079
753.40	0.079
753.60	0.079
753.79	0.079
753.98	0.079
754.17	0.079
754.36	0.078
754.55	0.078
754.74	0.078
754.93	0.078
755.12	0.078
755.31	0.079
755.50	0.078
755.70	0.078
755.89	0.078
756.08	0.078
756.27	0.078
756.46	0.078
756.65	0.078
756.84	0.078
757.03	0.078
757.22	0.078
757.41	0.078
757.60	0.078
757.79	0.078
757.98	0.078
758.17	0.078
758.36	0.078
758.56	0.078
758.75	0.078
758.94	0.077
759.13	0.077
759.32	0.077
759.51	0.077
759.70	0.077
759.89	0.077
760.08	0.078
760.27	0.077
760.46	0.077
760.65	0.077
760.84	0.077
761.03	0.077
761.22	0.077
761.41	0.078
761.60	0.077
761.79	0.077
761.98	0.077
762.17	0.077
762.36	0.077
762.55	0.077
762.74	0.077
762.93	0.077
763.12	0.077
763.31	0.077
763.50	0.077
763.69	0.077
763.88	0.077
764.07	0.077
764.26	0.077
764.45	0.077
764.64	0.077
764.83	0.077
765.02	0.077
765.21	0.077
765.40	0.077
765.59	0.076
765.78	0.076
765.97	0.076
766.16	0.076
766.35	0.075
766.54	0.076
766.73	0.075
766.92	0.075
767.11	0.075
767.30	0.075
767.49	0.075
767.68	0.075
767.87	0.075
768.06	0.075
768.25	0.075
768.44	0.075
768.63	0.074
768.82	0.074
769.01	0.074
769.20	0.074
769.39	0.075
769.58	0.075
769.77	0.074
769.96	0.074
770.15	0.075
770.34	0.075
770.53	0.074
770.72	0.074
770.91	0.074
771.10	0.074
771.29	0.074
771.47	0.074
771.66	0.074
771.85	0.074
772.04	0.074
772.23	0.074
772.42	0.074
772.61	0.074
772.80	0.074
772.99	0.074
773.18	0.074
773.37	0.074
773.56	0.074
773.75	0.074
773.94	0.074
774.13	0.074
774.31	0.074
774.50	0.074
774.69	0.074
774.88	0.074
775.07	0.074
775.26	0.074
775.45	0.074
775.64	0.074
775.83	0.074
776.02	0.073
776.21	0.073
776.40	0.073
776.58	0.073
776.77	0.073
776.96	0.073
777.15	0.073
777.34	0.073
777.53	0.073
777.72	0.074
777.91	0.073
778.10	0.073
778.28	0.073
778.47	0.073
778.66	0.073
778.85	0.073
779.04	0.073
779.23	0.073
779.42	0.073
779.61	0.073
779.79	0.072
779.98	0.072
780.17	0.073
780.36	0.072
780.55	0.072
780.74	0.072
780.93	0.072
781.12	0.072
781.30	0.072
781.49	0.071
781.68	0.071
781.87	0.071
782.06	0.071
782.25	0.071
782.44	0.071
782.62	0.072
782.81	0.072
783.00	0.072
783.19	0.072
783.38	0.072
783.57	0.072
783.75	0.071
783.94	0.071
784.13	0.071
784.32	0.071
784.51	0.071
784.70	0.071
784.88	0.071
785.07	0.071
785.26	0.070
785.45	0.070
785.64	0.070
785.83	0.071
786.01	0.070
786.20	0.070
786.39	0.070
786.58	0.070
786.77	0.070
786.95	0.070
787.14	0.070
787.33	0.070
787.52	0.070
787.71	0.070
787.90	0.070
788.08	0.070
788.27	0.070
788.46	0.070
788.65	0.070
788.84	0.070
789.02	0.070
789.21	0.070
789.40	0.070
789.59	0.070
789.77	0.070
789.96	0.070
790.15	0.070
790.34	0.070
790.53	0.070
790.71	0.070
790.90	0.069
791.09	0.069
791.28	0.069
791.46	0.069
791.65	0.069
791.84	0.069
792.03	0.069
792.22	0.069
792.40	0.069
792.59	0.069
792.78	0.069
792.97	0.069
793.15	0.069
793.34	0.069
793.53	0.069
793.72	0.069
793.90	0.069
794.09	0.069
794.28	0.070
794.47	0.070
794.65	0.069
794.84	0.069
795.03	0.069
795.22	0.069
795.40	0.069
795.59	0.068
795.78	0.068
795.97	0.069
796.15	0.069
796.34	0.068
796.53	0.069
796.71	0.069
796.90	0.069
797.09	0.069
797.28	0.069
797.46	0.069
797.65	0.069
797.84	0.069
798.02	0.069
798.21	0.069
798.40	0.069
798.59	0.068
798.77	0.068
798.96	0.068
799.15	0.067
799.33	0.068
799.52	0.068
799.71	0.068
799.90	0.068
800.08	0.068
800.27	0.068
800.46	0.068
800.64	0.067
800.83	0.067
801.02	0.068
801.20	0.068
801.39	0.068
801.58	0.068
801.76	0.068
801.95	0.068
802.14	0.068
802.32	0.068
802.51	0.068
802.70	0.068
802.88	0.068
803.07	0.068
803.26	0.067
803.44	0.067
803.63	0.067
803.82	0.067
804.00	0.067
804.19	0.067
804.38	0.067
804.56	0.067
804.75	0.067
804.94	0.067
805.12	0.067
805.31	0.067
805.50	0.067
805.68	0.067
805.87	0.068
806.06	0.068
806.24	0.068
806.43	0.067
806.62	0.067
806.80	0.067
806.99	0.067
807.17	0.067
807.36	0.068
807.55	0.068
807.73	0.068
807.92	0.068
808.11	0.067
808.29	0.067
808.48	0.067
808.66	0.067
808.85	0.067
809.04	0.067
809.22	0.067
809.41	0.067
809.59	0.067
809.78	0.067
809.97	0.067
810.15	0.067
810.34	0.067
810.53	0.067
810.71	0.066
810.90	0.067
811.08	0.067
811.27	0.067
811.45	0.067
811.64	0.067
811.83	0.067
812.01	0.066
812.20	0.066
812.38	0.066
812.57	0.066
812.76	0.067
812.94	0.066
813.13	0.066
813.31	0.066
813.50	0.067
813.68	0.066
813.87	0.066
814.06	0.067
814.24	0.066
814.43	0.067
814.61	0.067
814.80	0.066
814.98	0.067
815.17	0.067
815.36	0.066
815.54	0.067
815.73	0.067
815.91	0.067
816.10	0.067
816.28	0.067
816.47	0.066
816.65	0.067
816.84	0.067
817.03	0.067
817.21	0.067
817.40	0.067
817.58	0.067
817.77	0.067
817.95	0.067
818.14	0.067
818.32	0.067
818.51	0.067
818.69	0.067
818.88	0.067
819.06	0.067
819.25	0.067
819.43	0.067
819.62	0.067
819.80	0.067
819.99	0.067
820.18	0.067
820.36	0.067
820.55	0.068
820.73	0.068
820.92	0.067
821.10	0.067
821.29	0.067
821.47	0.067
821.66	0.067
821.84	0.067
822.03	0.067
822.21	0.067
822.40	0.067
822.58	0.067
822.77	0.067
822.95	0.067
823.14	0.067
823.32	0.068
823.50	0.068
823.69	0.068
823.87	0.068
824.06	0.068
824.24	0.068
824.43	0.068
824.61	0.068
824.80	0.068
824.98	0.068
825.17	0.068
825.35	0.068
825.54	0.068
825.72	0.068
825.91	0.068
826.09	0.068
826.28	0.068
826.46	0.068
826.64	0.068
826.83	0.068
827.01	0.068
827.20	0.068
827.38	0.068
827.57	0.069
827.75	0.069
827.94	0.069
828.12	0.069
828.31	0.070
828.49	0.070
828.67	0.070
828.86	0.070
829.04	0.070
829.23	0.070
829.41	0.070
829.60	0.070
829.78	0.071
829.96	0.071
830.15	0.071
830.33	0.071
830.52	0.071
830.70	0.071
830.88	0.071
831.07	0.071
831.25	0.071
831.44	0.071
831.62	0.071
831.81	0.071
831.99	0.070
832.17	0.071
832.36	0.071
832.54	0.071
832.73	0.071
832.91	0.071
833.09	0.071
833.28	0.071
833.46	0.071
833.65	0.072
833.83	0.072
834.01	0.073
834.20	0.073
834.38	0.073
834.56	0.073
834.75	0.073
834.93	0.074
835.12	0.073
835.30	0.073
835.48	0.074
835.67	0.073
835.85	0.073
836.03	0.073
836.22	0.073
836.40	0.073
836.59	0.073
836.77	0.073
836.95	0.073
837.14	0.073
837.32	0.073
837.50	0.073
837.69	0.073
837.87	0.073
838.05	0.073
838.24	0.073
838.42	0.073
838.60	0.073
838.79	0.074
838.97	0.073
839.15	0.074
839.34	0.074
839.52	0.074
839.70	0.074
839.89	0.074
840.07	0.074
840.25	0.074
840.44	0.074
840.62	0.074
840.80	0.074
840.99	0.074
841.17	0.073
841.35	0.073
841.54	0.073
841.72	0.074
841.90	0.074
842.09	0.074
842.27	0.074
842.45	0.074
842.64	0.074
842.82	0.074
843.00	0.074
843.19	0.074
843.37	0.074
843.55	0.074
843.73	0.074
843.92	0.074
844.10	0.074
844.28	0.074
844.47	0.074
844.65	0.074
844.83	0.074
845.01	0.074
845.20	0.074
845.38	0.074
845.56	0.074
845.75	0.075
845.93	0.075
846.11	0.075
846.29	0.075
846.48	0.075
846.66	0.075
846.84	0.074
847.02	0.074
847.21	0.074
847.39	0.074
847.57	0.074
847.76	0.074
847.94	0.074
848.12	0.074
848.30	0.074
848.49	0.074
848.67	0.074
848.85	0.074
849.03	0.075
849.22	0.075
849.40	0.075
849.58	0.075
849.76	0.075
849.95	0.075
850.13	0.076
850.31	0.075
850.49	0.075
850.67	0.076
850.86	0.075
851.04	0.075
851.22	0.075
851.40	0.075
851.59	0.075
851.77	0.075
851.95	0.075
852.13	0.075
852.31	0.074
852.50	0.074
852.68	0.075
852.86	0.075
853.04	0.075
853.23	0.075
853.41	0.074
853.59	0.074
853.77	0.074
853.95	0.074
854.14	0.074
854.32	0.075
854.50	0.075
854.68	0.074
854.86	0.074
855.04	0.075
855.23	0.075
855.41	0.075
855.59	0.075
855.77	0.076
855.95	0.076
856.14	0.076
856.32	0.076
856.50	0.076
856.68	0.076
856.86	0.076
857.04	0.075
857.23	0.075
857.41	0.075
857.59	0.075
857.77	0.075
857.95	0.075
858.13	0.075
858.32	0.075
858.50	0.076
858.68	0.075
858.86	0.075
859.04	0.076
859.22	0.076
859.41	0.076
859.59	0.076
859.77	0.076
859.95	0.076
860.13	0.076
860.31	0.076
860.49	0.076
860.68	0.076
860.86	0.076
861.04	0.076
861.22	0.076
861.40	0.076
861.58	0.076
861.76	0.076
861.94	0.076
862.13	0.076
862.31	0.076
862.49	0.076
862.67	0.076
862.85	0.076
863.03	0.076
863.21	0.077
863.39	0.077
863.57	0.076
863.76	0.076
863.94	0.076
864.12	0.076
864.30	0.076
864.48	0.076
864.66	0.076
864.84	0.076
865.02	0.077
865.20	0.077
865.38	0.077
865.57	0.077
865.75	0.077
865.93	0.077
866.11	0.077
866.29	0.077
866.47	0.078
866.65	0.078
866.83	0.077
867.01	0.077
867.19	0.076
867.37	0.077
867.55	0.077
867.73	0.077
867.92	0.077
868.10	0.077
868.28	0.077
868.46	0.077
868.64	0.076
868.82	0.076
869.00	0.077
869.18	0.077
869.36	0.076
869.54	0.077
869.72	0.077
869.90	0.077
870.08	0.077
870.26	0.077
870.44	0.077
870.62	0.077
870.80	0.077
870.98	0.077
871.16	0.077
871.34	0.077
871.53	0.077
871.71	0.077
871.89	0.077
872.07	0.077
872.25	0.077
872.43	0.077
872.61	0.077
872.79	0.077
872.97	0.078
873.15	0.078
873.33	0.078
873.51	0.078
873.69	0.078
873.87	0.078
874.05	0.078
874.23	0.079
874.41	0.079
874.59	0.079
874.77	0.079
874.95	0.079
875.13	0.079
875.31	0.079
875.49	0.079
875.67	0.079
875.85	0.079
876.03	0.079
876.21	0.079
876.39	0.079
876.57	0.079
876.75	0.080
876.93	0.079
877.11	0.079
877.29	0.079
877.47	0.079
877.65	0.079
877.82	0.080
878.00	0.080
878.18	0.079
878.36	0.079
878.54	0.079
878.72	0.079
878.90	0.079
879.08	0.079
879.26	0.079
879.44	0.079
879.62	0.079
879.80	0.079
879.98	0.079
880.16	0.079
880.34	0.079
880.52	0.079
880.70	0.079
880.88	0.079
881.06	0.079
881.24	0.079
881.42	0.079
881.59	0.079
881.77	0.079
881.95	0.079
882.13	0.079
882.31	0.079
882.49	0.079
882.67	0.080
882.85	0.080
883.03	0.080
883.21	0.080
883.39	0.080
883.57	0.080
883.75	0.080
883.92	0.080
884.10	0.081
884.28	0.080
884.46	0.080
884.64	0.080
884.82	0.080
885.00	0.080
885.18	0.081
885.36	0.081
885.54	0.081
885.71	0.081
885.89	0.081
886.07	0.081
886.25	0.081
886.43	0.081
886.61	0.081
886.79	0.081
886.97	0.081
887.15	0.081
887.32	0.081
887.50	0.082
887.68	0.082
887.86	0.081
888.04	0.081
888.22	0.081
888.40	0.081
888.57	0.081
888.75	0.081
888.93	0.081
889.11	0.081
889.29	0.081
889.47	0.082
889.65	0.081
889.82	0.082
890.00	0.082
890.18	0.082
890.36	0.082
890.54	0.082
890.72	0.083
890.90	0.083
891.07	0.083
891.25	0.082
891.43	0.082
891.61	0.082
891.79	0.082
891.97	0.082
892.14	0.082
892.32	0.082
892.50	0.082
892.68	0.082
892.86	0.083
893.03	0.082
893.21	0.083
893.39	0.083
893.57	0.083
893.75	0.083
893.93	0.083
894.10	0.083
894.28	0.083
894.46	0.083
894.64	0.083
894.82	0.083
894.99	0.083
895.17	0.083
895.35	0.083
895.53	0.083
895.71	0.082
895.88	0.083
896.06	0.083
896.24	0.083
896.42	0.083
896.59	0.083
896.77	0.083
896.95	0.083
897.13	0.083
897.31	0.084
897.48	0.083
897.66	0.084
897.84	0.083
898.02	0.084
898.19	0.084
898.37	0.084
898.55	0.084
898.73	0.084
898.91	0.084
899.08	0.084
899.26	0.084
899.44	0.084
899.62	0.084
899.79	0.084
899.97	0.084
900.15	0.084
900.33	0.084
900.50	0.084
900.68	0.084
900.86	0.084
901.04	0.084
901.21	0.084
901.39	0.084
901.57	0.084
901.74	0.084
901.92	0.084
902.10	0.085
902.28	0.085
902.45	0.085
902.63	0.085
902.81	0.085
902.99	0.085
903.16	0.085
903.34	0.085
903.52	0.085
903.69	0.085
903.87	0.085
904.05	0.085
904.22	0.085
904.40	0.085
904.58	0.085
904.76	0.085
904.93	0.085
905.11	0.086
905.29	0.086
905.46	0.086
905.64	0.086
905.82	0.087
905.99	0.086
906.17	0.086
906.35	0.087
906.53	0.087
906.70	0.087
906.88	0.087
907.06	0.087
907.23	0.087
907.41	0.087
907.59	0.087
907.76	0.087
907.94	0.088
908.12	0.087
908.29	0.087
908.47	0.087
908.65	0.088
908.82	0.087
909.00	0.087
909.18	0.088
909.35	0.088
909.53	0.088
909.71	0.088
909.88	0.088
910.06	0.088
910.23	0.088
910.41	0.088
910.59	0.088
910.76	0.088
910.94	0.088
911.12	0.087
911.29	0.088
911.47	0.088
911.65	0.088
911.82	0.088
912.00	0.088
912.17	0.088
912.35	0.089
912.53	0.089
912.70	0.089
912.88	0.090
913.06	0.090
913.23	0.091
913.41	0.091
913.58	0.091
913.76	0.090
913.94	0.090
914.11	0.091
914.29	0.090
914.46	0.091
914.64	0.091
914.82	0.091
914.99	0.091
915.17	0.090
915.34	0.090
915.52	0.091
915.70	0.091
915.87	0.091
916.05	0.091
916.22	0.091
916.40	0.091
916.57	0.091
916.75	0.092
916.93	0.092
917.10	0.092
917.28	0.092
917.45	0.091
917.63	0.092
917.80	0.092
917.98	0.092
918.16	0.093
918.33	0.093
918.51	0.093
918.68	0.093
918.86	0.093
919.03	0.093
919.21	0.093
919.39	0.093
919.56	0.094
919.74	0.094
919.91	0.094
920.09	0.094
920.26	0.094
920.44	0.094
920.61	0.094
920.79	0.094
920.96	0.095
921.14	0.095
921.31	0.096
921.49	0.096
921.67	0.096
921.84	0.097
922.02	0.097
922.19	0.097
922.37	0.097
922.54	0.097
922.72	0.097
922.89	0.098
923.07	0.098
923.24	0.098
923.42	0.098
923.59	0.099
923.77	0.099
923.94	0.100
924.12	0.100
924.29	0.101
924.47	0.101
924.64	0.101
924.82	0.101
924.99	0.102
925.17	0.102
925.34	0.102
925.52	0.102
925.69	0.102
925.87	0.103
926.04	0.103
926.22	0.104
926.39	0.104
926.57	0.104
926.74	0.104
926.91	0.105
927.09	0.105
927.26	0.105
927.44	0.105
927.61	0.106
927.79	0.106
927.96	0.107
928.14	0.107
928.31	0.107
928.49	0.107
928.66	0.107
928.84	0.108
929.01	0.108
929.18	0.109
929.36	0.109
929.53	0.110
929.71	0.110
929.88	0.111
930.06	0.110
930.23	0.111
930.41	0.112
930.58	0.112
930.75	0.113
930.93	0.113
931.10	0.113
931.28	0.114
931.45	0.114
931.63	0.114
931.80	0.114
931.97	0.116
932.15	0.116
932.32	0.116
932.50	0.117
932.67	0.117
932.84	0.117
933.02	0.118
933.19	0.118
933.37	0.119
933.54	0.120
933.71	0.120
933.89	0.121
934.06	0.121
934.24	0.121
934.41	0.122
934.58	0.122
934.76	0.123
934.93	0.124
935.11	0.123
935.28	0.123
935.45	0.124
935.63	0.125
935.80	0.125
935.98	0.126
936.15	0.126
936.32	0.126
936.50	0.127
936.67	0.128
936.84	0.128
937.02	0.129
937.19	0.130
937.36	0.130
937.54	0.130
937.71	0.131
937.89	0.131
938.06	0.132
938.23	0.132
938.41	0.133
938.58	0.133
938.75	0.133
938.93	0.134
939.10	0.134
939.27	0.135
939.45	0.136
939.62	0.136
939.79	0.137
939.97	0.138
940.14	0.139
940.31	0.139
940.49	0.140
940.66	0.140
940.83	0.141
941.01	0.142
941.18	0.143
941.35	0.144
941.53	0.144
941.70	0.145
941.87	0.145
942.05	0.146
942.22	0.146
942.39	0.148
942.57	0.148
942.74	0.149
942.91	0.149
943.08	0.149
943.26	0.149
943.43	0.150
943.60	0.150
943.78	0.151
943.95	0.152
944.12	0.152
944.29	0.153
944.47	0.153
944.64	0.154
944.81	0.156
944.99	0.156
945.16	0.157
945.33	0.158
945.50	0.159
945.68	0.160
945.85	0.161
946.02	0.162
946.20	0.163
946.37	0.164
946.54	0.165
946.71	0.165
946.89	0.166
947.06	0.166
947.23	0.167
947.40	0.169
947.58	0.169
947.75	0.170
947.92	0.170
948.09	0.171
948.27	0.172
948.44	0.173
948.61	0.174
948.78	0.175
948.96	0.177
949.13	0.177
949.30	0.178
949.47	0.179
949.65	0.180
949.82	0.182
949.99	0.182
950.16	0.184
950.33	0.185
950.51	0.186
950.68	0.188
950.85	0.189
951.02	0.190
951.20	0.191
951.37	0.192
951.54	0.193
951.71	0.194
951.88	0.195
952.06	0.196
952.23	0.197
952.40	0.198
952.57	0.199
952.74	0.200
952.92	0.201
953.09	0.203
953.26	0.205
953.43	0.206
953.60	0.207
953.77	0.208
953.95	0.209
954.12	0.212
954.29	0.213
954.46	0.215
954.63	0.216
954.81	0.217
954.98	0.217
955.15	0.219
955.32	0.221
955.49	0.221
955.66	0.223
955.84	0.224
956.01	0.224
956.18	0.226
956.35	0.227
956.52	0.227
956.69	0.229
956.87	0.229
957.04	0.230
957.21	0.232
957.38	0.232
957.55	0.233
957.72	0.234
957.89	0.235
958.07	0.235
958.24	0.237
958.41	0.239
958.58	0.239
958.75	0.240
958.92	0.241
959.09	0.241
959.26	0.242
959.44	0.243
959.61	0.244
959.78	0.245
959.95	0.246
960.12	0.246
960.29	0.249
960.46	0.248
960.63	0.248
960.81	0.248
960.98	0.249
961.15	0.249
961.32	0.250
961.49	0.249
961.66	0.251
961.83	0.251
962.00	0.251
962.17	0.252
962.34	0.251
962.52	0.253
962.69	0.253
962.86	0.253
963.03	0.253
963.20	0.255
963.37	0.254
963.54	0.255
963.71	0.254
963.88	0.255
964.05	0.255
964.22	0.257
964.39	0.255
964.56	0.256
964.74	0.257
964.91	0.257
965.08	0.257
965.25	0.257
965.42	0.258
965.59	0.259
965.76	0.258
965.93	0.259
966.10	0.258
966.27	0.259
966.44	0.258
966.61	0.259
966.78	0.258
966.95	0.258
967.12	0.259
967.29	0.260
967.46	0.260
967.63	0.259
967.80	0.261
967.97	0.260
968.14	0.260
968.32	0.261
968.49	0.261
968.66	0.260
968.83	0.261
969.00	0.261
969.17	0.260
969.34	0.261
969.51	0.262
969.68	0.261
969.85	0.262
970.02	0.262
970.19	0.262
970.36	0.263
970.53	0.263
970.70	0.261
970.87	0.262
971.04	0.262
971.21	0.262
971.38	0.262
971.55	0.262
971.72	0.262
971.89	0.263
972.06	0.262
972.23	0.262
972.40	0.262
972.57	0.261
972.74	0.262
972.91	0.262
973.07	0.262
973.24	0.262
973.41	0.262
973.58	0.260
973.75	0.272
973.92	0.260
974.09	0.260
974.26	0.260
974.43	0.259
974.60	0.261
974.77	0.261
974.94	0.260
975.11	0.261
975.28	0.262
975.45	0.260
975.62	0.262
975.79	0.264
975.96	0.262
976.13	0.262
976.30	0.263
976.47	0.261
976.64	0.262
976.80	0.262
976.97	0.262
977.14	0.261
977.31	0.261
977.48	0.262
977.65	0.261
977.82	0.260
977.99	0.261
978.16	0.260
978.33	0.261
978.50	0.260
978.67	0.260
978.83	0.260
979.00	0.260
979.17	0.260
979.34	0.259
979.51	0.259
979.68	0.260
979.85	0.259
980.02	0.260
980.19	0.258
980.36	0.259
980.52	0.260
980.69	0.259
980.86	0.259
981.03	0.258
981.20	0.256
981.37	0.257
981.54	0.257
981.71	0.256
981.88	0.257
982.04	0.256
982.21	0.256
982.38	0.257
982.55	0.256
982.72	0.255
982.89	0.256
983.06	0.255
983.22	0.255
983.39	0.255
983.56	0.254
983.73	0.253
983.90	0.253
984.07	0.254
984.24	0.253
984.40	0.252
984.57	0.252
984.74	0.254
984.91	0.255
985.08	0.253
985.25	0.251
985.41	0.252
985.58	0.252
985.75	0.254
985.92	0.253
986.09	0.251
986.26	0.251
986.42	0.250
986.59	0.248
986.76	0.249
986.93	0.249
987.10	0.250
987.27	0.247
987.43	0.245
987.60	0.247
987.77	0.247
987.94	0.245
988.11	0.247
988.27	0.247
988.44	0.246
988.61	0.245
988.78	0.243
988.95	0.244
989.11	0.245
989.28	0.243
989.45	0.243
989.62	0.242
989.79	0.243
989.95	0.241
990.12	0.243
990.29	0.243
990.46	0.240
990.62	0.239
990.79	0.240
990.96	0.240
991.13	0.241
991.30	0.240
991.46	0.239
991.63	0.238
991.80	0.237
991.97	0.237
992.13	0.238
992.30	0.239
992.47	0.237
992.64	0.236
992.80	0.236
992.97	0.237
993.14	0.234
993.31	0.232
993.47	0.235
993.64	0.232
993.81	0.232
993.98	0.232
994.14	0.231
994.31	0.230
994.48	0.231
994.64	0.232
994.81	0.230
994.98	0.231
995.15	0.228
995.31	0.228
995.48	0.228
995.65	0.230
995.82	0.228
995.98	0.228
996.15	0.229
996.32	0.230
996.48	0.229
996.65	0.228
996.82	0.226
996.99	0.227
997.15	0.227
997.32	0.228
997.49	0.226
997.65	0.227
997.82	0.226
997.99	0.224
998.15	0.224
998.32	0.225
998.49	0.224
998.65	0.224
998.82	0.224
998.99	0.221
999.15	0.221
999.32	0.221
999.49	0.220
999.65	0.220
999.82	0.219
999.99	0.219
1000.15	0.219
1000.32	0.219
1000.49	0.219
1000.65	0.217
1000.82	0.217
1000.99	0.218
1001.15	0.217
1001.32	0.216
1001.49	0.216
1001.65	0.216
1001.82	0.218
1001.99	0.215
1002.15	0.213
1002.32	0.213
1002.49	0.214
1002.65	0.212
1002.82	0.210
1002.99	0.209
1003.15	0.212
1003.32	0.210
1003.48	0.210
1003.65	0.210
1003.82	0.209
1003.98	0.207
1004.15	0.206
1004.32	0.207
1004.48	0.207
1004.65	0.209
1004.81	0.207
1004.98	0.205
1005.15	0.206
1005.31	0.205
1005.48	0.203
1005.64	0.203
1005.81	0.206
1005.98	0.203
1006.14	0.202
1006.31	0.202
1006.47	0.201
1006.64	0.200
1006.81	0.200
1006.97	0.200
1007.14	0.200
1007.30	0.201
1007.47	0.200
1007.63	0.198
1007.80	0.197
1007.97	0.196
1008.13	0.196
1008.30	0.195
1008.46	0.195
1008.63	0.194
1008.79	0.195
1008.96	0.195
1009.13	0.196
1009.29	0.193
1009.46	0.193
1009.62	0.193
1009.79	0.192
1009.95	0.192
1010.12	0.193
1010.28	0.192
1010.45	0.192
1010.62	0.192
1010.78	0.190
1010.95	0.189
1011.11	0.189
1011.28	0.189
1011.44	0.191
1011.61	0.189
1011.77	0.187
1011.94	0.187
1012.10	0.187
1012.27	0.187
1012.43	0.187
1012.60	0.186
1012.76	0.187
1012.93	0.187
1013.10	0.185
1013.26	0.183
1013.43	0.184
1013.59	0.192
1013.76	0.185
1013.92	0.184
1014.09	0.182
1014.25	0.183
1014.42	0.183
1014.58	0.182
1014.75	0.183
1014.91	0.181
1015.08	0.183
1015.24	0.180
1015.41	0.182
1015.57	0.181
1015.73	0.179
1015.90	0.178
1016.06	0.180
1016.23	0.178
1016.39	0.178
1016.56	0.179
1016.72	0.178
1016.89	0.177
1017.05	0.179
1017.22	0.175
1017.38	0.176
1017.55	0.174
1017.71	0.176
1017.88	0.175
1018.04	0.176
1018.21	0.173
1018.37	0.172
1018.53	0.172
1018.70	0.171
1018.86	0.171
1019.03	0.173
1019.19	0.171
1019.36	0.170
1019.52	0.171
1019.69	0.172
1019.85	0.171
1020.01	0.172
1020.18	0.171
1020.34	0.171
1020.51	0.171
1020.67	0.171
1020.84	0.171
1021.00	0.171
1021.16	0.170
1021.33	0.169
1021.49	0.169
1021.66	0.170
1021.82	0.168
1021.98	0.168
1022.15	0.167
1022.31	0.167
1022.48	0.166
1022.64	0.167
1022.80	0.166
1022.97	0.164
1023.13	0.164
1023.30	0.164
1023.46	0.165
1023.62	0.163
1023.79	0.164
1023.95	0.165
1024.12	0.164
1024.28	0.163
1024.44	0.163
1024.61	0.162
1024.77	0.161
1024.93	0.160
1025.10	0.161
1025.26	0.159
1025.43	0.159
1025.59	0.155
1025.75	0.158
1025.92	0.158
1026.08	0.156
1026.24	0.156
1026.41	0.158
1026.57	0.156
1026.73	0.153
1026.90	0.155
1027.06	0.153
1027.23	0.155
1027.39	0.155
1027.55	0.156
1027.72	0.154
1027.88	0.154
1028.04	0.154
1028.21	0.154
1028.37	0.149
1028.53	0.154
1028.70	0.153
1028.86	0.151
1029.02	0.150
1029.19	0.151
1029.35	0.147
1029.51	0.148
1029.67	0.146
1029.84	0.148
1030.00	0.143
1030.16	0.144
1030.33	0.146
1030.49	0.143
1030.65	0.141
1030.82	0.156
1030.98	0.143
1031.14	0.144
1031.31	0.144
1031.47	0.141
1031.63	0.144
1031.79	0.143
1031.96	0.144
1032.12	0.145
1032.28	0.143
1032.45	0.148
1032.61	0.145
1032.77	0.145
1032.93	0.143
1033.10	0.144
1033.26	0.146
1033.42	0.143
1033.58	0.144
1033.75	0.144
1033.91	0.143
1034.07	0.147
1034.24	0.145
1034.40	0.143
1034.56	0.142
1034.72	0.142
1034.89	0.142
1035.05	0.140
1035.21	0.141
1035.37	0.139
1035.54	0.143
1035.70	0.140
1035.86	0.138
1036.02	0.140
1036.19	0.139
1036.35	0.137
1036.51	0.141
1036.67	0.139
1036.83	0.138
1037.00	0.137
1037.16	0.138
1037.32	0.138
1037.48	0.138
1037.65	0.143
1037.81	0.138
1037.97	0.138
1038.13	0.138
1038.29	0.136
1038.46	0.134
1038.62	0.138
1038.78	0.136
1038.94	0.132
1039.10	0.138
1039.27	0.133
1039.43	0.134
1039.59	0.134
1039.75	0.133
1039.91	0.131
1040.08	0.131
1040.24	0.133
1040.40	0.136
1040.56	0.135
1040.72	0.130
1040.89	0.132
1041.05	0.133
1041.21	0.131
1041.37	0.128
1041.53	0.136
1041.69	0.135
1041.86	0.134
1042.02	0.131
1042.18	0.130
1042.34	0.130
1042.50	0.133
1042.66	0.130
1042.83	0.128
1042.99	0.132
1043.15	0.128
1043.31	0.127
1043.47	0.130
1043.63	0.128
1043.79	0.128
1043.96	0.128
1044.12	0.134
1044.28	0.131
1044.44	0.132
1044.60	0.128
1044.76	0.126
1044.92	0.129
1045.09	0.130
1045.25	0.126
1045.41	0.127
1045.57	0.122
1045.73	0.123
1045.89	0.124
1046.05	0.124
1046.21	0.127
1046.38	0.128
1046.54	0.129
1046.70	0.131
1046.86	0.124
>>>>>End Processed Spectral Data<<<<<
