SpectraSuite Data File
++++++++++++++++++++++++++++++++++++
Date: Mon May 20 12:11:19 CDT 2013
User: Students
Dark Spectrum Present: Yes
Reference Spectrum Present: Yes
Number of Sampled Component Spectra: 1
Spectrometers: USB4H00887
Integration Time (usec): 60000 (USB4H00887)
Spectra Averaged: 5 (USB4H00887)
Boxcar Smoothing: 5 (USB4H00887)
Correct for Electrical Dark: No (USB4H00887)
Strobe/Lamp Enabled: No (USB4H00887)
Correct for Detector Non-linearity: No (USB4H00887)
Correct for Stray Light: No (USB4H00887)
Number of Pixels in Processed Spectrum: 3648
>>>>>Begin Processed Spectral Data<<<<<
345.83	0.056
346.05	0.056
346.26	0.056
346.48	-0.000
346.70	0.589
346.92	0.054
347.14	0.049
347.35	0.048
347.57	0.229
347.79	-0.154
348.01	-0.151
348.23	-0.297
348.44	-0.000
348.66	0.248
348.88	-0.392
349.10	-0.186
349.32	0.104
349.53	-0.035
349.75	-0.072
349.97	-0.062
350.19	-0.060
350.41	-0.068
350.62	0.835
350.84	-0.024
351.06	-0.033
351.28	-0.054
351.50	-0.245
351.71	-0.197
351.93	-0.159
352.15	-0.036
352.37	-0.147
352.58	-0.032
352.80	-0.016
353.02	0.001
353.24	-0.008
353.46	-0.048
353.67	0.097
353.89	-0.004
354.11	0.010
354.33	0.030
354.54	0.063
354.76	0.136
354.98	0.188
355.20	0.190
355.41	0.106
355.63	0.226
355.85	0.120
356.07	-0.000
356.28	0.129
356.50	0.214
356.72	0.084
356.94	0.249
357.15	0.369
357.37	-0.000
357.59	0.162
357.81	0.083
358.02	0.144
358.24	0.104
358.46	0.234
358.68	0.255
358.89	0.123
359.11	-0.000
359.33	0.089
359.55	-0.488
359.76	0.105
359.98	0.131
360.20	0.145
360.42	0.107
360.63	0.112
360.85	0.060
361.07	0.240
361.29	0.064
361.50	0.227
361.72	0.089
361.94	0.408
362.15	0.167
362.37	0.106
362.59	0.118
362.81	0.234
363.02	0.373
363.24	0.637
363.46	0.294
363.68	0.383
363.89	0.216
364.11	0.268
364.33	0.317
364.54	0.178
364.76	0.200
364.98	0.191
365.20	0.200
365.41	0.112
365.63	0.153
365.85	0.100
366.06	0.301
366.28	0.261
366.50	0.227
366.71	0.098
366.93	0.149
367.15	0.136
367.37	0.117
367.58	0.151
367.80	0.172
368.02	0.377
368.23	0.141
368.45	0.142
368.67	0.143
368.88	0.148
369.10	-0.000
369.32	0.145
369.53	0.083
369.75	0.146
369.97	0.384
370.19	0.300
370.40	0.119
370.62	0.373
370.84	0.118
371.05	0.503
371.27	0.107
371.49	0.121
371.70	0.156
371.92	0.210
372.14	0.088
372.35	0.108
372.57	0.107
372.79	0.261
373.00	0.069
373.22	0.111
373.44	0.122
373.65	0.107
373.87	0.156
374.09	0.744
374.30	0.148
374.52	0.178
374.74	0.109
374.95	0.441
375.17	0.117
375.39	-0.000
375.60	0.132
375.82	0.223
376.04	0.091
376.25	0.114
376.47	0.073
376.68	0.166
376.90	0.102
377.12	0.261
377.33	0.136
377.55	0.329
377.77	0.144
377.98	0.233
378.20	0.150
378.42	0.185
378.63	0.226
378.85	-0.000
379.07	0.163
379.28	0.612
379.50	0.316
379.71	0.176
379.93	0.126
380.15	0.179
380.36	0.268
380.58	0.171
380.80	0.549
381.01	0.156
381.23	0.128
381.44	0.123
381.66	0.145
381.88	0.189
382.09	-0.089
382.31	0.136
382.53	0.146
382.74	1.010
382.96	0.219
383.17	0.173
383.39	0.232
383.61	0.302
383.82	0.215
384.04	0.258
384.25	0.280
384.47	0.245
384.69	0.225
384.90	0.202
385.12	0.401
385.33	0.271
385.55	0.211
385.77	0.336
385.98	0.176
386.20	0.238
386.41	0.213
386.63	0.279
386.85	0.233
387.06	0.305
387.28	0.511
387.49	0.322
387.71	0.234
387.93	0.193
388.14	0.612
388.36	0.236
388.57	0.220
388.79	0.246
389.01	-0.000
389.22	0.334
389.44	0.293
389.65	0.236
389.87	0.223
390.08	0.258
390.30	0.209
390.52	0.403
390.73	0.376
390.95	0.253
391.16	0.236
391.38	-0.000
391.59	0.245
391.81	0.208
392.03	0.189
392.24	0.232
392.46	0.198
392.67	0.177
392.89	0.257
393.10	0.421
393.32	0.296
393.53	0.333
393.75	0.213
393.97	0.245
394.18	0.309
394.40	0.269
394.61	0.294
394.83	0.245
395.04	0.291
395.26	0.205
395.47	0.316
395.69	0.256
395.91	0.289
396.12	0.350
396.34	0.335
396.55	0.217
396.77	0.332
396.98	1.953
397.20	0.401
397.41	0.436
397.63	0.289
397.84	0.248
398.06	0.234
398.27	0.240
398.49	0.277
398.71	0.210
398.92	0.264
399.14	0.364
399.35	0.454
399.57	0.427
399.78	0.295
400.00	0.294
400.21	0.372
400.43	0.301
400.64	0.298
400.86	0.656
401.07	0.361
401.29	0.326
401.50	0.328
401.72	0.473
401.93	0.309
402.15	0.375
402.36	0.338
402.58	0.288
402.79	0.322
403.01	0.564
403.22	0.445
403.44	0.289
403.65	0.458
403.87	0.516
404.08	0.394
404.30	0.672
404.51	0.341
404.73	0.402
404.94	0.340
405.16	0.333
405.37	0.269
405.59	0.472
405.80	0.306
406.02	0.371
406.23	0.373
406.45	0.424
406.66	0.450
406.88	0.307
407.09	0.494
407.31	0.386
407.52	0.512
407.74	0.395
407.95	0.476
408.17	0.435
408.38	0.462
408.60	0.301
408.81	0.530
409.03	0.385
409.24	0.392
409.45	0.454
409.67	0.440
409.88	0.391
410.10	0.538
410.31	0.429
410.53	0.428
410.74	0.632
410.96	0.616
411.17	0.647
411.39	0.472
411.60	0.424
411.82	0.496
412.03	0.470
412.24	0.456
412.46	0.665
412.67	0.543
412.89	0.514
413.10	0.503
413.32	0.452
413.53	0.521
413.75	0.550
413.96	0.416
414.17	0.558
414.39	0.560
414.60	0.447
414.82	0.599
415.03	0.450
415.25	0.504
415.46	0.342
415.68	0.480
415.89	0.891
416.10	0.691
416.32	0.366
416.53	0.428
416.75	0.411
416.96	0.489
417.18	0.417
417.39	0.408
417.60	0.407
417.82	0.600
418.03	0.531
418.25	0.447
418.46	0.471
418.67	0.435
418.89	0.468
419.10	0.483
419.32	0.640
419.53	0.593
419.75	0.500
419.96	0.445
420.17	0.546
420.39	0.500
420.60	0.516
420.82	0.635
421.03	0.502
421.24	0.426
421.46	0.483
421.67	0.537
421.89	0.461
422.10	0.499
422.31	0.487
422.53	0.701
422.74	0.525
422.96	0.421
423.17	0.467
423.38	0.591
423.60	0.492
423.81	0.609
424.03	0.525
424.24	0.586
424.45	0.581
424.67	0.580
424.88	0.519
425.09	0.567
425.31	0.515
425.52	0.550
425.74	0.616
425.95	0.674
426.16	0.523
426.38	0.597
426.59	0.550
426.80	0.635
427.02	0.674
427.23	0.512
427.45	0.666
427.66	0.660
427.87	0.505
428.09	0.542
428.30	0.610
428.51	0.585
428.73	0.648
428.94	0.560
429.15	0.552
429.37	0.528
429.58	0.557
429.79	0.515
430.01	0.617
430.22	0.603
430.44	0.614
430.65	0.547
430.86	0.594
431.08	0.583
431.29	0.539
431.50	0.628
431.72	0.827
431.93	0.665
432.14	0.504
432.36	0.555
432.57	0.570
432.78	0.592
433.00	0.553
433.21	0.543
433.42	0.685
433.64	0.606
433.85	0.692
434.06	0.558
434.28	0.597
434.49	0.614
434.70	0.629
434.92	0.650
435.13	0.698
435.34	0.699
435.56	0.661
435.77	0.647
435.98	0.834
436.20	0.701
436.41	0.602
436.62	0.582
436.83	0.671
437.05	0.759
437.26	0.658
437.47	0.585
437.69	0.634
437.90	0.585
438.11	0.576
438.33	0.631
438.54	0.643
438.75	0.839
438.97	0.831
439.18	0.612
439.39	0.652
439.60	0.706
439.82	0.663
440.03	0.616
440.24	0.956
440.46	0.689
440.67	0.665
440.88	0.718
441.10	0.666
441.31	0.666
441.52	0.728
441.73	0.803
441.95	0.706
442.16	0.646
442.37	1.076
442.58	0.623
442.80	0.607
443.01	0.796
443.22	0.721
443.44	0.600
443.65	0.710
443.86	0.695
444.07	0.752
444.29	0.642
444.50	0.815
444.71	0.617
444.92	0.581
445.14	0.737
445.35	0.778
445.56	0.613
445.78	0.729
445.99	0.732
446.20	0.636
446.41	0.723
446.63	0.729
446.84	0.680
447.05	0.678
447.26	0.812
447.48	0.697
447.69	0.661
447.90	0.759
448.11	0.670
448.33	0.693
448.54	0.708
448.75	0.738
448.96	0.748
449.18	0.809
449.39	0.719
449.60	0.705
449.81	0.855
450.03	0.737
450.24	0.797
450.45	0.749
450.66	0.731
450.87	0.767
451.09	0.717
451.30	0.691
451.51	0.767
451.72	0.789
451.94	0.804
452.15	0.875
452.36	0.716
452.57	0.736
452.78	0.738
453.00	0.777
453.21	0.732
453.42	0.700
453.63	0.816
453.85	0.774
454.06	0.760
454.27	0.903
454.48	0.800
454.69	0.722
454.91	0.804
455.12	0.698
455.33	0.781
455.54	0.799
455.75	0.770
455.97	0.798
456.18	0.794
456.39	0.802
456.60	0.827
456.81	0.757
457.03	0.769
457.24	0.764
457.45	0.859
457.66	0.801
457.87	0.755
458.09	0.773
458.30	0.673
458.51	0.799
458.72	0.823
458.93	0.835
459.15	0.732
459.36	0.798
459.57	0.830
459.78	0.882
459.99	0.787
460.20	0.747
460.42	0.837
460.63	0.795
460.84	0.771
461.05	0.799
461.26	0.870
461.47	0.781
461.69	0.839
461.90	0.874
462.11	0.827
462.32	0.887
462.53	0.818
462.74	0.924
462.96	0.794
463.17	0.786
463.38	0.824
463.59	0.941
463.80	0.776
464.01	0.798
464.23	0.886
464.44	0.845
464.65	0.854
464.86	0.876
465.07	0.883
465.28	0.840
465.49	0.867
465.71	0.816
465.92	0.858
466.13	0.912
466.34	0.839
466.55	0.901
466.76	0.852
466.97	0.876
467.19	0.868
467.40	0.910
467.61	0.919
467.82	0.829
468.03	0.811
468.24	0.890
468.45	0.930
468.66	0.916
468.88	0.917
469.09	0.925
469.30	0.980
469.51	0.890
469.72	0.932
469.93	0.895
470.14	0.869
470.35	0.976
470.57	0.913
470.78	0.844
470.99	0.983
471.20	0.920
471.41	0.874
471.62	0.930
471.83	0.901
472.04	0.936
472.25	0.987
472.47	0.892
472.68	0.895
472.89	0.899
473.10	0.942
473.31	0.887
473.52	0.946
473.73	0.967
473.94	0.881
474.15	0.905
474.36	0.906
474.57	0.932
474.79	0.905
475.00	0.905
475.21	0.891
475.42	0.988
475.63	0.891
475.84	0.928
476.05	0.934
476.26	0.902
476.47	0.937
476.68	0.988
476.89	0.908
477.10	0.963
477.32	0.948
477.53	1.008
477.74	0.923
477.95	0.966
478.16	0.916
478.37	0.968
478.58	0.977
478.79	0.996
479.00	0.993
479.21	0.949
479.42	0.992
479.63	1.002
479.84	0.960
480.05	0.960
480.26	0.991
480.47	1.010
480.69	1.008
480.90	0.971
481.11	0.970
481.32	1.039
481.53	0.972
481.74	1.031
481.95	0.987
482.16	1.005
482.37	1.011
482.58	0.974
482.79	0.994
483.00	1.024
483.21	0.959
483.42	0.927
483.63	1.010
483.84	1.040
484.05	1.026
484.26	0.995
484.47	0.993
484.68	0.955
484.89	0.962
485.10	1.008
485.31	0.987
485.52	0.996
485.73	0.994
485.94	1.038
486.15	0.977
486.37	0.997
486.58	0.960
486.79	0.974
487.00	1.026
487.21	1.016
487.42	1.012
487.63	1.020
487.84	1.036
488.05	1.033
488.26	0.988
488.47	0.997
488.68	1.030
488.89	1.002
489.10	0.995
489.31	1.005
489.52	1.040
489.73	1.006
489.94	1.042
490.15	0.999
490.36	1.043
490.57	0.993
490.78	0.978
490.99	1.013
491.20	1.101
491.41	1.054
491.62	0.991
491.83	1.022
492.04	1.016
492.25	1.026
492.45	1.027
492.66	1.054
492.87	1.042
493.08	1.029
493.29	1.016
493.50	1.003
493.71	1.015
493.92	1.012
494.13	1.031
494.34	1.055
494.55	1.060
494.76	1.093
494.97	1.083
495.18	1.043
495.39	1.059
495.60	1.003
495.81	1.008
496.02	1.025
496.23	1.015
496.44	1.051
496.65	1.040
496.86	1.045
497.07	1.073
497.28	1.069
497.49	1.015
497.70	1.015
497.91	1.042
498.12	1.020
498.32	1.067
498.53	1.053
498.74	1.040
498.95	1.070
499.16	1.020
499.37	1.026
499.58	1.037
499.79	1.065
500.00	1.062
500.21	1.090
500.42	1.031
500.63	1.032
500.84	1.052
501.05	1.029
501.26	1.056
501.46	1.098
501.67	1.054
501.88	1.056
502.09	1.030
502.30	1.038
502.51	1.092
502.72	1.039
502.93	1.057
503.14	1.083
503.35	1.050
503.56	1.045
503.77	1.078
503.97	1.055
504.18	1.054
504.39	1.093
504.60	1.061
504.81	1.092
505.02	1.083
505.23	1.082
505.44	1.060
505.65	1.070
505.86	1.051
506.07	1.127
506.27	1.079
506.48	1.085
506.69	1.070
506.90	1.088
507.11	1.084
507.32	1.058
507.53	1.068
507.74	1.060
507.95	1.074
508.15	1.081
508.36	1.083
508.57	1.096
508.78	1.078
508.99	1.073
509.20	1.048
509.41	1.074
509.62	1.058
509.82	1.052
510.03	1.067
510.24	1.067
510.45	1.092
510.66	1.088
510.87	1.083
511.08	1.040
511.29	1.086
511.49	1.063
511.70	1.113
511.91	1.041
512.12	1.040
512.33	1.074
512.54	1.090
512.75	1.069
512.95	1.095
513.16	1.086
513.37	1.059
513.58	1.102
513.79	1.060
514.00	1.069
514.20	1.089
514.41	1.077
514.62	1.043
514.83	1.088
515.04	1.077
515.25	1.053
515.46	1.065
515.66	1.067
515.87	1.079
516.08	1.046
516.29	1.072
516.50	1.052
516.71	1.045
516.91	1.055
517.12	1.075
517.33	1.060
517.54	1.047
517.75	1.050
517.95	1.065
518.16	1.079
518.37	1.042
518.58	1.049
518.79	1.020
519.00	1.054
519.20	1.066
519.41	1.038
519.62	1.059
519.83	1.069
520.04	1.029
520.24	1.026
520.45	1.031
520.66	1.057
520.87	1.016
521.08	1.012
521.28	1.016
521.49	1.031
521.70	0.998
521.91	1.012
522.12	0.993
522.32	1.019
522.53	1.001
522.74	0.992
522.95	1.002
523.16	1.005
523.36	1.019
523.57	0.998
523.78	0.993
523.99	0.997
524.20	0.990
524.40	1.004
524.61	1.011
524.82	0.984
525.03	0.990
525.23	0.990
525.44	0.971
525.65	0.970
525.86	0.995
526.06	0.964
526.27	0.965
526.48	0.978
526.69	0.959
526.90	0.963
527.10	0.999
527.31	0.951
527.52	0.943
527.73	0.936
527.93	0.946
528.14	0.951
528.35	0.940
528.56	0.941
528.76	0.931
528.97	0.921
529.18	0.911
529.39	0.912
529.59	0.914
529.80	0.946
530.01	0.918
530.22	0.918
530.42	0.886
530.63	0.906
530.84	0.882
531.05	0.897
531.25	0.901
531.46	0.893
531.67	0.868
531.88	0.888
532.08	0.882
532.29	0.876
532.50	0.867
532.70	0.860
532.91	0.849
533.12	0.851
533.33	0.876
533.53	0.844
533.74	0.843
533.95	0.852
534.15	0.840
534.36	0.842
534.57	0.824
534.78	0.827
534.98	0.838
535.19	0.807
535.40	0.810
535.60	0.829
535.81	0.807
536.02	0.811
536.23	0.801
536.43	0.802
536.64	0.788
536.85	0.795
537.05	0.802
537.26	0.779
537.47	0.782
537.67	0.770
537.88	0.766
538.09	0.774
538.30	0.762
538.50	0.754
538.71	0.766
538.92	0.752
539.12	0.748
539.33	0.744
539.54	0.743
539.74	0.747
539.95	0.738
540.16	0.735
540.36	0.726
540.57	0.725
540.78	0.718
540.98	0.717
541.19	0.714
541.40	0.701
541.60	0.712
541.81	0.707
542.02	0.707
542.22	0.697
542.43	0.690
542.64	0.685
542.84	0.684
543.05	0.675
543.26	0.675
543.46	0.679
543.67	0.677
543.88	0.672
544.08	0.661
544.29	0.656
544.50	0.655
544.70	0.656
544.91	0.647
545.12	0.649
545.32	0.643
545.53	0.646
545.74	0.635
545.94	0.631
546.15	0.629
546.35	0.626
546.56	0.623
546.77	0.620
546.97	0.617
547.18	0.609
547.39	0.610
547.59	0.609
547.80	0.605
548.01	0.608
548.21	0.604
548.42	0.595
548.62	0.594
548.83	0.590
549.04	0.587
549.24	0.580
549.45	0.579
549.65	0.575
549.86	0.570
550.07	0.569
550.27	0.567
550.48	0.575
550.69	0.560
550.89	0.561
551.10	0.557
551.30	0.555
551.51	0.555
551.72	0.544
551.92	0.545
552.13	0.544
552.33	0.544
552.54	0.539
552.75	0.532
552.95	0.534
553.16	0.528
553.36	0.526
553.57	0.524
553.78	0.522
553.98	0.521
554.19	0.512
554.39	0.510
554.60	0.513
554.80	0.512
555.01	0.503
555.22	0.504
555.42	0.500
555.63	0.493
555.83	0.497
556.04	0.490
556.25	0.492
556.45	0.483
556.66	0.480
556.86	0.484
557.07	0.482
557.27	0.481
557.48	0.476
557.68	0.474
557.89	0.474
558.10	0.471
558.30	0.469
558.51	0.467
558.71	0.465
558.92	0.460
559.12	0.461
559.33	0.463
559.54	0.458
559.74	0.453
559.95	0.451
560.15	0.451
560.36	0.449
560.56	0.443
560.77	0.444
560.97	0.443
561.18	0.438
561.38	0.438
561.59	0.441
561.79	0.436
562.00	0.434
562.21	0.430
562.41	0.429
562.62	0.427
562.82	0.425
563.03	0.421
563.23	0.421
563.44	0.421
563.64	0.417
563.85	0.418
564.05	0.412
564.26	0.411
564.46	0.410
564.67	0.411
564.87	0.406
565.08	0.403
565.28	0.403
565.49	0.404
565.69	0.401
565.90	0.398
566.10	0.400
566.31	0.393
566.51	0.394
566.72	0.395
566.92	0.388
567.13	0.388
567.33	0.386
567.54	0.384
567.74	0.383
567.95	0.380
568.15	0.381
568.36	0.381
568.56	0.379
568.77	0.374
568.97	0.373
569.18	0.373
569.38	0.371
569.59	0.373
569.79	0.370
570.00	0.367
570.20	0.365
570.41	0.363
570.61	0.362
570.82	0.362
571.02	0.358
571.23	0.360
571.43	0.356
571.64	0.354
571.84	0.353
572.05	0.352
572.25	0.352
572.45	0.350
572.66	0.347
572.86	0.346
573.07	0.345
573.27	0.344
573.48	0.342
573.68	0.339
573.89	0.338
574.09	0.339
574.30	0.338
574.50	0.336
574.70	0.336
574.91	0.334
575.11	0.334
575.32	0.334
575.52	0.330
575.73	0.330
575.93	0.329
576.14	0.328
576.34	0.326
576.54	0.325
576.75	0.323
576.95	0.322
577.16	0.321
577.36	0.319
577.57	0.318
577.77	0.316
577.97	0.313
578.18	0.315
578.38	0.312
578.59	0.310
578.79	0.309
579.00	0.309
579.20	0.307
579.40	0.307
579.61	0.306
579.81	0.305
580.02	0.303
580.22	0.303
580.42	0.301
580.63	0.301
580.83	0.300
581.04	0.298
581.24	0.298
581.45	0.297
581.65	0.296
581.85	0.295
582.06	0.293
582.26	0.294
582.47	0.292
582.67	0.292
582.87	0.291
583.08	0.288
583.28	0.288
583.48	0.286
583.69	0.283
583.89	0.283
584.10	0.284
584.30	0.281
584.50	0.279
584.71	0.278
584.91	0.278
585.12	0.276
585.32	0.277
585.52	0.274
585.73	0.273
585.93	0.273
586.13	0.272
586.34	0.271
586.54	0.270
586.75	0.269
586.95	0.268
587.15	0.268
587.36	0.267
587.56	0.266
587.76	0.265
587.97	0.264
588.17	0.262
588.37	0.262
588.58	0.262
588.78	0.260
588.98	0.260
589.19	0.259
589.39	0.257
589.60	0.259
589.80	0.256
590.00	0.255
590.21	0.255
590.41	0.254
590.61	0.253
590.82	0.253
591.02	0.252
591.22	0.250
591.43	0.251
591.63	0.249
591.83	0.248
592.04	0.247
592.24	0.248
592.44	0.245
592.65	0.244
592.85	0.243
593.05	0.243
593.26	0.242
593.46	0.241
593.66	0.241
593.86	0.240
594.07	0.239
594.27	0.239
594.47	0.237
594.68	0.236
594.88	0.237
595.08	0.237
595.29	0.237
595.49	0.234
595.69	0.234
595.90	0.233
596.10	0.234
596.30	0.233
596.50	0.232
596.71	0.231
596.91	0.231
597.11	0.230
597.32	0.229
597.52	0.228
597.72	0.228
597.93	0.227
598.13	0.226
598.33	0.226
598.53	0.225
598.74	0.225
598.94	0.224
599.14	0.223
599.35	0.223
599.55	0.223
599.75	0.222
599.95	0.221
600.16	0.221
600.36	0.219
600.56	0.219
600.76	0.218
600.97	0.217
601.17	0.217
601.37	0.216
601.58	0.215
601.78	0.216
601.98	0.214
602.18	0.213
602.39	0.213
602.59	0.213
602.79	0.212
602.99	0.212
603.20	0.211
603.40	0.211
603.60	0.211
603.80	0.210
604.01	0.210
604.21	0.209
604.41	0.208
604.61	0.207
604.82	0.207
605.02	0.208
605.22	0.207
605.42	0.206
605.62	0.207
605.83	0.205
606.03	0.205
606.23	0.205
606.43	0.204
606.64	0.204
606.84	0.203
607.04	0.203
607.24	0.203
607.45	0.203
607.65	0.201
607.85	0.202
608.05	0.200
608.25	0.200
608.46	0.200
608.66	0.199
608.86	0.198
609.06	0.197
609.26	0.196
609.47	0.197
609.67	0.195
609.87	0.196
610.07	0.196
610.28	0.194
610.48	0.194
610.68	0.195
610.88	0.194
611.08	0.195
611.29	0.193
611.49	0.193
611.69	0.194
611.89	0.192
612.09	0.191
612.29	0.191
612.50	0.190
612.70	0.190
612.90	0.188
613.10	0.188
613.30	0.188
613.51	0.188
613.71	0.187
613.91	0.191
614.11	0.186
614.31	0.186
614.51	0.186
614.72	0.185
614.92	0.185
615.12	0.185
615.32	0.185
615.52	0.184
615.72	0.185
615.93	0.184
616.13	0.184
616.33	0.184
616.53	0.183
616.73	0.184
616.93	0.182
617.14	0.183
617.34	0.183
617.54	0.182
617.74	0.182
617.94	0.181
618.14	0.181
618.34	0.180
618.55	0.179
618.75	0.180
618.95	0.180
619.15	0.179
619.35	0.178
619.55	0.177
619.75	0.179
619.96	0.178
620.16	0.178
620.36	0.178
620.56	0.177
620.76	0.177
620.96	0.177
621.16	0.176
621.36	0.176
621.57	0.176
621.77	0.177
621.97	0.175
622.17	0.175
622.37	0.175
622.57	0.175
622.77	0.174
622.97	0.173
623.18	0.173
623.38	0.174
623.58	0.173
623.78	0.172
623.98	0.172
624.18	0.172
624.38	0.171
624.58	0.172
624.78	0.172
624.98	0.172
625.19	0.171
625.39	0.172
625.59	0.171
625.79	0.171
625.99	0.170
626.19	0.170
626.39	0.170
626.59	0.170
626.79	0.169
626.99	0.169
627.19	0.169
627.40	0.169
627.60	0.168
627.80	0.168
628.00	0.168
628.20	0.167
628.40	0.167
628.60	0.167
628.80	0.166
629.00	0.166
629.20	0.165
629.40	0.165
629.60	0.164
629.80	0.164
630.00	0.164
630.20	0.164
630.41	0.164
630.61	0.164
630.81	0.164
631.01	0.164
631.21	0.163
631.41	0.164
631.61	0.164
631.81	0.163
632.01	0.163
632.21	0.163
632.41	0.161
632.61	0.161
632.81	0.161
633.01	0.161
633.21	0.161
633.41	0.161
633.61	0.160
633.81	0.160
634.01	0.160
634.21	0.159
634.41	0.158
634.61	0.159
634.81	0.159
635.01	0.158
635.22	0.159
635.42	0.158
635.62	0.158
635.82	0.158
636.02	0.158
636.22	0.158
636.42	0.157
636.62	0.158
636.82	0.157
637.02	0.157
637.22	0.157
637.42	0.156
637.62	0.156
637.82	0.155
638.02	0.155
638.22	0.154
638.42	0.154
638.62	0.153
638.82	0.153
639.02	0.153
639.22	0.153
639.42	0.152
639.62	0.152
639.82	0.151
640.02	0.152
640.22	0.152
640.42	0.152
640.62	0.152
640.82	0.152
641.02	0.151
641.22	0.152
641.42	0.151
641.61	0.151
641.81	0.151
642.01	0.151
642.21	0.151
642.41	0.151
642.61	0.151
642.81	0.150
643.01	0.150
643.21	0.150
643.41	0.150
643.61	0.150
643.81	0.149
644.01	0.148
644.21	0.147
644.41	0.148
644.61	0.148
644.81	0.148
645.01	0.148
645.21	0.147
645.41	0.147
645.61	0.147
645.81	0.146
646.01	0.146
646.21	0.147
646.40	0.146
646.60	0.146
646.80	0.147
647.00	0.146
647.20	0.145
647.40	0.145
647.60	0.145
647.80	0.145
648.00	0.145
648.20	0.145
648.40	0.144
648.60	0.144
648.80	0.143
649.00	0.143
649.20	0.144
649.39	0.143
649.59	0.142
649.79	0.142
649.99	0.142
650.19	0.141
650.39	0.141
650.59	0.141
650.79	0.141
650.99	0.140
651.19	0.140
651.39	0.140
651.58	0.140
651.78	0.140
651.98	0.140
652.18	0.139
652.38	0.139
652.58	0.140
652.78	0.139
652.98	0.138
653.18	0.139
653.38	0.139
653.57	0.138
653.77	0.139
653.97	0.138
654.17	0.138
654.37	0.138
654.57	0.138
654.77	0.137
654.97	0.137
655.16	0.137
655.36	0.136
655.56	0.136
655.76	0.135
655.96	0.135
656.16	0.134
656.36	0.134
656.56	0.134
656.75	0.133
656.95	0.133
657.15	0.134
657.35	0.133
657.55	0.133
657.75	0.133
657.95	0.133
658.14	0.133
658.34	0.133
658.54	0.133
658.74	0.133
658.94	0.133
659.14	0.133
659.34	0.133
659.53	0.132
659.73	0.132
659.93	0.131
660.13	0.131
660.33	0.131
660.53	0.131
660.72	0.131
660.92	0.131
661.12	0.130
661.32	0.130
661.52	0.129
661.72	0.129
661.91	0.129
662.11	0.129
662.31	0.129
662.51	0.129
662.71	0.128
662.90	0.127
663.10	0.127
663.30	0.127
663.50	0.127
663.70	0.127
663.90	0.127
664.09	0.126
664.29	0.126
664.49	0.125
664.69	0.125
664.89	0.125
665.08	0.126
665.28	0.125
665.48	0.125
665.68	0.125
665.88	0.125
666.07	0.124
666.27	0.124
666.47	0.124
666.67	0.124
666.87	0.124
667.06	0.124
667.26	0.123
667.46	0.123
667.66	0.123
667.85	0.123
668.05	0.123
668.25	0.123
668.45	0.123
668.65	0.123
668.84	0.122
669.04	0.122
669.24	0.122
669.44	0.121
669.63	0.121
669.83	0.121
670.03	0.120
670.23	0.120
670.42	0.119
670.62	0.119
670.82	0.118
671.02	0.118
671.22	0.117
671.41	0.117
671.61	0.118
671.81	0.118
672.01	0.118
672.20	0.117
672.40	0.117
672.60	0.117
672.80	0.117
672.99	0.117
673.19	0.117
673.39	0.116
673.58	0.116
673.78	0.116
673.98	0.115
674.18	0.115
674.37	0.115
674.57	0.115
674.77	0.115
674.97	0.115
675.16	0.115
675.36	0.114
675.56	0.114
675.75	0.114
675.95	0.114
676.15	0.114
676.35	0.114
676.54	0.114
676.74	0.113
676.94	0.114
677.13	0.113
677.33	0.113
677.53	0.113
677.73	0.113
677.92	0.112
678.12	0.112
678.32	0.112
678.51	0.112
678.71	0.112
678.91	0.111
679.11	0.111
679.30	0.111
679.50	0.111
679.70	0.110
679.89	0.110
680.09	0.110
680.29	0.110
680.48	0.110
680.68	0.109
680.88	0.109
681.07	0.110
681.27	0.109
681.47	0.109
681.66	0.109
681.86	0.109
682.06	0.108
682.25	0.108
682.45	0.108
682.65	0.108
682.84	0.107
683.04	0.107
683.24	0.107
683.43	0.107
683.63	0.107
683.83	0.107
684.02	0.107
684.22	0.106
684.42	0.106
684.61	0.106
684.81	0.106
685.01	0.105
685.20	0.104
685.40	0.105
685.60	0.104
685.79	0.104
685.99	0.104
686.19	0.104
686.38	0.104
686.58	0.104
686.77	0.104
686.97	0.104
687.17	0.104
687.36	0.104
687.56	0.103
687.76	0.103
687.95	0.103
688.15	0.103
688.34	0.103
688.54	0.102
688.74	0.102
688.93	0.102
689.13	0.102
689.33	0.102
689.52	0.101
689.72	0.102
689.91	0.101
690.11	0.101
690.31	0.101
690.50	0.101
690.70	0.101
690.89	0.101
691.09	0.101
691.29	0.101
691.48	0.100
691.68	0.100
691.87	0.100
692.07	0.100
692.27	0.100
692.46	0.100
692.66	0.100
692.85	0.099
693.05	0.099
693.25	0.099
693.44	0.099
693.64	0.099
693.83	0.099
694.03	0.098
694.22	0.098
694.42	0.098
694.62	0.098
694.81	0.097
695.01	0.098
695.20	0.097
695.40	0.097
695.59	0.097
695.79	0.096
695.99	0.096
696.18	0.096
696.38	0.096
696.57	0.096
696.77	0.095
696.96	0.096
697.16	0.096
697.36	0.095
697.55	0.096
697.75	0.095
697.94	0.095
698.14	0.096
698.33	0.095
698.53	0.095
698.72	0.096
698.92	0.096
699.11	0.095
699.31	0.095
699.51	0.095
699.70	0.094
699.90	0.094
700.09	0.095
700.29	0.094
700.48	0.094
700.68	0.094
700.87	0.094
701.07	0.093
701.26	0.093
701.46	0.093
701.65	0.093
701.85	0.093
702.04	0.093
702.24	0.092
702.43	0.092
702.63	0.092
702.82	0.092
703.02	0.092
703.21	0.092
703.41	0.092
703.60	0.092
703.80	0.091
703.99	0.091
704.19	0.091
704.38	0.091
704.58	0.090
704.77	0.090
704.97	0.090
705.16	0.090
705.36	0.090
705.55	0.090
705.75	0.090
705.94	0.090
706.14	0.090
706.33	0.090
706.53	0.091
706.72	0.091
706.92	0.090
707.11	0.090
707.31	0.090
707.50	0.090
707.70	0.090
707.89	0.090
708.09	0.089
708.28	0.089
708.48	0.089
708.67	0.089
708.86	0.089
709.06	0.089
709.25	0.089
709.45	0.089
709.64	0.089
709.84	0.089
710.03	0.089
710.23	0.089
710.42	0.089
710.62	0.088
710.81	0.088
711.00	0.089
711.20	0.088
711.39	0.087
711.59	0.087
711.78	0.087
711.98	0.087
712.17	0.087
712.37	0.087
712.56	0.087
712.75	0.087
712.95	0.088
713.14	0.087
713.34	0.088
713.53	0.088
713.73	0.088
713.92	0.088
714.11	0.088
714.31	0.088
714.50	0.088
714.70	0.087
714.89	0.087
715.08	0.087
715.28	0.087
715.47	0.087
715.67	0.087
715.86	0.087
716.06	0.087
716.25	0.087
716.44	0.087
716.64	0.086
716.83	0.087
717.03	0.086
717.22	0.086
717.41	0.086
717.61	0.085
717.80	0.086
717.99	0.086
718.19	0.086
718.38	0.086
718.58	0.085
718.77	0.085
718.96	0.085
719.16	0.085
719.35	0.085
719.55	0.084
719.74	0.084
719.93	0.084
720.13	0.085
720.32	0.085
720.51	0.085
720.71	0.085
720.90	0.085
721.10	0.085
721.29	0.084
721.48	0.084
721.68	0.084
721.87	0.084
722.06	0.084
722.26	0.085
722.45	0.084
722.64	0.084
722.84	0.084
723.03	0.085
723.22	0.085
723.42	0.085
723.61	0.085
723.80	0.085
724.00	0.085
724.19	0.085
724.38	0.085
724.58	0.085
724.77	0.085
724.96	0.085
725.16	0.085
725.35	0.085
725.54	0.085
725.74	0.085
725.93	0.085
726.12	0.085
726.32	0.085
726.51	0.085
726.70	0.084
726.90	0.085
727.09	0.084
727.28	0.084
727.48	0.084
727.67	0.084
727.86	0.084
728.06	0.084
728.25	0.084
728.44	0.084
728.64	0.084
728.83	0.084
729.02	0.084
729.21	0.084
729.41	0.084
729.60	0.084
729.79	0.084
729.99	0.084
730.18	0.084
730.37	0.084
730.56	0.084
730.76	0.084
730.95	0.084
731.14	0.084
731.34	0.084
731.53	0.084
731.72	0.084
731.91	0.084
732.11	0.084
732.30	0.084
732.49	0.084
732.69	0.084
732.88	0.085
733.07	0.085
733.26	0.085
733.46	0.085
733.65	0.085
733.84	0.085
734.03	0.085
734.23	0.085
734.42	0.085
734.61	0.085
734.80	0.084
735.00	0.084
735.19	0.084
735.38	0.084
735.57	0.084
735.77	0.084
735.96	0.084
736.15	0.084
736.34	0.084
736.54	0.085
736.73	0.085
736.92	0.085
737.11	0.085
737.31	0.084
737.50	0.084
737.69	0.084
737.88	0.084
738.07	0.084
738.27	0.084
738.46	0.084
738.65	0.084
738.84	0.084
739.04	0.084
739.23	0.084
739.42	0.084
739.61	0.084
739.80	0.084
740.00	0.084
740.19	0.084
740.38	0.084
740.57	0.084
740.76	0.084
740.96	0.084
741.15	0.084
741.34	0.084
741.53	0.084
741.72	0.084
741.92	0.083
742.11	0.083
742.30	0.083
742.49	0.083
742.68	0.083
742.88	0.083
743.07	0.083
743.26	0.083
743.45	0.083
743.64	0.082
743.84	0.082
744.03	0.082
744.22	0.082
744.41	0.082
744.60	0.082
744.79	0.082
744.99	0.082
745.18	0.082
745.37	0.082
745.56	0.082
745.75	0.082
745.94	0.082
746.14	0.083
746.33	0.083
746.52	0.083
746.71	0.083
746.90	0.083
747.09	0.082
747.28	0.082
747.48	0.082
747.67	0.082
747.86	0.082
748.05	0.082
748.24	0.081
748.43	0.081
748.62	0.081
748.82	0.081
749.01	0.081
749.20	0.080
749.39	0.081
749.58	0.081
749.77	0.081
749.96	0.081
750.16	0.080
750.35	0.081
750.54	0.081
750.73	0.081
750.92	0.081
751.11	0.081
751.30	0.081
751.49	0.081
751.68	0.081
751.88	0.081
752.07	0.081
752.26	0.081
752.45	0.081
752.64	0.080
752.83	0.081
753.02	0.080
753.21	0.080
753.40	0.080
753.60	0.080
753.79	0.080
753.98	0.080
754.17	0.080
754.36	0.079
754.55	0.079
754.74	0.079
754.93	0.079
755.12	0.079
755.31	0.079
755.50	0.079
755.70	0.079
755.89	0.079
756.08	0.079
756.27	0.079
756.46	0.079
756.65	0.079
756.84	0.079
757.03	0.079
757.22	0.079
757.41	0.079
757.60	0.079
757.79	0.079
757.98	0.079
758.17	0.079
758.36	0.079
758.56	0.078
758.75	0.078
758.94	0.078
759.13	0.078
759.32	0.078
759.51	0.078
759.70	0.078
759.89	0.078
760.08	0.077
760.27	0.077
760.46	0.077
760.65	0.077
760.84	0.077
761.03	0.078
761.22	0.078
761.41	0.078
761.60	0.078
761.79	0.077
761.98	0.078
762.17	0.077
762.36	0.077
762.55	0.077
762.74	0.077
762.93	0.077
763.12	0.076
763.31	0.076
763.50	0.076
763.69	0.076
763.88	0.076
764.07	0.076
764.26	0.076
764.45	0.076
764.64	0.076
764.83	0.076
765.02	0.076
765.21	0.076
765.40	0.076
765.59	0.076
765.78	0.076
765.97	0.077
766.16	0.076
766.35	0.077
766.54	0.077
766.73	0.077
766.92	0.077
767.11	0.076
767.30	0.077
767.49	0.077
767.68	0.077
767.87	0.076
768.06	0.076
768.25	0.076
768.44	0.076
768.63	0.075
768.82	0.075
769.01	0.075
769.20	0.075
769.39	0.075
769.58	0.076
769.77	0.075
769.96	0.076
770.15	0.076
770.34	0.076
770.53	0.076
770.72	0.075
770.91	0.075
771.10	0.076
771.29	0.075
771.47	0.075
771.66	0.075
771.85	0.075
772.04	0.075
772.23	0.075
772.42	0.075
772.61	0.075
772.80	0.075
772.99	0.075
773.18	0.075
773.37	0.075
773.56	0.075
773.75	0.075
773.94	0.075
774.13	0.074
774.31	0.074
774.50	0.074
774.69	0.074
774.88	0.074
775.07	0.074
775.26	0.074
775.45	0.073
775.64	0.073
775.83	0.073
776.02	0.073
776.21	0.073
776.40	0.073
776.58	0.073
776.77	0.073
776.96	0.073
777.15	0.073
777.34	0.073
777.53	0.074
777.72	0.074
777.91	0.074
778.10	0.074
778.28	0.074
778.47	0.074
778.66	0.073
778.85	0.073
779.04	0.073
779.23	0.073
779.42	0.073
779.61	0.073
779.79	0.073
779.98	0.072
780.17	0.073
780.36	0.072
780.55	0.072
780.74	0.072
780.93	0.072
781.12	0.072
781.30	0.072
781.49	0.072
781.68	0.072
781.87	0.072
782.06	0.072
782.25	0.072
782.44	0.072
782.62	0.072
782.81	0.073
783.00	0.072
783.19	0.072
783.38	0.072
783.57	0.072
783.75	0.072
783.94	0.072
784.13	0.071
784.32	0.071
784.51	0.071
784.70	0.071
784.88	0.071
785.07	0.071
785.26	0.070
785.45	0.071
785.64	0.070
785.83	0.071
786.01	0.071
786.20	0.071
786.39	0.071
786.58	0.071
786.77	0.071
786.95	0.072
787.14	0.072
787.33	0.072
787.52	0.071
787.71	0.072
787.90	0.072
788.08	0.072
788.27	0.072
788.46	0.071
788.65	0.071
788.84	0.072
789.02	0.071
789.21	0.071
789.40	0.071
789.59	0.071
789.77	0.072
789.96	0.071
790.15	0.072
790.34	0.071
790.53	0.071
790.71	0.071
790.90	0.071
791.09	0.070
791.28	0.071
791.46	0.071
791.65	0.070
791.84	0.070
792.03	0.070
792.22	0.070
792.40	0.070
792.59	0.070
792.78	0.070
792.97	0.071
793.15	0.071
793.34	0.071
793.53	0.071
793.72	0.071
793.90	0.071
794.09	0.071
794.28	0.071
794.47	0.071
794.65	0.071
794.84	0.071
795.03	0.070
795.22	0.071
795.40	0.071
795.59	0.070
795.78	0.070
795.97	0.070
796.15	0.071
796.34	0.070
796.53	0.070
796.71	0.071
796.90	0.070
797.09	0.071
797.28	0.071
797.46	0.071
797.65	0.071
797.84	0.071
798.02	0.070
798.21	0.070
798.40	0.070
798.59	0.069
798.77	0.069
798.96	0.069
799.15	0.069
799.33	0.069
799.52	0.068
799.71	0.068
799.90	0.069
800.08	0.069
800.27	0.069
800.46	0.069
800.64	0.069
800.83	0.069
801.02	0.069
801.20	0.069
801.39	0.069
801.58	0.069
801.76	0.069
801.95	0.069
802.14	0.069
802.32	0.069
802.51	0.069
802.70	0.069
802.88	0.068
803.07	0.069
803.26	0.068
803.44	0.068
803.63	0.068
803.82	0.068
804.00	0.068
804.19	0.068
804.38	0.068
804.56	0.068
804.75	0.069
804.94	0.069
805.12	0.069
805.31	0.069
805.50	0.069
805.68	0.068
805.87	0.069
806.06	0.069
806.24	0.069
806.43	0.068
806.62	0.068
806.80	0.068
806.99	0.068
807.17	0.068
807.36	0.068
807.55	0.068
807.73	0.068
807.92	0.068
808.11	0.068
808.29	0.068
808.48	0.068
808.66	0.068
808.85	0.068
809.04	0.068
809.22	0.068
809.41	0.068
809.59	0.068
809.78	0.067
809.97	0.067
810.15	0.068
810.34	0.068
810.53	0.068
810.71	0.068
810.90	0.068
811.08	0.068
811.27	0.068
811.45	0.068
811.64	0.068
811.83	0.068
812.01	0.068
812.20	0.067
812.38	0.068
812.57	0.068
812.76	0.068
812.94	0.068
813.13	0.068
813.31	0.068
813.50	0.068
813.68	0.068
813.87	0.068
814.06	0.068
814.24	0.068
814.43	0.068
814.61	0.068
814.80	0.067
814.98	0.068
815.17	0.067
815.36	0.067
815.54	0.068
815.73	0.068
815.91	0.068
816.10	0.068
816.28	0.068
816.47	0.067
816.65	0.067
816.84	0.068
817.03	0.068
817.21	0.068
817.40	0.068
817.58	0.068
817.77	0.068
817.95	0.068
818.14	0.068
818.32	0.068
818.51	0.068
818.69	0.068
818.88	0.068
819.06	0.068
819.25	0.068
819.43	0.068
819.62	0.068
819.80	0.068
819.99	0.068
820.18	0.068
820.36	0.068
820.55	0.068
820.73	0.068
820.92	0.068
821.10	0.068
821.29	0.068
821.47	0.068
821.66	0.068
821.84	0.068
822.03	0.068
822.21	0.068
822.40	0.068
822.58	0.068
822.77	0.068
822.95	0.069
823.14	0.068
823.32	0.069
823.50	0.069
823.69	0.069
823.87	0.069
824.06	0.069
824.24	0.069
824.43	0.069
824.61	0.070
824.80	0.070
824.98	0.070
825.17	0.070
825.35	0.070
825.54	0.070
825.72	0.069
825.91	0.069
826.09	0.069
826.28	0.069
826.46	0.070
826.64	0.069
826.83	0.070
827.01	0.070
827.20	0.070
827.38	0.070
827.57	0.070
827.75	0.070
827.94	0.070
828.12	0.071
828.31	0.071
828.49	0.071
828.67	0.071
828.86	0.071
829.04	0.071
829.23	0.071
829.41	0.071
829.60	0.071
829.78	0.071
829.96	0.072
830.15	0.072
830.33	0.072
830.52	0.072
830.70	0.072
830.88	0.072
831.07	0.073
831.25	0.073
831.44	0.073
831.62	0.073
831.81	0.073
831.99	0.072
832.17	0.073
832.36	0.073
832.54	0.073
832.73	0.073
832.91	0.073
833.09	0.072
833.28	0.073
833.46	0.073
833.65	0.073
833.83	0.073
834.01	0.073
834.20	0.073
834.38	0.073
834.56	0.073
834.75	0.073
834.93	0.074
835.12	0.074
835.30	0.074
835.48	0.074
835.67	0.074
835.85	0.074
836.03	0.074
836.22	0.074
836.40	0.074
836.59	0.074
836.77	0.074
836.95	0.074
837.14	0.074
837.32	0.074
837.50	0.074
837.69	0.074
837.87	0.074
838.05	0.074
838.24	0.075
838.42	0.074
838.60	0.074
838.79	0.075
838.97	0.074
839.15	0.075
839.34	0.075
839.52	0.075
839.70	0.075
839.89	0.075
840.07	0.075
840.25	0.075
840.44	0.075
840.62	0.074
840.80	0.074
840.99	0.075
841.17	0.075
841.35	0.075
841.54	0.074
841.72	0.075
841.90	0.075
842.09	0.075
842.27	0.075
842.45	0.075
842.64	0.075
842.82	0.075
843.00	0.075
843.19	0.075
843.37	0.075
843.55	0.075
843.73	0.075
843.92	0.075
844.10	0.075
844.28	0.075
844.47	0.075
844.65	0.075
844.83	0.075
845.01	0.075
845.20	0.076
845.38	0.076
845.56	0.076
845.75	0.076
845.93	0.076
846.11	0.076
846.29	0.076
846.48	0.076
846.66	0.076
846.84	0.076
847.02	0.075
847.21	0.075
847.39	0.076
847.57	0.076
847.76	0.076
847.94	0.076
848.12	0.076
848.30	0.076
848.49	0.076
848.67	0.076
848.85	0.076
849.03	0.076
849.22	0.076
849.40	0.076
849.58	0.076
849.76	0.076
849.95	0.076
850.13	0.077
850.31	0.077
850.49	0.077
850.67	0.077
850.86	0.077
851.04	0.077
851.22	0.077
851.40	0.077
851.59	0.077
851.77	0.077
851.95	0.077
852.13	0.077
852.31	0.076
852.50	0.077
852.68	0.077
852.86	0.077
853.04	0.077
853.23	0.077
853.41	0.077
853.59	0.077
853.77	0.077
853.95	0.077
854.14	0.077
854.32	0.077
854.50	0.077
854.68	0.076
854.86	0.077
855.04	0.077
855.23	0.077
855.41	0.077
855.59	0.077
855.77	0.077
855.95	0.077
856.14	0.077
856.32	0.077
856.50	0.077
856.68	0.077
856.86	0.077
857.04	0.077
857.23	0.077
857.41	0.077
857.59	0.077
857.77	0.077
857.95	0.076
858.13	0.077
858.32	0.077
858.50	0.077
858.68	0.076
858.86	0.077
859.04	0.077
859.22	0.077
859.41	0.077
859.59	0.077
859.77	0.077
859.95	0.077
860.13	0.077
860.31	0.077
860.49	0.077
860.68	0.077
860.86	0.077
861.04	0.077
861.22	0.077
861.40	0.077
861.58	0.076
861.76	0.076
861.94	0.076
862.13	0.076
862.31	0.076
862.49	0.076
862.67	0.076
862.85	0.077
863.03	0.077
863.21	0.077
863.39	0.077
863.57	0.077
863.76	0.078
863.94	0.078
864.12	0.078
864.30	0.078
864.48	0.078
864.66	0.078
864.84	0.078
865.02	0.078
865.20	0.078
865.38	0.078
865.57	0.078
865.75	0.079
865.93	0.079
866.11	0.078
866.29	0.078
866.47	0.079
866.65	0.079
866.83	0.079
867.01	0.078
867.19	0.078
867.37	0.078
867.55	0.078
867.73	0.078
867.92	0.077
868.10	0.078
868.28	0.078
868.46	0.078
868.64	0.078
868.82	0.078
869.00	0.078
869.18	0.078
869.36	0.078
869.54	0.079
869.72	0.079
869.90	0.079
870.08	0.079
870.26	0.079
870.44	0.079
870.62	0.078
870.80	0.078
870.98	0.078
871.16	0.078
871.34	0.078
871.53	0.078
871.71	0.078
871.89	0.079
872.07	0.079
872.25	0.079
872.43	0.079
872.61	0.079
872.79	0.079
872.97	0.079
873.15	0.079
873.33	0.080
873.51	0.080
873.69	0.080
873.87	0.080
874.05	0.080
874.23	0.080
874.41	0.080
874.59	0.080
874.77	0.080
874.95	0.080
875.13	0.080
875.31	0.080
875.49	0.080
875.67	0.080
875.85	0.080
876.03	0.080
876.21	0.081
876.39	0.081
876.57	0.081
876.75	0.081
876.93	0.081
877.11	0.081
877.29	0.081
877.47	0.081
877.65	0.081
877.82	0.081
878.00	0.081
878.18	0.081
878.36	0.081
878.54	0.080
878.72	0.080
878.90	0.080
879.08	0.080
879.26	0.080
879.44	0.081
879.62	0.081
879.80	0.081
879.98	0.081
880.16	0.080
880.34	0.080
880.52	0.081
880.70	0.081
880.88	0.081
881.06	0.081
881.24	0.081
881.42	0.081
881.59	0.080
881.77	0.080
881.95	0.080
882.13	0.081
882.31	0.080
882.49	0.080
882.67	0.081
882.85	0.080
883.03	0.080
883.21	0.081
883.39	0.080
883.57	0.081
883.75	0.081
883.92	0.081
884.10	0.081
884.28	0.081
884.46	0.081
884.64	0.081
884.82	0.081
885.00	0.081
885.18	0.082
885.36	0.082
885.54	0.082
885.71	0.082
885.89	0.082
886.07	0.082
886.25	0.082
886.43	0.082
886.61	0.082
886.79	0.082
886.97	0.082
887.15	0.082
887.32	0.082
887.50	0.083
887.68	0.083
887.86	0.083
888.04	0.083
888.22	0.083
888.40	0.083
888.57	0.083
888.75	0.083
888.93	0.083
889.11	0.083
889.29	0.083
889.47	0.083
889.65	0.083
889.82	0.083
890.00	0.084
890.18	0.083
890.36	0.083
890.54	0.084
890.72	0.084
890.90	0.084
891.07	0.084
891.25	0.084
891.43	0.083
891.61	0.083
891.79	0.083
891.97	0.083
892.14	0.083
892.32	0.084
892.50	0.083
892.68	0.083
892.86	0.084
893.03	0.084
893.21	0.084
893.39	0.084
893.57	0.084
893.75	0.084
893.93	0.084
894.10	0.084
894.28	0.084
894.46	0.084
894.64	0.084
894.82	0.084
894.99	0.084
895.17	0.084
895.35	0.084
895.53	0.084
895.71	0.084
895.88	0.084
896.06	0.084
896.24	0.084
896.42	0.084
896.59	0.084
896.77	0.084
896.95	0.084
897.13	0.084
897.31	0.084
897.48	0.084
897.66	0.084
897.84	0.084
898.02	0.084
898.19	0.084
898.37	0.084
898.55	0.084
898.73	0.084
898.91	0.085
899.08	0.084
899.26	0.084
899.44	0.085
899.62	0.085
899.79	0.085
899.97	0.085
900.15	0.085
900.33	0.085
900.50	0.085
900.68	0.085
900.86	0.086
901.04	0.086
901.21	0.086
901.39	0.086
901.57	0.086
901.74	0.086
901.92	0.086
902.10	0.087
902.28	0.087
902.45	0.087
902.63	0.087
902.81	0.086
902.99	0.087
903.16	0.087
903.34	0.087
903.52	0.087
903.69	0.087
903.87	0.087
904.05	0.087
904.22	0.087
904.40	0.087
904.58	0.087
904.76	0.087
904.93	0.087
905.11	0.088
905.29	0.088
905.46	0.088
905.64	0.088
905.82	0.088
905.99	0.088
906.17	0.088
906.35	0.088
906.53	0.088
906.70	0.088
906.88	0.089
907.06	0.088
907.23	0.088
907.41	0.088
907.59	0.089
907.76	0.089
907.94	0.089
908.12	0.088
908.29	0.088
908.47	0.088
908.65	0.089
908.82	0.089
909.00	0.089
909.18	0.089
909.35	0.089
909.53	0.089
909.71	0.089
909.88	0.089
910.06	0.089
910.23	0.089
910.41	0.089
910.59	0.089
910.76	0.089
910.94	0.089
911.12	0.089
911.29	0.089
911.47	0.089
911.65	0.090
911.82	0.090
912.00	0.091
912.17	0.091
912.35	0.091
912.53	0.091
912.70	0.091
912.88	0.091
913.06	0.092
913.23	0.092
913.41	0.092
913.58	0.092
913.76	0.092
913.94	0.092
914.11	0.092
914.29	0.092
914.46	0.092
914.64	0.092
914.82	0.092
914.99	0.092
915.17	0.092
915.34	0.092
915.52	0.092
915.70	0.092
915.87	0.092
916.05	0.092
916.22	0.092
916.40	0.092
916.57	0.092
916.75	0.093
916.93	0.092
917.10	0.093
917.28	0.093
917.45	0.093
917.63	0.092
917.80	0.092
917.98	0.093
918.16	0.093
918.33	0.094
918.51	0.094
918.68	0.094
918.86	0.094
919.03	0.094
919.21	0.095
919.39	0.095
919.56	0.095
919.74	0.096
919.91	0.096
920.09	0.095
920.26	0.095
920.44	0.095
920.61	0.096
920.79	0.096
920.96	0.096
921.14	0.096
921.31	0.097
921.49	0.097
921.67	0.097
921.84	0.097
922.02	0.097
922.19	0.097
922.37	0.098
922.54	0.098
922.72	0.098
922.89	0.098
923.07	0.099
923.24	0.099
923.42	0.099
923.59	0.100
923.77	0.100
923.94	0.101
924.12	0.101
924.29	0.101
924.47	0.102
924.64	0.102
924.82	0.102
924.99	0.102
925.17	0.103
925.34	0.103
925.52	0.103
925.69	0.103
925.87	0.104
926.04	0.104
926.22	0.105
926.39	0.105
926.57	0.105
926.74	0.105
926.91	0.106
927.09	0.106
927.26	0.106
927.44	0.106
927.61	0.106
927.79	0.106
927.96	0.107
928.14	0.108
928.31	0.108
928.49	0.108
928.66	0.109
928.84	0.110
929.01	0.110
929.18	0.111
929.36	0.112
929.53	0.112
929.71	0.113
929.88	0.113
930.06	0.113
930.23	0.113
930.41	0.114
930.58	0.114
930.75	0.115
930.93	0.115
931.10	0.115
931.28	0.115
931.45	0.115
931.63	0.116
931.80	0.116
931.97	0.116
932.15	0.117
932.32	0.117
932.50	0.118
932.67	0.118
932.84	0.119
933.02	0.120
933.19	0.120
933.37	0.121
933.54	0.121
933.71	0.122
933.89	0.123
934.06	0.123
934.24	0.124
934.41	0.124
934.58	0.124
934.76	0.124
934.93	0.125
935.11	0.125
935.28	0.125
935.45	0.125
935.63	0.126
935.80	0.126
935.98	0.127
936.15	0.127
936.32	0.127
936.50	0.128
936.67	0.128
936.84	0.129
937.02	0.130
937.19	0.131
937.36	0.132
937.54	0.132
937.71	0.133
937.89	0.133
938.06	0.134
938.23	0.134
938.41	0.135
938.58	0.135
938.75	0.135
938.93	0.136
939.10	0.136
939.27	0.136
939.45	0.137
939.62	0.138
939.79	0.139
939.97	0.139
940.14	0.139
940.31	0.140
940.49	0.140
940.66	0.141
940.83	0.141
941.01	0.142
941.18	0.143
941.35	0.143
941.53	0.144
941.70	0.145
941.87	0.145
942.05	0.146
942.22	0.147
942.39	0.148
942.57	0.149
942.74	0.150
942.91	0.150
943.08	0.150
943.26	0.151
943.43	0.151
943.60	0.152
943.78	0.153
943.95	0.154
944.12	0.154
944.29	0.155
944.47	0.155
944.64	0.156
944.81	0.157
944.99	0.158
945.16	0.159
945.33	0.159
945.50	0.160
945.68	0.161
945.85	0.161
946.02	0.163
946.20	0.163
946.37	0.164
946.54	0.165
946.71	0.166
946.89	0.167
947.06	0.167
947.23	0.168
947.40	0.170
947.58	0.170
947.75	0.171
947.92	0.172
948.09	0.172
948.27	0.173
948.44	0.175
948.61	0.176
948.78	0.177
948.96	0.178
949.13	0.179
949.30	0.180
949.47	0.181
949.65	0.182
949.82	0.184
949.99	0.184
950.16	0.186
950.33	0.186
950.51	0.187
950.68	0.189
950.85	0.190
951.02	0.191
951.20	0.192
951.37	0.193
951.54	0.194
951.71	0.195
951.88	0.197
952.06	0.198
952.23	0.198
952.40	0.200
952.57	0.201
952.74	0.203
952.92	0.203
953.09	0.205
953.26	0.206
953.43	0.207
953.60	0.208
953.77	0.210
953.95	0.210
954.12	0.212
954.29	0.213
954.46	0.215
954.63	0.216
954.81	0.217
954.98	0.218
955.15	0.220
955.32	0.221
955.49	0.221
955.66	0.222
955.84	0.224
956.01	0.224
956.18	0.226
956.35	0.228
956.52	0.228
956.69	0.230
956.87	0.230
957.04	0.231
957.21	0.233
957.38	0.233
957.55	0.235
957.72	0.236
957.89	0.237
958.07	0.237
958.24	0.239
958.41	0.241
958.58	0.240
958.75	0.241
958.92	0.242
959.09	0.243
959.26	0.243
959.44	0.244
959.61	0.245
959.78	0.246
959.95	0.247
960.12	0.247
960.29	0.249
960.46	0.249
960.63	0.250
960.81	0.249
960.98	0.250
961.15	0.251
961.32	0.252
961.49	0.251
961.66	0.252
961.83	0.252
962.00	0.252
962.17	0.253
962.34	0.253
962.52	0.254
962.69	0.255
962.86	0.255
963.03	0.255
963.20	0.257
963.37	0.256
963.54	0.257
963.71	0.257
963.88	0.257
964.05	0.258
964.22	0.259
964.39	0.258
964.56	0.258
964.74	0.259
964.91	0.259
965.08	0.259
965.25	0.259
965.42	0.259
965.59	0.260
965.76	0.260
965.93	0.261
966.10	0.259
966.27	0.260
966.44	0.260
966.61	0.261
966.78	0.260
966.95	0.259
967.12	0.260
967.29	0.263
967.46	0.262
967.63	0.261
967.80	0.262
967.97	0.262
968.14	0.262
968.32	0.263
968.49	0.263
968.66	0.263
968.83	0.264
969.00	0.264
969.17	0.263
969.34	0.264
969.51	0.265
969.68	0.263
969.85	0.264
970.02	0.264
970.19	0.264
970.36	0.265
970.53	0.265
970.70	0.264
970.87	0.265
971.04	0.264
971.21	0.265
971.38	0.265
971.55	0.265
971.72	0.265
971.89	0.266
972.06	0.265
972.23	0.265
972.40	0.264
972.57	0.263
972.74	0.263
972.91	0.264
973.07	0.264
973.24	0.264
973.41	0.264
973.58	0.262
973.75	0.275
973.92	0.263
974.09	0.263
974.26	0.263
974.43	0.263
974.60	0.264
974.77	0.264
974.94	0.263
975.11	0.264
975.28	0.265
975.45	0.263
975.62	0.264
975.79	0.265
975.96	0.263
976.13	0.262
976.30	0.264
976.47	0.262
976.64	0.263
976.80	0.263
976.97	0.263
977.14	0.262
977.31	0.263
977.48	0.263
977.65	0.263
977.82	0.262
977.99	0.263
978.16	0.263
978.33	0.263
978.50	0.262
978.67	0.262
978.83	0.261
979.00	0.262
979.17	0.261
979.34	0.260
979.51	0.260
979.68	0.261
979.85	0.260
980.02	0.261
980.19	0.259
980.36	0.261
980.52	0.262
980.69	0.260
980.86	0.260
981.03	0.260
981.20	0.258
981.37	0.259
981.54	0.259
981.71	0.258
981.88	0.259
982.04	0.258
982.21	0.257
982.38	0.259
982.55	0.258
982.72	0.257
982.89	0.258
983.06	0.257
983.22	0.256
983.39	0.256
983.56	0.256
983.73	0.254
983.90	0.254
984.07	0.256
984.24	0.254
984.40	0.254
984.57	0.253
984.74	0.255
984.91	0.256
985.08	0.254
985.25	0.252
985.41	0.253
985.58	0.253
985.75	0.255
985.92	0.253
986.09	0.252
986.26	0.251
986.42	0.251
986.59	0.249
986.76	0.251
986.93	0.251
987.10	0.250
987.27	0.248
987.43	0.247
987.60	0.248
987.77	0.248
987.94	0.247
988.11	0.248
988.27	0.248
988.44	0.247
988.61	0.246
988.78	0.244
988.95	0.245
989.11	0.246
989.28	0.245
989.45	0.244
989.62	0.244
989.79	0.244
989.95	0.243
990.12	0.244
990.29	0.244
990.46	0.242
990.62	0.241
990.79	0.242
990.96	0.242
991.13	0.242
991.30	0.241
991.46	0.240
991.63	0.239
991.80	0.238
991.97	0.238
992.13	0.238
992.30	0.239
992.47	0.237
992.64	0.237
992.80	0.237
992.97	0.238
993.14	0.235
993.31	0.233
993.47	0.235
993.64	0.234
993.81	0.233
993.98	0.233
994.14	0.233
994.31	0.232
994.48	0.232
994.64	0.233
994.81	0.232
994.98	0.232
995.15	0.230
995.31	0.230
995.48	0.230
995.65	0.232
995.82	0.229
995.98	0.228
996.15	0.229
996.32	0.232
996.48	0.230
996.65	0.229
996.82	0.227
996.99	0.227
997.15	0.226
997.32	0.228
997.49	0.226
997.65	0.227
997.82	0.227
997.99	0.225
998.15	0.225
998.32	0.225
998.49	0.224
998.65	0.225
998.82	0.225
998.99	0.223
999.15	0.223
999.32	0.223
999.49	0.222
999.65	0.222
999.82	0.220
999.99	0.220
1000.15	0.221
1000.32	0.221
1000.49	0.221
1000.65	0.219
1000.82	0.218
1000.99	0.219
1001.15	0.218
1001.32	0.217
1001.49	0.217
1001.65	0.217
1001.82	0.219
1001.99	0.215
1002.15	0.215
1002.32	0.215
1002.49	0.216
1002.65	0.214
1002.82	0.212
1002.99	0.212
1003.15	0.214
1003.32	0.213
1003.48	0.213
1003.65	0.213
1003.82	0.212
1003.98	0.210
1004.15	0.209
1004.32	0.209
1004.48	0.210
1004.65	0.211
1004.81	0.208
1004.98	0.207
1005.15	0.207
1005.31	0.207
1005.48	0.205
1005.64	0.205
1005.81	0.207
1005.98	0.203
1006.14	0.202
1006.31	0.202
1006.47	0.201
1006.64	0.200
1006.81	0.199
1006.97	0.199
1007.14	0.198
1007.30	0.199
1007.47	0.199
1007.63	0.197
1007.80	0.196
1007.97	0.196
1008.13	0.196
1008.30	0.196
1008.46	0.197
1008.63	0.196
1008.79	0.197
1008.96	0.197
1009.13	0.198
1009.29	0.195
1009.46	0.196
1009.62	0.196
1009.79	0.195
1009.95	0.195
1010.12	0.195
1010.28	0.195
1010.45	0.193
1010.62	0.193
1010.78	0.191
1010.95	0.190
1011.11	0.190
1011.28	0.189
1011.44	0.192
1011.61	0.189
1011.77	0.188
1011.94	0.188
1012.10	0.188
1012.27	0.188
1012.43	0.188
1012.60	0.186
1012.76	0.187
1012.93	0.186
1013.10	0.184
1013.26	0.182
1013.43	0.183
1013.59	0.190
1013.76	0.183
1013.92	0.183
1014.09	0.181
1014.25	0.183
1014.42	0.184
1014.58	0.184
1014.75	0.186
1014.91	0.185
1015.08	0.187
1015.24	0.184
1015.41	0.185
1015.57	0.185
1015.73	0.183
1015.90	0.180
1016.06	0.182
1016.23	0.180
1016.39	0.180
1016.56	0.181
1016.72	0.180
1016.89	0.179
1017.05	0.181
1017.22	0.178
1017.38	0.178
1017.55	0.176
1017.71	0.178
1017.88	0.177
1018.04	0.178
1018.21	0.175
1018.37	0.174
1018.53	0.173
1018.70	0.173
1018.86	0.172
1019.03	0.175
1019.19	0.173
1019.36	0.173
1019.52	0.174
1019.69	0.176
1019.85	0.175
1020.01	0.175
1020.18	0.173
1020.34	0.173
1020.51	0.173
1020.67	0.174
1020.84	0.172
1021.00	0.172
1021.16	0.169
1021.33	0.171
1021.49	0.168
1021.66	0.168
1021.82	0.166
1021.98	0.166
1022.15	0.166
1022.31	0.165
1022.48	0.163
1022.64	0.166
1022.80	0.164
1022.97	0.162
1023.13	0.161
1023.30	0.162
1023.46	0.163
1023.62	0.161
1023.79	0.163
1023.95	0.164
1024.12	0.163
1024.28	0.162
1024.44	0.161
1024.61	0.161
1024.77	0.161
1024.93	0.160
1025.10	0.162
1025.26	0.159
1025.43	0.160
1025.59	0.155
1025.75	0.159
1025.92	0.159
1026.08	0.158
1026.24	0.158
1026.41	0.160
1026.57	0.158
1026.73	0.155
1026.90	0.157
1027.06	0.155
1027.23	0.157
1027.39	0.157
1027.55	0.157
1027.72	0.156
1027.88	0.155
1028.04	0.156
1028.21	0.156
1028.37	0.151
1028.53	0.157
1028.70	0.155
1028.86	0.154
1029.02	0.154
1029.19	0.155
1029.35	0.153
1029.51	0.152
1029.67	0.151
1029.84	0.151
1030.00	0.146
1030.16	0.146
1030.33	0.148
1030.49	0.145
1030.65	0.143
1030.82	0.158
1030.98	0.144
1031.14	0.144
1031.31	0.144
1031.47	0.142
1031.63	0.145
1031.79	0.145
1031.96	0.146
1032.12	0.147
1032.28	0.144
1032.45	0.148
1032.61	0.145
1032.77	0.144
1032.93	0.142
1033.10	0.144
1033.26	0.147
1033.42	0.145
1033.58	0.145
1033.75	0.146
1033.91	0.143
1034.07	0.147
1034.24	0.145
1034.40	0.143
1034.56	0.143
1034.72	0.144
1034.89	0.144
1035.05	0.140
1035.21	0.140
1035.37	0.139
1035.54	0.142
1035.70	0.140
1035.86	0.140
1036.02	0.142
1036.19	0.141
1036.35	0.139
1036.51	0.143
1036.67	0.141
1036.83	0.141
1037.00	0.140
1037.16	0.140
1037.32	0.141
1037.48	0.139
1037.65	0.143
1037.81	0.138
1037.97	0.137
1038.13	0.137
1038.29	0.135
1038.46	0.133
1038.62	0.137
1038.78	0.134
1038.94	0.130
1039.10	0.136
1039.27	0.132
1039.43	0.134
1039.59	0.134
1039.75	0.135
1039.91	0.134
1040.08	0.134
1040.24	0.137
1040.40	0.139
1040.56	0.139
1040.72	0.133
1040.89	0.135
1041.05	0.138
1041.21	0.136
1041.37	0.134
1041.53	0.140
1041.69	0.137
1041.86	0.135
1042.02	0.131
1042.18	0.130
1042.34	0.132
1042.50	0.137
1042.66	0.133
1042.83	0.131
1042.99	0.134
1043.15	0.128
1043.31	0.128
1043.47	0.133
1043.63	0.131
1043.79	0.132
1043.96	0.134
1044.12	0.137
1044.28	0.133
1044.44	0.135
1044.60	0.130
1044.76	0.129
1044.92	0.133
1045.09	0.135
1045.25	0.131
1045.41	0.130
1045.57	0.125
1045.73	0.124
1045.89	0.125
1046.05	0.127
1046.21	0.127
1046.38	0.120
1046.54	0.126
1046.70	0.129
1046.86	0.124
>>>>>End Processed Spectral Data<<<<<
