SpectraSuite Data File
++++++++++++++++++++++++++++++++++++
Date: Mon May 20 12:10:41 CDT 2013
User: Students
Dark Spectrum Present: Yes
Reference Spectrum Present: Yes
Number of Sampled Component Spectra: 1
Spectrometers: USB4H00887
Integration Time (usec): 60000 (USB4H00887)
Spectra Averaged: 5 (USB4H00887)
Boxcar Smoothing: 5 (USB4H00887)
Correct for Electrical Dark: No (USB4H00887)
Strobe/Lamp Enabled: No (USB4H00887)
Correct for Detector Non-linearity: No (USB4H00887)
Correct for Stray Light: No (USB4H00887)
Number of Pixels in Processed Spectrum: 3648
>>>>>Begin Processed Spectral Data<<<<<
345.83	0.796
346.05	0.796
346.26	0.796
346.48	-0.000
346.70	-0.158
346.92	-0.043
347.14	0.018
347.35	0.033
347.57	0.226
347.79	-0.231
348.01	-0.141
348.23	-0.274
348.44	-0.000
348.66	0.407
348.88	-0.483
349.10	-0.256
349.32	0.096
349.53	-0.015
349.75	-0.032
349.97	-0.018
350.19	0.007
350.41	-0.020
350.62	0.145
350.84	-0.006
351.06	0.001
351.28	-0.031
351.50	-0.168
351.71	-0.162
351.93	-0.108
352.15	-0.014
352.37	-0.110
352.58	-0.027
352.80	-0.006
353.02	0.016
353.24	0.042
353.46	0.315
353.67	-0.195
353.89	0.076
354.11	0.081
354.33	0.079
354.54	0.143
354.76	0.306
354.98	0.802
355.20	0.604
355.41	0.183
355.63	0.418
355.85	0.153
356.07	-0.000
356.28	0.121
356.50	0.185
356.72	0.081
356.94	0.176
357.15	0.216
357.37	-0.000
357.59	0.127
357.81	0.076
358.02	0.126
358.24	0.081
358.46	0.172
358.68	0.194
358.89	0.120
359.11	-0.000
359.33	0.098
359.55	-0.597
359.76	0.108
359.98	0.088
360.20	0.096
360.42	0.085
360.63	0.077
360.85	0.039
361.07	0.109
361.29	0.018
361.50	0.088
361.72	0.036
361.94	0.119
362.15	0.079
362.37	0.059
362.59	0.068
362.81	0.115
363.02	0.221
363.24	0.340
363.46	0.206
363.68	0.270
363.89	0.172
364.11	0.251
364.33	0.366
364.54	0.211
364.76	0.256
364.98	0.247
365.20	0.244
365.41	0.152
365.63	0.193
365.85	0.121
366.06	0.423
366.28	0.416
366.50	0.259
366.71	0.107
366.93	0.141
367.15	0.136
367.37	0.122
367.58	0.189
367.80	0.206
368.02	0.658
368.23	0.191
368.45	0.171
368.67	0.166
368.88	0.159
369.10	-0.000
369.32	0.141
369.53	0.089
369.75	0.148
369.97	0.340
370.19	0.221
370.40	0.086
370.62	0.259
370.84	0.105
371.05	0.513
371.27	0.138
371.49	0.167
371.70	0.186
371.92	0.241
372.14	0.114
372.35	0.130
372.57	0.153
372.79	0.400
373.00	0.087
373.22	0.145
373.44	0.140
373.65	0.102
373.87	0.136
374.09	0.524
374.30	0.117
374.52	0.128
374.74	0.073
374.95	0.232
375.17	0.079
375.39	-0.000
375.60	0.093
375.82	0.158
376.04	0.074
376.25	0.086
376.47	0.056
376.68	0.134
376.90	0.065
377.12	0.147
377.33	0.094
377.55	0.237
377.77	0.134
377.98	0.217
378.20	0.124
378.42	0.150
378.63	0.200
378.85	-0.000
379.07	0.143
379.28	0.665
379.50	0.368
379.71	0.185
379.93	0.128
380.15	0.174
380.36	0.267
380.58	0.193
380.80	0.530
381.01	0.139
381.23	0.100
381.44	0.105
381.66	0.133
381.88	0.162
382.09	-0.076
382.31	0.109
382.53	0.103
382.74	0.413
382.96	0.130
383.17	0.112
383.39	0.157
383.61	0.241
383.82	0.164
384.04	0.189
384.25	0.241
384.47	0.225
384.69	0.230
384.90	0.242
385.12	0.566
385.33	0.339
385.55	0.278
385.77	0.469
385.98	0.214
386.20	0.297
386.41	0.244
386.63	0.264
386.85	0.202
387.06	0.253
387.28	0.356
387.49	0.218
387.71	0.161
387.93	0.125
388.14	0.335
388.36	0.161
388.57	0.162
388.79	0.181
389.01	0.877
389.22	0.253
389.44	0.218
389.65	0.190
389.87	0.193
390.08	0.228
390.30	0.193
390.52	0.365
390.73	0.362
390.95	0.246
391.16	0.252
391.38	-0.000
391.59	0.314
391.81	0.266
392.03	0.250
392.24	0.288
392.46	0.253
392.67	0.223
392.89	0.318
393.10	0.527
393.32	0.337
393.53	0.373
393.75	0.236
393.97	0.257
394.18	0.357
394.40	0.296
394.61	0.331
394.83	0.280
395.04	0.320
395.26	0.216
395.47	0.328
395.69	0.277
395.91	0.296
396.12	0.354
396.34	0.352
396.55	0.226
396.77	0.351
396.98	-0.000
397.20	0.397
397.41	0.473
397.63	0.317
397.84	0.283
398.06	0.249
398.27	0.267
398.49	0.306
398.71	0.226
398.92	0.277
399.14	0.345
399.35	0.442
399.57	0.422
399.78	0.283
400.00	0.277
400.21	0.360
400.43	0.289
400.64	0.297
400.86	0.685
401.07	0.366
401.29	0.306
401.50	0.331
401.72	0.459
401.93	0.294
402.15	0.362
402.36	0.325
402.58	0.264
402.79	0.304
403.01	0.525
403.22	0.415
403.44	0.279
403.65	0.458
403.87	0.522
404.08	0.412
404.30	0.742
404.51	0.372
404.73	0.464
404.94	0.392
405.16	0.415
405.37	0.315
405.59	0.578
405.80	0.362
406.02	0.453
406.23	0.433
406.45	0.500
406.66	0.517
406.88	0.329
407.09	0.522
407.31	0.398
407.52	0.496
407.74	0.407
407.95	0.503
408.17	0.444
408.38	0.461
408.60	0.307
408.81	0.511
409.03	0.381
409.24	0.382
409.45	0.443
409.67	0.441
409.88	0.384
410.10	0.485
410.31	0.400
410.53	0.391
410.74	0.567
410.96	0.547
411.17	0.574
411.39	0.435
411.60	0.406
411.82	0.480
412.03	0.450
412.24	0.427
412.46	0.627
412.67	0.510
412.89	0.498
413.10	0.500
413.32	0.444
413.53	0.508
413.75	0.522
413.96	0.382
414.17	0.512
414.39	0.523
414.60	0.442
414.82	0.586
415.03	0.434
415.25	0.478
415.46	0.326
415.68	0.469
415.89	0.940
416.10	0.714
416.32	0.389
416.53	0.457
416.75	0.423
416.96	0.498
417.18	0.438
417.39	0.425
417.60	0.429
417.82	0.643
418.03	0.551
418.25	0.449
418.46	0.480
418.67	0.442
418.89	0.469
419.10	0.499
419.32	0.686
419.53	0.602
419.75	0.510
419.96	0.448
420.17	0.541
420.39	0.506
420.60	0.538
420.82	0.667
421.03	0.519
421.24	0.438
421.46	0.492
421.67	0.539
421.89	0.478
422.10	0.521
422.31	0.520
422.53	0.788
422.74	0.562
422.96	0.434
423.17	0.482
423.38	0.611
423.60	0.507
423.81	0.611
424.03	0.515
424.24	0.576
424.45	0.562
424.67	0.558
424.88	0.501
425.09	0.543
425.31	0.506
425.52	0.528
425.74	0.603
425.95	0.655
426.16	0.519
426.38	0.605
426.59	0.540
426.80	0.622
427.02	0.651
427.23	0.500
427.45	0.661
427.66	0.652
427.87	0.504
428.09	0.531
428.30	0.597
428.51	0.581
428.73	0.639
428.94	0.571
429.15	0.556
429.37	0.525
429.58	0.553
429.79	0.513
430.01	0.606
430.22	0.606
430.44	0.630
430.65	0.578
430.86	0.630
431.08	0.621
431.29	0.564
431.50	0.684
431.72	0.974
431.93	0.754
432.14	0.548
432.36	0.601
432.57	0.619
432.78	0.640
433.00	0.568
433.21	0.558
433.42	0.694
433.64	0.605
433.85	0.682
434.06	0.548
434.28	0.586
434.49	0.601
434.70	0.621
434.92	0.635
435.13	0.672
435.34	0.687
435.56	0.644
435.77	0.630
435.98	0.816
436.20	0.679
436.41	0.580
436.62	0.559
436.83	0.643
437.05	0.724
437.26	0.629
437.47	0.563
437.69	0.616
437.90	0.571
438.11	0.570
438.33	0.624
438.54	0.642
438.75	0.834
438.97	0.820
439.18	0.608
439.39	0.637
439.60	0.692
439.82	0.653
440.03	0.600
440.24	0.883
440.46	0.654
440.67	0.630
440.88	0.680
441.10	0.630
441.31	0.630
441.52	0.681
441.73	0.770
441.95	0.683
442.16	0.626
442.37	1.000
442.58	0.617
442.80	0.601
443.01	0.789
443.22	0.718
443.44	0.609
443.65	0.728
443.86	0.725
444.07	0.777
444.29	0.666
444.50	0.857
444.71	0.647
444.92	0.601
445.14	0.772
445.35	0.820
445.56	0.630
445.78	0.750
445.99	0.748
446.20	0.642
446.41	0.729
446.63	0.730
446.84	0.682
447.05	0.685
447.26	0.830
447.48	0.700
447.69	0.654
447.90	0.752
448.11	0.659
448.33	0.688
448.54	0.706
448.75	0.731
448.96	0.737
449.18	0.784
449.39	0.696
449.60	0.673
449.81	0.816
450.03	0.709
450.24	0.774
450.45	0.730
450.66	0.709
450.87	0.742
451.09	0.695
451.30	0.674
451.51	0.752
451.72	0.762
451.94	0.786
452.15	0.854
452.36	0.711
452.57	0.726
452.78	0.733
453.00	0.758
453.21	0.714
453.42	0.690
453.63	0.791
453.85	0.757
454.06	0.752
454.27	0.887
454.48	0.786
454.69	0.706
454.91	0.788
455.12	0.687
455.33	0.777
455.54	0.801
455.75	0.767
455.97	0.797
456.18	0.787
456.39	0.801
456.60	0.826
456.81	0.761
457.03	0.781
457.24	0.781
457.45	0.875
457.66	0.815
457.87	0.760
458.09	0.781
458.30	0.687
458.51	0.818
458.72	0.836
458.93	0.845
459.15	0.738
459.36	0.799
459.57	0.817
459.78	0.862
459.99	0.769
460.20	0.736
460.42	0.823
460.63	0.777
460.84	0.756
461.05	0.774
461.26	0.840
461.47	0.752
461.69	0.807
461.90	0.846
462.11	0.803
462.32	0.863
462.53	0.793
462.74	0.893
462.96	0.771
463.17	0.760
463.38	0.810
463.59	0.930
463.80	0.768
464.01	0.788
464.23	0.877
464.44	0.836
464.65	0.840
464.86	0.858
465.07	0.865
465.28	0.827
465.49	0.854
465.71	0.804
465.92	0.841
466.13	0.893
466.34	0.826
466.55	0.882
466.76	0.847
466.97	0.878
467.19	0.874
467.40	0.911
467.61	0.914
467.82	0.823
468.03	0.802
468.24	0.875
468.45	0.907
468.66	0.886
468.88	0.900
469.09	0.900
469.30	0.944
469.51	0.864
469.72	0.911
469.93	0.881
470.14	0.861
470.35	0.958
470.57	0.904
470.78	0.839
470.99	0.983
471.20	0.912
471.41	0.865
471.62	0.926
471.83	0.894
472.04	0.925
472.25	0.969
472.47	0.880
472.68	0.882
472.89	0.893
473.10	0.939
473.31	0.886
473.52	0.951
473.73	0.980
473.94	0.890
474.15	0.918
474.36	0.922
474.57	0.954
474.79	0.925
475.00	0.929
475.21	0.909
475.42	1.011
475.63	0.904
475.84	0.932
476.05	0.939
476.26	0.907
476.47	0.942
476.68	0.986
476.89	0.908
477.10	0.958
477.32	0.942
477.53	0.994
477.74	0.909
477.95	0.953
478.16	0.902
478.37	0.943
478.58	0.953
478.79	0.967
479.00	0.971
479.21	0.926
479.42	0.968
479.63	0.975
479.84	0.937
480.05	0.939
480.26	0.969
480.47	0.990
480.69	0.990
480.90	0.949
481.11	0.945
481.32	1.007
481.53	0.945
481.74	1.004
481.95	0.969
482.16	0.987
482.37	0.994
482.58	0.955
482.79	0.977
483.00	1.011
483.21	0.950
483.42	0.923
483.63	1.006
483.84	1.037
484.05	1.021
484.26	0.990
484.47	0.990
484.68	0.946
484.89	0.958
485.10	1.007
485.31	0.986
485.52	0.993
485.73	0.996
485.94	1.036
486.15	0.976
486.37	0.995
486.58	0.956
486.79	0.969
487.00	1.027
487.21	1.010
487.42	1.004
487.63	1.004
487.84	1.027
488.05	1.019
488.26	0.978
488.47	0.986
488.68	1.016
488.89	0.993
489.10	0.988
489.31	0.997
489.52	1.034
489.73	1.000
489.94	1.042
490.15	0.993
490.36	1.039
490.57	0.987
490.78	0.971
490.99	1.009
491.20	1.094
491.41	1.046
491.62	0.987
491.83	1.022
492.04	1.016
492.25	1.024
492.45	1.026
492.66	1.052
492.87	1.039
493.08	1.028
493.29	1.013
493.50	1.000
493.71	1.007
493.92	1.001
494.13	1.015
494.34	1.036
494.55	1.039
494.76	1.072
494.97	1.061
495.18	1.026
495.39	1.041
495.60	0.988
495.81	0.990
496.02	1.012
496.23	1.006
496.44	1.041
496.65	1.034
496.86	1.042
497.07	1.070
497.28	1.065
497.49	1.009
497.70	1.009
497.91	1.032
498.12	1.013
498.32	1.060
498.53	1.046
498.74	1.034
498.95	1.062
499.16	1.013
499.37	1.017
499.58	1.028
499.79	1.060
500.00	1.055
500.21	1.087
500.42	1.025
500.63	1.025
500.84	1.045
501.05	1.020
501.26	1.043
501.46	1.084
501.67	1.043
501.88	1.044
502.09	1.020
502.30	1.030
502.51	1.080
502.72	1.036
502.93	1.051
503.14	1.074
503.35	1.045
503.56	1.044
503.77	1.076
503.97	1.051
504.18	1.054
504.39	1.088
504.60	1.055
504.81	1.085
505.02	1.071
505.23	1.073
505.44	1.053
505.65	1.060
505.86	1.037
506.07	1.111
506.27	1.064
506.48	1.066
506.69	1.051
506.90	1.074
507.11	1.070
507.32	1.044
507.53	1.054
507.74	1.045
507.95	1.059
508.15	1.067
508.36	1.074
508.57	1.088
508.78	1.073
508.99	1.072
509.20	1.044
509.41	1.071
509.62	1.057
509.82	1.052
510.03	1.063
510.24	1.065
510.45	1.087
510.66	1.073
510.87	1.069
511.08	1.023
511.29	1.067
511.49	1.046
511.70	1.093
511.91	1.027
512.12	1.026
512.33	1.061
512.54	1.077
512.75	1.059
512.95	1.086
513.16	1.075
513.37	1.051
513.58	1.091
513.79	1.051
514.00	1.056
514.20	1.074
514.41	1.061
514.62	1.026
514.83	1.068
515.04	1.060
515.25	1.041
515.46	1.056
515.66	1.059
515.87	1.071
516.08	1.038
516.29	1.064
516.50	1.043
516.71	1.037
516.91	1.048
517.12	1.065
517.33	1.049
517.54	1.034
517.75	1.036
517.95	1.051
518.16	1.065
518.37	1.028
518.58	1.035
518.79	1.008
519.00	1.040
519.20	1.051
519.41	1.023
519.62	1.045
519.83	1.053
520.04	1.014
520.24	1.011
520.45	1.018
520.66	1.045
520.87	1.007
521.08	1.005
521.28	1.008
521.49	1.024
521.70	0.993
521.91	1.008
522.12	0.991
522.32	1.014
522.53	0.994
522.74	0.983
522.95	0.993
523.16	0.994
523.36	1.004
523.57	0.987
523.78	0.982
523.99	0.987
524.20	0.979
524.40	0.991
524.61	0.998
524.82	0.972
525.03	0.977
525.23	0.978
525.44	0.961
525.65	0.960
525.86	0.984
526.06	0.954
526.27	0.954
526.48	0.966
526.69	0.946
526.90	0.951
527.10	0.988
527.31	0.942
527.52	0.934
527.73	0.927
527.93	0.939
528.14	0.944
528.35	0.932
528.56	0.932
528.76	0.923
528.97	0.916
529.18	0.906
529.39	0.907
529.59	0.907
529.80	0.939
530.01	0.910
530.22	0.908
530.42	0.877
530.63	0.895
530.84	0.873
531.05	0.888
531.25	0.891
531.46	0.882
531.67	0.860
531.88	0.879
532.08	0.872
532.29	0.869
532.50	0.860
532.70	0.854
532.91	0.843
533.12	0.845
533.33	0.871
533.53	0.839
533.74	0.839
533.95	0.844
534.15	0.832
534.36	0.834
534.57	0.815
534.78	0.817
534.98	0.827
535.19	0.797
535.40	0.797
535.60	0.815
535.81	0.794
536.02	0.796
536.23	0.787
536.43	0.788
536.64	0.774
536.85	0.782
537.05	0.790
537.26	0.768
537.47	0.771
537.67	0.761
537.88	0.756
538.09	0.763
538.30	0.752
538.50	0.745
538.71	0.757
538.92	0.744
539.12	0.740
539.33	0.735
539.54	0.735
539.74	0.738
539.95	0.729
540.16	0.726
540.36	0.717
540.57	0.718
540.78	0.710
540.98	0.709
541.19	0.706
541.40	0.693
541.60	0.703
541.81	0.697
542.02	0.697
542.22	0.686
542.43	0.680
542.64	0.676
542.84	0.675
543.05	0.666
543.26	0.666
543.46	0.669
543.67	0.668
543.88	0.664
544.08	0.654
544.29	0.649
544.50	0.650
544.70	0.650
544.91	0.641
545.12	0.643
545.32	0.638
545.53	0.641
545.74	0.629
545.94	0.626
546.15	0.623
546.35	0.619
546.56	0.615
546.77	0.611
546.97	0.608
547.18	0.600
547.39	0.600
547.59	0.599
547.80	0.594
548.01	0.598
548.21	0.593
548.42	0.586
548.62	0.585
548.83	0.583
549.04	0.580
549.24	0.574
549.45	0.572
549.65	0.568
549.86	0.564
550.07	0.563
550.27	0.561
550.48	0.569
550.69	0.554
550.89	0.554
551.10	0.549
551.30	0.547
551.51	0.546
551.72	0.536
551.92	0.538
552.13	0.537
552.33	0.537
552.54	0.531
552.75	0.523
552.95	0.524
553.16	0.519
553.36	0.517
553.57	0.515
553.78	0.514
553.98	0.514
554.19	0.504
554.39	0.502
554.60	0.504
554.80	0.505
555.01	0.498
555.22	0.499
555.42	0.496
555.63	0.489
555.83	0.492
556.04	0.486
556.25	0.488
556.45	0.479
556.66	0.477
556.86	0.480
557.07	0.477
557.27	0.476
557.48	0.470
557.68	0.469
557.89	0.469
558.10	0.466
558.30	0.463
558.51	0.461
558.71	0.458
558.92	0.454
559.12	0.455
559.33	0.458
559.54	0.453
559.74	0.448
559.95	0.446
560.15	0.445
560.36	0.443
560.56	0.437
560.77	0.437
560.97	0.437
561.18	0.432
561.38	0.431
561.59	0.434
561.79	0.430
562.00	0.427
562.21	0.425
562.41	0.423
562.62	0.423
562.82	0.422
563.03	0.419
563.23	0.418
563.44	0.418
563.64	0.414
563.85	0.415
564.05	0.408
564.26	0.408
564.46	0.407
564.67	0.407
564.87	0.402
565.08	0.399
565.28	0.398
565.49	0.399
565.69	0.396
565.90	0.393
566.10	0.395
566.31	0.388
566.51	0.390
566.72	0.390
566.92	0.384
567.13	0.384
567.33	0.383
567.54	0.381
567.74	0.380
567.95	0.376
568.15	0.377
568.36	0.376
568.56	0.375
568.77	0.370
568.97	0.369
569.18	0.369
569.38	0.367
569.59	0.368
569.79	0.365
570.00	0.363
570.20	0.362
570.41	0.360
570.61	0.358
570.82	0.360
571.02	0.355
571.23	0.357
571.43	0.353
571.64	0.352
571.84	0.351
572.05	0.349
572.25	0.349
572.45	0.347
572.66	0.345
572.86	0.344
573.07	0.343
573.27	0.343
573.48	0.342
573.68	0.338
573.89	0.337
574.09	0.338
574.30	0.336
574.50	0.334
574.70	0.334
574.91	0.332
575.11	0.331
575.32	0.331
575.52	0.327
575.73	0.327
575.93	0.327
576.14	0.325
576.34	0.323
576.54	0.322
576.75	0.320
576.95	0.319
577.16	0.317
577.36	0.316
577.57	0.316
577.77	0.314
577.97	0.311
578.18	0.312
578.38	0.309
578.59	0.308
578.79	0.306
579.00	0.307
579.20	0.306
579.40	0.305
579.61	0.304
579.81	0.302
580.02	0.300
580.22	0.300
580.42	0.299
580.63	0.299
580.83	0.298
581.04	0.296
581.24	0.295
581.45	0.294
581.65	0.293
581.85	0.292
582.06	0.291
582.26	0.291
582.47	0.289
582.67	0.289
582.87	0.288
583.08	0.285
583.28	0.285
583.48	0.284
583.69	0.281
583.89	0.281
584.10	0.282
584.30	0.280
584.50	0.278
584.71	0.277
584.91	0.277
585.12	0.275
585.32	0.276
585.52	0.273
585.73	0.272
585.93	0.272
586.13	0.271
586.34	0.270
586.54	0.269
586.75	0.268
586.95	0.267
587.15	0.267
587.36	0.266
587.56	0.265
587.76	0.263
587.97	0.263
588.17	0.261
588.37	0.261
588.58	0.261
588.78	0.258
588.98	0.259
589.19	0.258
589.39	0.256
589.60	0.257
589.80	0.255
590.00	0.254
590.21	0.254
590.41	0.253
590.61	0.252
590.82	0.251
591.02	0.251
591.22	0.249
591.43	0.250
591.63	0.248
591.83	0.248
592.04	0.246
592.24	0.247
592.44	0.244
592.65	0.243
592.85	0.243
593.05	0.243
593.26	0.241
593.46	0.241
593.66	0.241
593.86	0.240
594.07	0.238
594.27	0.238
594.47	0.237
594.68	0.236
594.88	0.237
595.08	0.237
595.29	0.237
595.49	0.235
595.69	0.235
595.90	0.234
596.10	0.234
596.30	0.234
596.50	0.233
596.71	0.233
596.91	0.232
597.11	0.231
597.32	0.230
597.52	0.229
597.72	0.229
597.93	0.227
598.13	0.226
598.33	0.226
598.53	0.224
598.74	0.223
598.94	0.223
599.14	0.222
599.35	0.222
599.55	0.221
599.75	0.220
599.95	0.219
600.16	0.220
600.36	0.218
600.56	0.219
600.76	0.218
600.97	0.217
601.17	0.216
601.37	0.216
601.58	0.215
601.78	0.215
601.98	0.214
602.18	0.213
602.39	0.214
602.59	0.213
602.79	0.212
602.99	0.212
603.20	0.211
603.40	0.211
603.60	0.211
603.80	0.211
604.01	0.210
604.21	0.209
604.41	0.209
604.61	0.208
604.82	0.208
605.02	0.208
605.22	0.207
605.42	0.207
605.62	0.207
605.83	0.205
606.03	0.204
606.23	0.204
606.43	0.204
606.64	0.204
606.84	0.203
607.04	0.202
607.24	0.202
607.45	0.202
607.65	0.201
607.85	0.201
608.05	0.200
608.25	0.200
608.46	0.199
608.66	0.199
608.86	0.198
609.06	0.198
609.26	0.197
609.47	0.197
609.67	0.196
609.87	0.197
610.07	0.196
610.28	0.195
610.48	0.195
610.68	0.195
610.88	0.193
611.08	0.194
611.29	0.192
611.49	0.192
611.69	0.192
611.89	0.191
612.09	0.190
612.29	0.190
612.50	0.190
612.70	0.190
612.90	0.188
613.10	0.188
613.30	0.188
613.51	0.188
613.71	0.188
613.91	0.192
614.11	0.187
614.31	0.187
614.51	0.186
614.72	0.186
614.92	0.186
615.12	0.186
615.32	0.186
615.52	0.185
615.72	0.186
615.93	0.185
616.13	0.184
616.33	0.184
616.53	0.183
616.73	0.184
616.93	0.182
617.14	0.182
617.34	0.181
617.54	0.182
617.74	0.181
617.94	0.181
618.14	0.180
618.34	0.180
618.55	0.180
618.75	0.180
618.95	0.180
619.15	0.180
619.35	0.179
619.55	0.178
619.75	0.179
619.96	0.178
620.16	0.178
620.36	0.178
620.56	0.178
620.76	0.177
620.96	0.177
621.16	0.177
621.36	0.177
621.57	0.177
621.77	0.177
621.97	0.176
622.17	0.176
622.37	0.176
622.57	0.176
622.77	0.175
622.97	0.174
623.18	0.174
623.38	0.174
623.58	0.174
623.78	0.174
623.98	0.173
624.18	0.172
624.38	0.172
624.58	0.172
624.78	0.172
624.98	0.172
625.19	0.172
625.39	0.172
625.59	0.171
625.79	0.171
625.99	0.171
626.19	0.170
626.39	0.170
626.59	0.170
626.79	0.169
626.99	0.169
627.19	0.169
627.40	0.169
627.60	0.168
627.80	0.168
628.00	0.168
628.20	0.167
628.40	0.167
628.60	0.167
628.80	0.166
629.00	0.166
629.20	0.166
629.40	0.166
629.60	0.165
629.80	0.165
630.00	0.165
630.20	0.165
630.41	0.164
630.61	0.163
630.81	0.163
631.01	0.164
631.21	0.162
631.41	0.162
631.61	0.163
631.81	0.162
632.01	0.162
632.21	0.162
632.41	0.161
632.61	0.161
632.81	0.161
633.01	0.161
633.21	0.161
633.41	0.162
633.61	0.160
633.81	0.160
634.01	0.159
634.21	0.160
634.41	0.159
634.61	0.159
634.81	0.159
635.01	0.159
635.22	0.159
635.42	0.159
635.62	0.159
635.82	0.159
636.02	0.158
636.22	0.158
636.42	0.157
636.62	0.157
636.82	0.157
637.02	0.157
637.22	0.157
637.42	0.156
637.62	0.155
637.82	0.155
638.02	0.154
638.22	0.154
638.42	0.154
638.62	0.153
638.82	0.153
639.02	0.153
639.22	0.153
639.42	0.153
639.62	0.152
639.82	0.152
640.02	0.152
640.22	0.152
640.42	0.152
640.62	0.152
640.82	0.152
641.02	0.151
641.22	0.152
641.42	0.151
641.61	0.151
641.81	0.151
642.01	0.151
642.21	0.151
642.41	0.151
642.61	0.150
642.81	0.150
643.01	0.150
643.21	0.149
643.41	0.149
643.61	0.149
643.81	0.149
644.01	0.147
644.21	0.147
644.41	0.147
644.61	0.147
644.81	0.147
645.01	0.147
645.21	0.147
645.41	0.147
645.61	0.147
645.81	0.146
646.01	0.146
646.21	0.146
646.40	0.146
646.60	0.146
646.80	0.146
647.00	0.145
647.20	0.144
647.40	0.144
647.60	0.144
647.80	0.144
648.00	0.144
648.20	0.143
648.40	0.143
648.60	0.143
648.80	0.143
649.00	0.142
649.20	0.143
649.39	0.143
649.59	0.142
649.79	0.142
649.99	0.142
650.19	0.141
650.39	0.141
650.59	0.142
650.79	0.141
650.99	0.141
651.19	0.141
651.39	0.140
651.58	0.140
651.78	0.140
651.98	0.139
652.18	0.139
652.38	0.139
652.58	0.139
652.78	0.138
652.98	0.138
653.18	0.138
653.38	0.138
653.57	0.138
653.77	0.138
653.97	0.137
654.17	0.138
654.37	0.137
654.57	0.137
654.77	0.137
654.97	0.136
655.16	0.136
655.36	0.136
655.56	0.136
655.76	0.135
655.96	0.136
656.16	0.134
656.36	0.135
656.56	0.134
656.75	0.134
656.95	0.134
657.15	0.134
657.35	0.134
657.55	0.133
657.75	0.133
657.95	0.133
658.14	0.133
658.34	0.133
658.54	0.133
658.74	0.133
658.94	0.133
659.14	0.133
659.34	0.132
659.53	0.131
659.73	0.131
659.93	0.130
660.13	0.130
660.33	0.130
660.53	0.130
660.72	0.130
660.92	0.130
661.12	0.129
661.32	0.129
661.52	0.129
661.72	0.129
661.91	0.128
662.11	0.128
662.31	0.128
662.51	0.127
662.71	0.127
662.90	0.126
663.10	0.126
663.30	0.126
663.50	0.126
663.70	0.126
663.90	0.125
664.09	0.125
664.29	0.125
664.49	0.124
664.69	0.125
664.89	0.124
665.08	0.124
665.28	0.124
665.48	0.124
665.68	0.123
665.88	0.124
666.07	0.123
666.27	0.123
666.47	0.123
666.67	0.123
666.87	0.123
667.06	0.123
667.26	0.123
667.46	0.122
667.66	0.122
667.85	0.123
668.05	0.123
668.25	0.122
668.45	0.122
668.65	0.122
668.84	0.122
669.04	0.122
669.24	0.122
669.44	0.121
669.63	0.121
669.83	0.121
670.03	0.120
670.23	0.120
670.42	0.119
670.62	0.119
670.82	0.119
671.02	0.118
671.22	0.118
671.41	0.118
671.61	0.118
671.81	0.118
672.01	0.118
672.20	0.118
672.40	0.118
672.60	0.118
672.80	0.117
672.99	0.117
673.19	0.117
673.39	0.117
673.58	0.116
673.78	0.116
673.98	0.115
674.18	0.115
674.37	0.115
674.57	0.114
674.77	0.114
674.97	0.114
675.16	0.114
675.36	0.113
675.56	0.113
675.75	0.113
675.95	0.113
676.15	0.113
676.35	0.113
676.54	0.113
676.74	0.113
676.94	0.113
677.13	0.112
677.33	0.112
677.53	0.113
677.73	0.113
677.92	0.113
678.12	0.113
678.32	0.112
678.51	0.112
678.71	0.112
678.91	0.111
679.11	0.111
679.30	0.111
679.50	0.110
679.70	0.110
679.89	0.110
680.09	0.110
680.29	0.109
680.48	0.110
680.68	0.109
680.88	0.109
681.07	0.109
681.27	0.109
681.47	0.109
681.66	0.109
681.86	0.109
682.06	0.108
682.25	0.108
682.45	0.108
682.65	0.108
682.84	0.107
683.04	0.107
683.24	0.106
683.43	0.107
683.63	0.107
683.83	0.107
684.02	0.106
684.22	0.106
684.42	0.106
684.61	0.106
684.81	0.106
685.01	0.106
685.20	0.105
685.40	0.105
685.60	0.105
685.79	0.105
685.99	0.105
686.19	0.105
686.38	0.105
686.58	0.105
686.77	0.105
686.97	0.104
687.17	0.105
687.36	0.104
687.56	0.104
687.76	0.104
687.95	0.104
688.15	0.104
688.34	0.104
688.54	0.103
688.74	0.103
688.93	0.103
689.13	0.103
689.33	0.103
689.52	0.102
689.72	0.102
689.91	0.102
690.11	0.101
690.31	0.101
690.50	0.101
690.70	0.101
690.89	0.100
691.09	0.100
691.29	0.100
691.48	0.100
691.68	0.100
691.87	0.100
692.07	0.100
692.27	0.099
692.46	0.099
692.66	0.099
692.85	0.099
693.05	0.099
693.25	0.099
693.44	0.098
693.64	0.098
693.83	0.098
694.03	0.098
694.22	0.097
694.42	0.097
694.62	0.097
694.81	0.097
695.01	0.097
695.20	0.097
695.40	0.096
695.59	0.096
695.79	0.096
695.99	0.096
696.18	0.096
696.38	0.096
696.57	0.097
696.77	0.096
696.96	0.097
697.16	0.096
697.36	0.096
697.55	0.096
697.75	0.096
697.94	0.095
698.14	0.095
698.33	0.095
698.53	0.095
698.72	0.094
698.92	0.094
699.11	0.094
699.31	0.094
699.51	0.094
699.70	0.094
699.90	0.094
700.09	0.094
700.29	0.094
700.48	0.094
700.68	0.093
700.87	0.093
701.07	0.093
701.26	0.093
701.46	0.093
701.65	0.093
701.85	0.093
702.04	0.092
702.24	0.092
702.43	0.092
702.63	0.092
702.82	0.092
703.02	0.092
703.21	0.092
703.41	0.092
703.60	0.091
703.80	0.091
703.99	0.090
704.19	0.091
704.38	0.091
704.58	0.090
704.77	0.090
704.97	0.090
705.16	0.090
705.36	0.090
705.55	0.090
705.75	0.090
705.94	0.090
706.14	0.090
706.33	0.090
706.53	0.090
706.72	0.090
706.92	0.090
707.11	0.090
707.31	0.089
707.50	0.089
707.70	0.089
707.89	0.089
708.09	0.089
708.28	0.089
708.48	0.089
708.67	0.088
708.86	0.089
709.06	0.089
709.25	0.089
709.45	0.089
709.64	0.089
709.84	0.089
710.03	0.088
710.23	0.088
710.42	0.088
710.62	0.088
710.81	0.088
711.00	0.088
711.20	0.088
711.39	0.087
711.59	0.087
711.78	0.087
711.98	0.087
712.17	0.087
712.37	0.087
712.56	0.087
712.75	0.087
712.95	0.087
713.14	0.087
713.34	0.087
713.53	0.087
713.73	0.087
713.92	0.087
714.11	0.087
714.31	0.087
714.50	0.087
714.70	0.087
714.89	0.087
715.08	0.087
715.28	0.087
715.47	0.087
715.67	0.087
715.86	0.086
716.06	0.087
716.25	0.087
716.44	0.086
716.64	0.086
716.83	0.086
717.03	0.086
717.22	0.085
717.41	0.085
717.61	0.085
717.80	0.085
717.99	0.086
718.19	0.086
718.38	0.085
718.58	0.085
718.77	0.085
718.96	0.085
719.16	0.085
719.35	0.085
719.55	0.084
719.74	0.084
719.93	0.084
720.13	0.084
720.32	0.083
720.51	0.083
720.71	0.084
720.90	0.084
721.10	0.083
721.29	0.083
721.48	0.083
721.68	0.083
721.87	0.083
722.06	0.083
722.26	0.084
722.45	0.084
722.64	0.083
722.84	0.083
723.03	0.083
723.22	0.083
723.42	0.084
723.61	0.084
723.80	0.084
724.00	0.084
724.19	0.084
724.38	0.083
724.58	0.083
724.77	0.084
724.96	0.084
725.16	0.084
725.35	0.083
725.54	0.083
725.74	0.083
725.93	0.083
726.12	0.083
726.32	0.083
726.51	0.084
726.70	0.083
726.90	0.083
727.09	0.083
727.28	0.083
727.48	0.083
727.67	0.083
727.86	0.083
728.06	0.083
728.25	0.083
728.44	0.083
728.64	0.083
728.83	0.084
729.02	0.083
729.21	0.084
729.41	0.083
729.60	0.083
729.79	0.083
729.99	0.083
730.18	0.084
730.37	0.083
730.56	0.083
730.76	0.083
730.95	0.083
731.14	0.083
731.34	0.083
731.53	0.083
731.72	0.084
731.91	0.084
732.11	0.083
732.30	0.083
732.49	0.084
732.69	0.084
732.88	0.084
733.07	0.084
733.26	0.084
733.46	0.083
733.65	0.083
733.84	0.083
734.03	0.083
734.23	0.083
734.42	0.083
734.61	0.083
734.80	0.083
735.00	0.083
735.19	0.083
735.38	0.083
735.57	0.083
735.77	0.083
735.96	0.083
736.15	0.083
736.34	0.083
736.54	0.084
736.73	0.084
736.92	0.084
737.11	0.084
737.31	0.084
737.50	0.084
737.69	0.084
737.88	0.084
738.07	0.084
738.27	0.084
738.46	0.084
738.65	0.084
738.84	0.084
739.04	0.084
739.23	0.084
739.42	0.084
739.61	0.084
739.80	0.083
740.00	0.084
740.19	0.084
740.38	0.084
740.57	0.084
740.76	0.083
740.96	0.083
741.15	0.083
741.34	0.083
741.53	0.083
741.72	0.083
741.92	0.082
742.11	0.082
742.30	0.082
742.49	0.082
742.68	0.082
742.88	0.083
743.07	0.083
743.26	0.083
743.45	0.083
743.64	0.082
743.84	0.082
744.03	0.082
744.22	0.082
744.41	0.081
744.60	0.081
744.79	0.081
744.99	0.081
745.18	0.080
745.37	0.080
745.56	0.080
745.75	0.080
745.94	0.080
746.14	0.080
746.33	0.081
746.52	0.081
746.71	0.081
746.90	0.081
747.09	0.081
747.28	0.081
747.48	0.081
747.67	0.081
747.86	0.081
748.05	0.081
748.24	0.080
748.43	0.080
748.62	0.080
748.82	0.080
749.01	0.080
749.20	0.080
749.39	0.080
749.58	0.080
749.77	0.080
749.96	0.080
750.16	0.080
750.35	0.080
750.54	0.080
750.73	0.081
750.92	0.081
751.11	0.080
751.30	0.080
751.49	0.080
751.68	0.080
751.88	0.080
752.07	0.079
752.26	0.080
752.45	0.080
752.64	0.079
752.83	0.079
753.02	0.079
753.21	0.079
753.40	0.079
753.60	0.079
753.79	0.079
753.98	0.079
754.17	0.078
754.36	0.078
754.55	0.078
754.74	0.078
754.93	0.078
755.12	0.078
755.31	0.078
755.50	0.078
755.70	0.078
755.89	0.078
756.08	0.078
756.27	0.078
756.46	0.078
756.65	0.078
756.84	0.078
757.03	0.077
757.22	0.077
757.41	0.077
757.60	0.077
757.79	0.077
757.98	0.078
758.17	0.078
758.36	0.078
758.56	0.077
758.75	0.077
758.94	0.077
759.13	0.077
759.32	0.077
759.51	0.077
759.70	0.077
759.89	0.077
760.08	0.077
760.27	0.077
760.46	0.077
760.65	0.077
760.84	0.077
761.03	0.077
761.22	0.078
761.41	0.078
761.60	0.077
761.79	0.077
761.98	0.077
762.17	0.077
762.36	0.077
762.55	0.077
762.74	0.077
762.93	0.076
763.12	0.076
763.31	0.076
763.50	0.076
763.69	0.076
763.88	0.076
764.07	0.076
764.26	0.076
764.45	0.076
764.64	0.076
764.83	0.075
765.02	0.076
765.21	0.076
765.40	0.076
765.59	0.076
765.78	0.076
765.97	0.076
766.16	0.076
766.35	0.076
766.54	0.076
766.73	0.076
766.92	0.076
767.11	0.075
767.30	0.076
767.49	0.075
767.68	0.075
767.87	0.075
768.06	0.075
768.25	0.075
768.44	0.075
768.63	0.075
768.82	0.075
769.01	0.074
769.20	0.074
769.39	0.075
769.58	0.075
769.77	0.075
769.96	0.075
770.15	0.074
770.34	0.074
770.53	0.074
770.72	0.074
770.91	0.074
771.10	0.074
771.29	0.074
771.47	0.073
771.66	0.073
771.85	0.074
772.04	0.074
772.23	0.074
772.42	0.073
772.61	0.074
772.80	0.074
772.99	0.074
773.18	0.073
773.37	0.074
773.56	0.074
773.75	0.074
773.94	0.074
774.13	0.074
774.31	0.074
774.50	0.074
774.69	0.074
774.88	0.074
775.07	0.074
775.26	0.074
775.45	0.073
775.64	0.073
775.83	0.073
776.02	0.073
776.21	0.073
776.40	0.073
776.58	0.073
776.77	0.073
776.96	0.073
777.15	0.073
777.34	0.073
777.53	0.074
777.72	0.074
777.91	0.074
778.10	0.073
778.28	0.073
778.47	0.073
778.66	0.073
778.85	0.073
779.04	0.073
779.23	0.072
779.42	0.072
779.61	0.072
779.79	0.072
779.98	0.071
780.17	0.072
780.36	0.072
780.55	0.071
780.74	0.071
780.93	0.071
781.12	0.071
781.30	0.071
781.49	0.071
781.68	0.071
781.87	0.071
782.06	0.071
782.25	0.071
782.44	0.071
782.62	0.071
782.81	0.071
783.00	0.071
783.19	0.071
783.38	0.071
783.57	0.071
783.75	0.071
783.94	0.071
784.13	0.071
784.32	0.071
784.51	0.071
784.70	0.071
784.88	0.071
785.07	0.071
785.26	0.071
785.45	0.070
785.64	0.070
785.83	0.071
786.01	0.070
786.20	0.070
786.39	0.071
786.58	0.070
786.77	0.070
786.95	0.070
787.14	0.070
787.33	0.070
787.52	0.070
787.71	0.070
787.90	0.070
788.08	0.070
788.27	0.069
788.46	0.069
788.65	0.069
788.84	0.070
789.02	0.070
789.21	0.070
789.40	0.070
789.59	0.070
789.77	0.070
789.96	0.070
790.15	0.070
790.34	0.070
790.53	0.070
790.71	0.070
790.90	0.070
791.09	0.069
791.28	0.069
791.46	0.069
791.65	0.069
791.84	0.069
792.03	0.069
792.22	0.069
792.40	0.069
792.59	0.069
792.78	0.069
792.97	0.069
793.15	0.069
793.34	0.069
793.53	0.069
793.72	0.069
793.90	0.068
794.09	0.069
794.28	0.069
794.47	0.069
794.65	0.069
794.84	0.069
795.03	0.069
795.22	0.069
795.40	0.069
795.59	0.069
795.78	0.069
795.97	0.069
796.15	0.069
796.34	0.069
796.53	0.069
796.71	0.069
796.90	0.069
797.09	0.069
797.28	0.069
797.46	0.069
797.65	0.069
797.84	0.069
798.02	0.068
798.21	0.068
798.40	0.068
798.59	0.068
798.77	0.068
798.96	0.067
799.15	0.067
799.33	0.068
799.52	0.068
799.71	0.067
799.90	0.068
800.08	0.068
800.27	0.068
800.46	0.068
800.64	0.068
800.83	0.068
801.02	0.068
801.20	0.068
801.39	0.068
801.58	0.068
801.76	0.068
801.95	0.068
802.14	0.068
802.32	0.068
802.51	0.068
802.70	0.068
802.88	0.068
803.07	0.068
803.26	0.067
803.44	0.067
803.63	0.067
803.82	0.067
804.00	0.067
804.19	0.067
804.38	0.067
804.56	0.067
804.75	0.067
804.94	0.067
805.12	0.067
805.31	0.068
805.50	0.068
805.68	0.068
805.87	0.068
806.06	0.068
806.24	0.067
806.43	0.067
806.62	0.068
806.80	0.067
806.99	0.067
807.17	0.067
807.36	0.067
807.55	0.067
807.73	0.067
807.92	0.067
808.11	0.067
808.29	0.067
808.48	0.067
808.66	0.067
808.85	0.067
809.04	0.067
809.22	0.066
809.41	0.067
809.59	0.066
809.78	0.066
809.97	0.066
810.15	0.066
810.34	0.066
810.53	0.066
810.71	0.066
810.90	0.066
811.08	0.066
811.27	0.066
811.45	0.066
811.64	0.066
811.83	0.066
812.01	0.066
812.20	0.066
812.38	0.066
812.57	0.066
812.76	0.066
812.94	0.066
813.13	0.066
813.31	0.066
813.50	0.066
813.68	0.066
813.87	0.066
814.06	0.066
814.24	0.065
814.43	0.066
814.61	0.066
814.80	0.066
814.98	0.066
815.17	0.066
815.36	0.066
815.54	0.066
815.73	0.066
815.91	0.066
816.10	0.066
816.28	0.066
816.47	0.066
816.65	0.066
816.84	0.066
817.03	0.066
817.21	0.067
817.40	0.067
817.58	0.067
817.77	0.067
817.95	0.067
818.14	0.067
818.32	0.067
818.51	0.067
818.69	0.067
818.88	0.067
819.06	0.067
819.25	0.067
819.43	0.067
819.62	0.066
819.80	0.066
819.99	0.066
820.18	0.066
820.36	0.066
820.55	0.066
820.73	0.066
820.92	0.066
821.10	0.066
821.29	0.066
821.47	0.066
821.66	0.067
821.84	0.067
822.03	0.067
822.21	0.067
822.40	0.066
822.58	0.067
822.77	0.067
822.95	0.067
823.14	0.067
823.32	0.067
823.50	0.067
823.69	0.067
823.87	0.068
824.06	0.068
824.24	0.068
824.43	0.068
824.61	0.068
824.80	0.068
824.98	0.068
825.17	0.069
825.35	0.069
825.54	0.069
825.72	0.069
825.91	0.068
826.09	0.068
826.28	0.068
826.46	0.069
826.64	0.069
826.83	0.069
827.01	0.069
827.20	0.069
827.38	0.069
827.57	0.069
827.75	0.069
827.94	0.069
828.12	0.070
828.31	0.070
828.49	0.070
828.67	0.070
828.86	0.070
829.04	0.070
829.23	0.070
829.41	0.071
829.60	0.070
829.78	0.071
829.96	0.071
830.15	0.071
830.33	0.071
830.52	0.071
830.70	0.071
830.88	0.071
831.07	0.071
831.25	0.071
831.44	0.071
831.62	0.071
831.81	0.071
831.99	0.071
832.17	0.071
832.36	0.071
832.54	0.071
832.73	0.072
832.91	0.072
833.09	0.071
833.28	0.072
833.46	0.072
833.65	0.072
833.83	0.072
834.01	0.072
834.20	0.072
834.38	0.072
834.56	0.072
834.75	0.072
834.93	0.072
835.12	0.072
835.30	0.072
835.48	0.073
835.67	0.073
835.85	0.072
836.03	0.072
836.22	0.073
836.40	0.073
836.59	0.073
836.77	0.072
836.95	0.073
837.14	0.073
837.32	0.072
837.50	0.073
837.69	0.073
837.87	0.073
838.05	0.073
838.24	0.073
838.42	0.073
838.60	0.073
838.79	0.074
838.97	0.074
839.15	0.074
839.34	0.074
839.52	0.074
839.70	0.074
839.89	0.074
840.07	0.074
840.25	0.074
840.44	0.074
840.62	0.074
840.80	0.074
840.99	0.074
841.17	0.074
841.35	0.074
841.54	0.073
841.72	0.074
841.90	0.074
842.09	0.074
842.27	0.074
842.45	0.074
842.64	0.074
842.82	0.074
843.00	0.074
843.19	0.074
843.37	0.074
843.55	0.074
843.73	0.074
843.92	0.074
844.10	0.074
844.28	0.074
844.47	0.074
844.65	0.074
844.83	0.074
845.01	0.074
845.20	0.074
845.38	0.075
845.56	0.075
845.75	0.075
845.93	0.075
846.11	0.074
846.29	0.075
846.48	0.075
846.66	0.075
846.84	0.075
847.02	0.074
847.21	0.074
847.39	0.074
847.57	0.074
847.76	0.075
847.94	0.074
848.12	0.075
848.30	0.075
848.49	0.075
848.67	0.075
848.85	0.075
849.03	0.076
849.22	0.075
849.40	0.076
849.58	0.076
849.76	0.076
849.95	0.076
850.13	0.076
850.31	0.076
850.49	0.076
850.67	0.076
850.86	0.075
851.04	0.075
851.22	0.075
851.40	0.075
851.59	0.074
851.77	0.075
851.95	0.074
852.13	0.074
852.31	0.074
852.50	0.075
852.68	0.075
852.86	0.075
853.04	0.075
853.23	0.075
853.41	0.075
853.59	0.075
853.77	0.075
853.95	0.075
854.14	0.075
854.32	0.075
854.50	0.075
854.68	0.075
854.86	0.075
855.04	0.075
855.23	0.075
855.41	0.075
855.59	0.076
855.77	0.075
855.95	0.076
856.14	0.076
856.32	0.076
856.50	0.076
856.68	0.076
856.86	0.076
857.04	0.075
857.23	0.075
857.41	0.075
857.59	0.075
857.77	0.075
857.95	0.075
858.13	0.075
858.32	0.075
858.50	0.076
858.68	0.075
858.86	0.076
859.04	0.076
859.22	0.076
859.41	0.076
859.59	0.076
859.77	0.076
859.95	0.076
860.13	0.076
860.31	0.076
860.49	0.075
860.68	0.076
860.86	0.076
861.04	0.075
861.22	0.075
861.40	0.076
861.58	0.076
861.76	0.075
861.94	0.076
862.13	0.076
862.31	0.076
862.49	0.077
862.67	0.077
862.85	0.077
863.03	0.077
863.21	0.077
863.39	0.077
863.57	0.077
863.76	0.077
863.94	0.077
864.12	0.077
864.30	0.076
864.48	0.076
864.66	0.076
864.84	0.076
865.02	0.076
865.20	0.076
865.38	0.076
865.57	0.076
865.75	0.077
865.93	0.077
866.11	0.076
866.29	0.077
866.47	0.077
866.65	0.077
866.83	0.077
867.01	0.077
867.19	0.077
867.37	0.076
867.55	0.076
867.73	0.076
867.92	0.076
868.10	0.077
868.28	0.076
868.46	0.077
868.64	0.077
868.82	0.077
869.00	0.077
869.18	0.077
869.36	0.077
869.54	0.077
869.72	0.078
869.90	0.078
870.08	0.077
870.26	0.078
870.44	0.078
870.62	0.078
870.80	0.078
870.98	0.078
871.16	0.078
871.34	0.078
871.53	0.078
871.71	0.077
871.89	0.078
872.07	0.078
872.25	0.078
872.43	0.078
872.61	0.078
872.79	0.078
872.97	0.079
873.15	0.079
873.33	0.079
873.51	0.079
873.69	0.079
873.87	0.079
874.05	0.079
874.23	0.079
874.41	0.078
874.59	0.079
874.77	0.078
874.95	0.078
875.13	0.078
875.31	0.078
875.49	0.079
875.67	0.078
875.85	0.078
876.03	0.079
876.21	0.079
876.39	0.079
876.57	0.079
876.75	0.079
876.93	0.079
877.11	0.079
877.29	0.079
877.47	0.079
877.65	0.079
877.82	0.079
878.00	0.079
878.18	0.079
878.36	0.079
878.54	0.079
878.72	0.079
878.90	0.079
879.08	0.079
879.26	0.080
879.44	0.080
879.62	0.079
879.80	0.080
879.98	0.079
880.16	0.079
880.34	0.079
880.52	0.079
880.70	0.079
880.88	0.079
881.06	0.079
881.24	0.079
881.42	0.079
881.59	0.079
881.77	0.078
881.95	0.079
882.13	0.079
882.31	0.079
882.49	0.079
882.67	0.080
882.85	0.079
883.03	0.080
883.21	0.080
883.39	0.080
883.57	0.081
883.75	0.081
883.92	0.081
884.10	0.081
884.28	0.081
884.46	0.081
884.64	0.081
884.82	0.081
885.00	0.081
885.18	0.081
885.36	0.081
885.54	0.080
885.71	0.080
885.89	0.080
886.07	0.080
886.25	0.080
886.43	0.080
886.61	0.080
886.79	0.080
886.97	0.080
887.15	0.081
887.32	0.081
887.50	0.081
887.68	0.081
887.86	0.081
888.04	0.081
888.22	0.081
888.40	0.081
888.57	0.081
888.75	0.081
888.93	0.082
889.11	0.081
889.29	0.082
889.47	0.082
889.65	0.082
889.82	0.082
890.00	0.082
890.18	0.082
890.36	0.083
890.54	0.083
890.72	0.083
890.90	0.083
891.07	0.083
891.25	0.083
891.43	0.083
891.61	0.083
891.79	0.083
891.97	0.082
892.14	0.082
892.32	0.083
892.50	0.082
892.68	0.083
892.86	0.083
893.03	0.083
893.21	0.083
893.39	0.083
893.57	0.083
893.75	0.083
893.93	0.083
894.10	0.083
894.28	0.083
894.46	0.083
894.64	0.083
894.82	0.083
894.99	0.083
895.17	0.083
895.35	0.083
895.53	0.083
895.71	0.083
895.88	0.083
896.06	0.083
896.24	0.083
896.42	0.083
896.59	0.083
896.77	0.083
896.95	0.083
897.13	0.083
897.31	0.083
897.48	0.083
897.66	0.083
897.84	0.083
898.02	0.083
898.19	0.083
898.37	0.083
898.55	0.084
898.73	0.084
898.91	0.084
899.08	0.084
899.26	0.084
899.44	0.084
899.62	0.084
899.79	0.084
899.97	0.084
900.15	0.084
900.33	0.084
900.50	0.084
900.68	0.084
900.86	0.084
901.04	0.084
901.21	0.084
901.39	0.084
901.57	0.084
901.74	0.085
901.92	0.085
902.10	0.085
902.28	0.085
902.45	0.085
902.63	0.085
902.81	0.085
902.99	0.085
903.16	0.085
903.34	0.086
903.52	0.086
903.69	0.085
903.87	0.085
904.05	0.086
904.22	0.086
904.40	0.086
904.58	0.086
904.76	0.086
904.93	0.086
905.11	0.086
905.29	0.086
905.46	0.086
905.64	0.086
905.82	0.086
905.99	0.086
906.17	0.086
906.35	0.086
906.53	0.086
906.70	0.086
906.88	0.086
907.06	0.086
907.23	0.086
907.41	0.086
907.59	0.086
907.76	0.087
907.94	0.087
908.12	0.087
908.29	0.087
908.47	0.087
908.65	0.087
908.82	0.087
909.00	0.087
909.18	0.087
909.35	0.087
909.53	0.087
909.71	0.087
909.88	0.087
910.06	0.087
910.23	0.087
910.41	0.088
910.59	0.088
910.76	0.088
910.94	0.088
911.12	0.088
911.29	0.088
911.47	0.088
911.65	0.089
911.82	0.089
912.00	0.089
912.17	0.089
912.35	0.089
912.53	0.089
912.70	0.089
912.88	0.090
913.06	0.090
913.23	0.090
913.41	0.090
913.58	0.090
913.76	0.090
913.94	0.091
914.11	0.091
914.29	0.091
914.46	0.091
914.64	0.091
914.82	0.091
914.99	0.091
915.17	0.091
915.34	0.090
915.52	0.091
915.70	0.091
915.87	0.091
916.05	0.091
916.22	0.091
916.40	0.091
916.57	0.091
916.75	0.091
916.93	0.092
917.10	0.091
917.28	0.092
917.45	0.091
917.63	0.091
917.80	0.091
917.98	0.091
918.16	0.091
918.33	0.092
918.51	0.092
918.68	0.092
918.86	0.093
919.03	0.093
919.21	0.093
919.39	0.094
919.56	0.094
919.74	0.094
919.91	0.094
920.09	0.094
920.26	0.094
920.44	0.095
920.61	0.095
920.79	0.095
920.96	0.095
921.14	0.095
921.31	0.095
921.49	0.095
921.67	0.096
921.84	0.096
922.02	0.096
922.19	0.097
922.37	0.097
922.54	0.097
922.72	0.097
922.89	0.098
923.07	0.098
923.24	0.099
923.42	0.099
923.59	0.099
923.77	0.099
923.94	0.099
924.12	0.100
924.29	0.100
924.47	0.100
924.64	0.101
924.82	0.101
924.99	0.101
925.17	0.101
925.34	0.101
925.52	0.102
925.69	0.102
925.87	0.102
926.04	0.102
926.22	0.103
926.39	0.103
926.57	0.104
926.74	0.104
926.91	0.105
927.09	0.105
927.26	0.105
927.44	0.105
927.61	0.106
927.79	0.106
927.96	0.107
928.14	0.107
928.31	0.107
928.49	0.107
928.66	0.108
928.84	0.109
929.01	0.109
929.18	0.110
929.36	0.110
929.53	0.110
929.71	0.110
929.88	0.111
930.06	0.111
930.23	0.112
930.41	0.112
930.58	0.113
930.75	0.113
930.93	0.113
931.10	0.113
931.28	0.113
931.45	0.114
931.63	0.114
931.80	0.114
931.97	0.115
932.15	0.116
932.32	0.116
932.50	0.116
932.67	0.117
932.84	0.117
933.02	0.118
933.19	0.119
933.37	0.119
933.54	0.120
933.71	0.121
933.89	0.122
934.06	0.122
934.24	0.122
934.41	0.123
934.58	0.123
934.76	0.123
934.93	0.124
935.11	0.124
935.28	0.124
935.45	0.124
935.63	0.125
935.80	0.125
935.98	0.125
936.15	0.125
936.32	0.126
936.50	0.127
936.67	0.127
936.84	0.127
937.02	0.129
937.19	0.130
937.36	0.130
937.54	0.130
937.71	0.131
937.89	0.131
938.06	0.132
938.23	0.132
938.41	0.133
938.58	0.133
938.75	0.133
938.93	0.134
939.10	0.134
939.27	0.134
939.45	0.135
939.62	0.135
939.79	0.136
939.97	0.137
940.14	0.137
940.31	0.138
940.49	0.139
940.66	0.139
940.83	0.139
941.01	0.140
941.18	0.142
941.35	0.142
941.53	0.143
941.70	0.144
941.87	0.144
942.05	0.145
942.22	0.146
942.39	0.147
942.57	0.147
942.74	0.148
942.91	0.148
943.08	0.149
943.26	0.149
943.43	0.150
943.60	0.150
943.78	0.151
943.95	0.152
944.12	0.152
944.29	0.153
944.47	0.153
944.64	0.154
944.81	0.155
944.99	0.156
945.16	0.157
945.33	0.157
945.50	0.159
945.68	0.160
945.85	0.160
946.02	0.162
946.20	0.162
946.37	0.163
946.54	0.164
946.71	0.165
946.89	0.165
947.06	0.166
947.23	0.166
947.40	0.168
947.58	0.168
947.75	0.169
947.92	0.170
948.09	0.171
948.27	0.172
948.44	0.173
948.61	0.174
948.78	0.175
948.96	0.177
949.13	0.177
949.30	0.178
949.47	0.179
949.65	0.181
949.82	0.183
949.99	0.183
950.16	0.185
950.33	0.186
950.51	0.187
950.68	0.188
950.85	0.189
951.02	0.190
951.20	0.191
951.37	0.192
951.54	0.193
951.71	0.194
951.88	0.195
952.06	0.196
952.23	0.197
952.40	0.199
952.57	0.200
952.74	0.202
952.92	0.202
953.09	0.204
953.26	0.205
953.43	0.206
953.60	0.207
953.77	0.208
953.95	0.209
954.12	0.211
954.29	0.212
954.46	0.214
954.63	0.215
954.81	0.216
954.98	0.216
955.15	0.218
955.32	0.220
955.49	0.220
955.66	0.222
955.84	0.223
956.01	0.223
956.18	0.225
956.35	0.227
956.52	0.227
956.69	0.229
956.87	0.228
957.04	0.229
957.21	0.231
957.38	0.231
957.55	0.233
957.72	0.234
957.89	0.235
958.07	0.235
958.24	0.238
958.41	0.239
958.58	0.239
958.75	0.240
958.92	0.241
959.09	0.242
959.26	0.242
959.44	0.243
959.61	0.244
959.78	0.245
959.95	0.246
960.12	0.247
960.29	0.249
960.46	0.248
960.63	0.248
960.81	0.249
960.98	0.249
961.15	0.250
961.32	0.251
961.49	0.251
961.66	0.252
961.83	0.252
962.00	0.251
962.17	0.253
962.34	0.253
962.52	0.254
962.69	0.255
962.86	0.254
963.03	0.255
963.20	0.255
963.37	0.254
963.54	0.255
963.71	0.255
963.88	0.255
964.05	0.255
964.22	0.256
964.39	0.255
964.56	0.255
964.74	0.256
964.91	0.256
965.08	0.257
965.25	0.256
965.42	0.257
965.59	0.258
965.76	0.257
965.93	0.258
966.10	0.257
966.27	0.258
966.44	0.257
966.61	0.259
966.78	0.258
966.95	0.257
967.12	0.259
967.29	0.261
967.46	0.261
967.63	0.260
967.80	0.261
967.97	0.261
968.14	0.261
968.32	0.261
968.49	0.262
968.66	0.261
968.83	0.261
969.00	0.261
969.17	0.261
969.34	0.262
969.51	0.262
969.68	0.261
969.85	0.261
970.02	0.261
970.19	0.261
970.36	0.262
970.53	0.261
970.70	0.260
970.87	0.261
971.04	0.261
971.21	0.261
971.38	0.262
971.55	0.262
971.72	0.262
971.89	0.263
972.06	0.262
972.23	0.262
972.40	0.263
972.57	0.261
972.74	0.261
972.91	0.262
973.07	0.262
973.24	0.262
973.41	0.263
973.58	0.261
973.75	0.274
973.92	0.262
974.09	0.261
974.26	0.261
974.43	0.261
974.60	0.261
974.77	0.262
974.94	0.261
975.11	0.261
975.28	0.262
975.45	0.261
975.62	0.261
975.79	0.263
975.96	0.262
976.13	0.261
976.30	0.263
976.47	0.262
976.64	0.262
976.80	0.263
976.97	0.263
977.14	0.262
977.31	0.262
977.48	0.263
977.65	0.262
977.82	0.261
977.99	0.262
978.16	0.262
978.33	0.261
978.50	0.260
978.67	0.260
978.83	0.260
979.00	0.260
979.17	0.259
979.34	0.259
979.51	0.259
979.68	0.259
979.85	0.258
980.02	0.259
980.19	0.257
980.36	0.259
980.52	0.260
980.69	0.259
980.86	0.259
981.03	0.258
981.20	0.257
981.37	0.257
981.54	0.257
981.71	0.256
981.88	0.257
982.04	0.257
982.21	0.255
982.38	0.257
982.55	0.256
982.72	0.255
982.89	0.257
983.06	0.255
983.22	0.255
983.39	0.256
983.56	0.256
983.73	0.255
983.90	0.254
984.07	0.256
984.24	0.254
984.40	0.254
984.57	0.252
984.74	0.254
984.91	0.255
985.08	0.253
985.25	0.251
985.41	0.252
985.58	0.252
985.75	0.253
985.92	0.252
986.09	0.250
986.26	0.251
986.42	0.250
986.59	0.249
986.76	0.250
986.93	0.250
987.10	0.250
987.27	0.249
987.43	0.247
987.60	0.248
987.77	0.248
987.94	0.246
988.11	0.248
988.27	0.248
988.44	0.248
988.61	0.246
988.78	0.245
988.95	0.245
989.11	0.246
989.28	0.245
989.45	0.245
989.62	0.245
989.79	0.245
989.95	0.243
990.12	0.244
990.29	0.244
990.46	0.242
990.62	0.241
990.79	0.241
990.96	0.242
991.13	0.242
991.30	0.241
991.46	0.240
991.63	0.239
991.80	0.238
991.97	0.239
992.13	0.239
992.30	0.240
992.47	0.238
992.64	0.238
992.80	0.238
992.97	0.238
993.14	0.235
993.31	0.233
993.47	0.235
993.64	0.233
993.81	0.232
993.98	0.233
994.14	0.232
994.31	0.231
994.48	0.232
994.64	0.232
994.81	0.231
994.98	0.231
995.15	0.229
995.31	0.229
995.48	0.229
995.65	0.231
995.82	0.228
995.98	0.227
996.15	0.228
996.32	0.229
996.48	0.228
996.65	0.227
996.82	0.225
996.99	0.226
997.15	0.226
997.32	0.227
997.49	0.225
997.65	0.226
997.82	0.226
997.99	0.224
998.15	0.225
998.32	0.225
998.49	0.224
998.65	0.225
998.82	0.224
998.99	0.221
999.15	0.221
999.32	0.220
999.49	0.220
999.65	0.221
999.82	0.218
999.99	0.219
1000.15	0.218
1000.32	0.219
1000.49	0.219
1000.65	0.217
1000.82	0.218
1000.99	0.218
1001.15	0.218
1001.32	0.217
1001.49	0.217
1001.65	0.217
1001.82	0.219
1001.99	0.216
1002.15	0.215
1002.32	0.214
1002.49	0.215
1002.65	0.213
1002.82	0.212
1002.99	0.211
1003.15	0.213
1003.32	0.212
1003.48	0.212
1003.65	0.212
1003.82	0.210
1003.98	0.208
1004.15	0.208
1004.32	0.208
1004.48	0.209
1004.65	0.210
1004.81	0.208
1004.98	0.206
1005.15	0.206
1005.31	0.205
1005.48	0.204
1005.64	0.204
1005.81	0.206
1005.98	0.202
1006.14	0.201
1006.31	0.201
1006.47	0.200
1006.64	0.199
1006.81	0.199
1006.97	0.199
1007.14	0.199
1007.30	0.200
1007.47	0.200
1007.63	0.198
1007.80	0.197
1007.97	0.198
1008.13	0.198
1008.30	0.197
1008.46	0.197
1008.63	0.195
1008.79	0.196
1008.96	0.196
1009.13	0.197
1009.29	0.194
1009.46	0.194
1009.62	0.194
1009.79	0.191
1009.95	0.192
1010.12	0.192
1010.28	0.192
1010.45	0.192
1010.62	0.192
1010.78	0.190
1010.95	0.189
1011.11	0.190
1011.28	0.189
1011.44	0.191
1011.61	0.189
1011.77	0.189
1011.94	0.189
1012.10	0.188
1012.27	0.187
1012.43	0.187
1012.60	0.186
1012.76	0.186
1012.93	0.186
1013.10	0.185
1013.26	0.182
1013.43	0.184
1013.59	0.191
1013.76	0.182
1013.92	0.182
1014.09	0.181
1014.25	0.183
1014.42	0.183
1014.58	0.183
1014.75	0.184
1014.91	0.183
1015.08	0.184
1015.24	0.181
1015.41	0.182
1015.57	0.183
1015.73	0.182
1015.90	0.180
1016.06	0.182
1016.23	0.180
1016.39	0.180
1016.56	0.180
1016.72	0.179
1016.89	0.179
1017.05	0.182
1017.22	0.179
1017.38	0.179
1017.55	0.177
1017.71	0.178
1017.88	0.178
1018.04	0.179
1018.21	0.176
1018.37	0.176
1018.53	0.176
1018.70	0.174
1018.86	0.173
1019.03	0.175
1019.19	0.173
1019.36	0.173
1019.52	0.174
1019.69	0.174
1019.85	0.173
1020.01	0.174
1020.18	0.172
1020.34	0.172
1020.51	0.171
1020.67	0.172
1020.84	0.170
1021.00	0.171
1021.16	0.169
1021.33	0.170
1021.49	0.168
1021.66	0.168
1021.82	0.166
1021.98	0.166
1022.15	0.165
1022.31	0.165
1022.48	0.164
1022.64	0.165
1022.80	0.163
1022.97	0.162
1023.13	0.161
1023.30	0.162
1023.46	0.163
1023.62	0.161
1023.79	0.162
1023.95	0.163
1024.12	0.162
1024.28	0.161
1024.44	0.161
1024.61	0.159
1024.77	0.159
1024.93	0.159
1025.10	0.161
1025.26	0.159
1025.43	0.159
1025.59	0.156
1025.75	0.160
1025.92	0.159
1026.08	0.159
1026.24	0.159
1026.41	0.160
1026.57	0.158
1026.73	0.155
1026.90	0.157
1027.06	0.154
1027.23	0.156
1027.39	0.156
1027.55	0.156
1027.72	0.154
1027.88	0.154
1028.04	0.154
1028.21	0.154
1028.37	0.150
1028.53	0.155
1028.70	0.153
1028.86	0.152
1029.02	0.152
1029.19	0.152
1029.35	0.151
1029.51	0.151
1029.67	0.149
1029.84	0.151
1030.00	0.147
1030.16	0.147
1030.33	0.149
1030.49	0.146
1030.65	0.145
1030.82	0.159
1030.98	0.146
1031.14	0.145
1031.31	0.145
1031.47	0.143
1031.63	0.144
1031.79	0.143
1031.96	0.145
1032.12	0.147
1032.28	0.145
1032.45	0.148
1032.61	0.147
1032.77	0.145
1032.93	0.143
1033.10	0.145
1033.26	0.147
1033.42	0.146
1033.58	0.146
1033.75	0.145
1033.91	0.143
1034.07	0.145
1034.24	0.144
1034.40	0.142
1034.56	0.142
1034.72	0.144
1034.89	0.143
1035.05	0.140
1035.21	0.140
1035.37	0.140
1035.54	0.143
1035.70	0.140
1035.86	0.139
1036.02	0.140
1036.19	0.138
1036.35	0.137
1036.51	0.140
1036.67	0.138
1036.83	0.138
1037.00	0.136
1037.16	0.136
1037.32	0.136
1037.48	0.137
1037.65	0.141
1037.81	0.137
1037.97	0.137
1038.13	0.136
1038.29	0.134
1038.46	0.133
1038.62	0.138
1038.78	0.136
1038.94	0.133
1039.10	0.137
1039.27	0.131
1039.43	0.133
1039.59	0.133
1039.75	0.134
1039.91	0.133
1040.08	0.133
1040.24	0.134
1040.40	0.136
1040.56	0.135
1040.72	0.130
1040.89	0.133
1041.05	0.135
1041.21	0.134
1041.37	0.131
1041.53	0.136
1041.69	0.135
1041.86	0.134
1042.02	0.131
1042.18	0.130
1042.34	0.133
1042.50	0.137
1042.66	0.133
1042.83	0.132
1042.99	0.137
1043.15	0.132
1043.31	0.131
1043.47	0.135
1043.63	0.131
1043.79	0.130
1043.96	0.130
1044.12	0.133
1044.28	0.128
1044.44	0.131
1044.60	0.126
1044.76	0.123
1044.92	0.126
1045.09	0.130
1045.25	0.127
1045.41	0.128
1045.57	0.125
1045.73	0.127
1045.89	0.128
1046.05	0.130
1046.21	0.131
1046.38	0.134
1046.54	0.142
1046.70	0.136
1046.86	0.117
>>>>>End Processed Spectral Data<<<<<
