SpectraSuite Data File
++++++++++++++++++++++++++++++++++++
Date: Mon May 20 12:13:12 CDT 2013
User: Students
Dark Spectrum Present: Yes
Reference Spectrum Present: Yes
Number of Sampled Component Spectra: 1
Spectrometers: USB4H00887
Integration Time (usec): 60000 (USB4H00887)
Spectra Averaged: 5 (USB4H00887)
Boxcar Smoothing: 5 (USB4H00887)
Correct for Electrical Dark: No (USB4H00887)
Strobe/Lamp Enabled: No (USB4H00887)
Correct for Detector Non-linearity: No (USB4H00887)
Correct for Stray Light: No (USB4H00887)
Number of Pixels in Processed Spectrum: 3648
>>>>>Begin Processed Spectral Data<<<<<
345.83	-0.006
346.05	-0.006
346.26	-0.006
346.48	-0.054
346.70	-0.067
346.92	0.097
347.14	0.083
347.35	0.105
347.57	-0.000
347.79	-0.403
348.01	-0.262
348.23	-0.396
348.44	-0.000
348.66	0.396
348.88	-0.469
349.10	-0.316
349.32	0.172
349.53	-0.056
349.75	-0.062
349.97	-0.031
350.19	-0.011
350.41	-0.040
350.62	1.386
350.84	-0.048
351.06	-0.051
351.28	-0.105
351.50	-0.322
351.71	-0.277
351.93	-0.242
352.15	-0.066
352.37	-0.222
352.58	-0.062
352.80	-0.026
353.02	-0.017
353.24	0.003
353.46	0.029
353.67	-0.132
353.89	0.043
354.11	0.045
354.33	0.066
354.54	0.124
354.76	0.205
354.98	0.351
355.20	0.234
355.41	0.104
355.63	0.171
355.85	0.099
356.07	1.466
356.28	0.082
356.50	0.132
356.72	0.057
356.94	0.139
357.15	0.213
357.37	-0.000
357.59	0.130
357.81	0.079
358.02	0.151
358.24	0.098
358.46	0.178
358.68	0.189
358.89	0.122
359.11	-0.000
359.33	0.096
359.55	-0.556
359.76	0.129
359.98	0.141
360.20	0.167
360.42	0.119
360.63	0.155
360.85	0.131
361.07	0.884
361.29	0.114
361.50	0.425
361.72	0.132
361.94	0.759
362.15	0.247
362.37	0.123
362.59	0.126
362.81	0.242
363.02	0.339
363.24	0.550
363.46	0.286
363.68	0.398
363.89	0.210
364.11	0.288
364.33	0.320
364.54	0.194
364.76	0.266
364.98	0.264
365.20	0.305
365.41	0.192
365.63	0.199
365.85	0.129
366.06	0.284
366.28	0.334
366.50	0.194
366.71	0.084
366.93	0.096
367.15	0.062
367.37	0.045
367.58	0.053
367.80	0.064
368.02	0.168
368.23	0.083
368.45	0.091
368.67	0.097
368.88	0.104
369.10	-0.000
369.32	0.121
369.53	0.090
369.75	0.179
369.97	0.639
370.19	0.299
370.40	0.120
370.62	0.371
370.84	0.126
371.05	0.621
371.27	0.161
371.49	0.180
371.70	0.229
371.92	0.336
372.14	0.132
372.35	0.130
372.57	0.172
372.79	0.498
373.00	0.124
373.22	0.210
373.44	0.204
373.65	0.173
373.87	0.289
374.09	-0.000
374.30	0.216
374.52	0.249
374.74	0.191
374.95	-0.000
375.17	0.205
375.39	-0.000
375.60	0.214
375.82	0.447
376.04	0.168
376.25	0.187
376.47	0.121
376.68	0.307
376.90	0.167
377.12	0.369
377.33	0.161
377.55	0.440
377.77	0.216
377.98	0.300
378.20	0.153
378.42	0.184
378.63	0.225
378.85	-0.000
379.07	0.133
379.28	0.482
379.50	0.296
379.71	0.171
379.93	0.114
380.15	0.163
380.36	0.240
380.58	0.173
380.80	0.525
381.01	0.148
381.23	0.123
381.44	0.155
381.66	0.179
381.88	0.223
382.09	-0.086
382.31	0.135
382.53	0.138
382.74	1.004
382.96	0.201
383.17	0.157
383.39	0.219
383.61	0.288
383.82	0.201
384.04	0.242
384.25	0.301
384.47	0.308
384.69	0.293
384.90	0.279
385.12	0.592
385.33	0.361
385.55	0.269
385.77	0.428
385.98	0.202
386.20	0.269
386.41	0.231
386.63	0.256
386.85	0.221
387.06	0.276
387.28	0.420
387.49	0.285
387.71	0.202
387.93	0.176
388.14	0.563
388.36	0.249
388.57	0.237
388.79	0.268
389.01	-0.000
389.22	0.333
389.44	0.283
389.65	0.237
389.87	0.229
390.08	0.294
390.30	0.224
390.52	0.464
390.73	0.432
390.95	0.286
391.16	0.284
391.38	-0.000
391.59	0.330
391.81	0.289
392.03	0.265
392.24	0.316
392.46	0.257
392.67	0.233
392.89	0.306
393.10	0.483
393.32	0.317
393.53	0.364
393.75	0.237
393.97	0.268
394.18	0.350
394.40	0.286
394.61	0.279
394.83	0.235
395.04	0.277
395.26	0.200
395.47	0.298
395.69	0.249
395.91	0.258
396.12	0.318
396.34	0.318
396.55	0.210
396.77	0.333
396.98	-0.000
397.20	0.389
397.41	0.450
397.63	0.312
397.84	0.286
398.06	0.267
398.27	0.279
398.49	0.323
398.71	0.240
398.92	0.294
399.14	0.378
399.35	0.477
399.57	0.470
399.78	0.306
400.00	0.289
400.21	0.374
400.43	0.304
400.64	0.309
400.86	0.684
401.07	0.373
401.29	0.316
401.50	0.343
401.72	0.527
401.93	0.335
402.15	0.411
402.36	0.372
402.58	0.300
402.79	0.340
403.01	0.592
403.22	0.453
403.44	0.291
403.65	0.494
403.87	0.524
404.08	0.404
404.30	0.715
404.51	0.375
404.73	0.476
404.94	0.407
405.16	0.420
405.37	0.317
405.59	0.609
405.80	0.362
406.02	0.444
406.23	0.473
406.45	0.534
406.66	0.556
406.88	0.348
407.09	0.538
407.31	0.410
407.52	0.484
407.74	0.413
407.95	0.505
408.17	0.464
408.38	0.499
408.60	0.315
408.81	0.528
409.03	0.385
409.24	0.379
409.45	0.451
409.67	0.430
409.88	0.394
410.10	0.485
410.31	0.394
410.53	0.381
410.74	0.547
410.96	0.545
411.17	0.583
411.39	0.454
411.60	0.414
411.82	0.486
412.03	0.481
412.24	0.460
412.46	0.733
412.67	0.560
412.89	0.542
413.10	0.513
413.32	0.443
413.53	0.507
413.75	0.511
413.96	0.381
414.17	0.496
414.39	0.498
414.60	0.399
414.82	0.504
415.03	0.400
415.25	0.442
415.46	0.317
415.68	0.449
415.89	0.868
416.10	0.691
416.32	0.390
416.53	0.460
416.75	0.422
416.96	0.510
417.18	0.443
417.39	0.431
417.60	0.437
417.82	0.640
418.03	0.563
418.25	0.452
418.46	0.458
418.67	0.413
418.89	0.449
419.10	0.475
419.32	0.646
419.53	0.598
419.75	0.494
419.96	0.434
420.17	0.538
420.39	0.501
420.60	0.522
420.82	0.667
421.03	0.531
421.24	0.443
421.46	0.497
421.67	0.542
421.89	0.473
422.10	0.521
422.31	0.518
422.53	0.779
422.74	0.570
422.96	0.459
423.17	0.512
423.38	0.637
423.60	0.526
423.81	0.655
424.03	0.560
424.24	0.617
424.45	0.610
424.67	0.594
424.88	0.510
425.09	0.541
425.31	0.490
425.52	0.512
425.74	0.572
425.95	0.629
426.16	0.487
426.38	0.552
426.59	0.506
426.80	0.578
427.02	0.602
427.23	0.472
427.45	0.603
427.66	0.594
427.87	0.463
428.09	0.494
428.30	0.553
428.51	0.554
428.73	0.623
428.94	0.551
429.15	0.535
429.37	0.522
429.58	0.561
429.79	0.520
430.01	0.623
430.22	0.641
430.44	0.661
430.65	0.584
430.86	0.622
431.08	0.610
431.29	0.562
431.50	0.678
431.72	0.913
431.93	0.710
432.14	0.530
432.36	0.579
432.57	0.588
432.78	0.611
433.00	0.560
433.21	0.554
433.42	0.679
433.64	0.587
433.85	0.676
434.06	0.554
434.28	0.591
434.49	0.603
434.70	0.621
434.92	0.630
435.13	0.675
435.34	0.682
435.56	0.640
435.77	0.637
435.98	0.819
436.20	0.680
436.41	0.581
436.62	0.569
436.83	0.660
437.05	0.745
437.26	0.646
437.47	0.573
437.69	0.635
437.90	0.577
438.11	0.569
438.33	0.631
438.54	0.645
438.75	0.828
438.97	0.815
439.18	0.602
439.39	0.636
439.60	0.694
439.82	0.649
440.03	0.594
440.24	0.904
440.46	0.667
440.67	0.642
440.88	0.687
441.10	0.641
441.31	0.644
441.52	0.701
441.73	0.790
441.95	0.693
442.16	0.636
442.37	1.059
442.58	0.624
442.80	0.607
443.01	0.797
443.22	0.722
443.44	0.608
443.65	0.717
443.86	0.716
444.07	0.765
444.29	0.658
444.50	0.852
444.71	0.631
444.92	0.587
445.14	0.744
445.35	0.794
445.56	0.628
445.78	0.750
445.99	0.744
446.20	0.633
446.41	0.713
446.63	0.711
446.84	0.659
447.05	0.665
447.26	0.804
447.48	0.690
447.69	0.648
447.90	0.733
448.11	0.651
448.33	0.680
448.54	0.704
448.75	0.742
448.96	0.757
449.18	0.815
449.39	0.717
449.60	0.696
449.81	0.839
450.03	0.721
450.24	0.791
450.45	0.741
450.66	0.717
450.87	0.751
451.09	0.703
451.30	0.678
451.51	0.754
451.72	0.767
451.94	0.789
452.15	0.871
452.36	0.715
452.57	0.734
452.78	0.737
453.00	0.777
453.21	0.727
453.42	0.697
453.63	0.804
453.85	0.765
454.06	0.763
454.27	0.910
454.48	0.800
454.69	0.724
454.91	0.800
455.12	0.688
455.33	0.777
455.54	0.800
455.75	0.764
455.97	0.787
456.18	0.775
456.39	0.780
456.60	0.809
456.81	0.744
457.03	0.757
457.24	0.752
457.45	0.855
457.66	0.791
457.87	0.745
458.09	0.773
458.30	0.686
458.51	0.822
458.72	0.845
458.93	0.855
459.15	0.749
459.36	0.822
459.57	0.859
459.78	0.905
459.99	0.804
460.20	0.760
460.42	0.846
460.63	0.791
460.84	0.771
461.05	0.793
461.26	0.854
461.47	0.763
461.69	0.813
461.90	0.846
462.11	0.803
462.32	0.862
462.53	0.792
462.74	0.891
462.96	0.769
463.17	0.758
463.38	0.797
463.59	0.911
463.80	0.756
464.01	0.783
464.23	0.863
464.44	0.822
464.65	0.831
464.86	0.861
465.07	0.873
465.28	0.838
465.49	0.860
465.71	0.815
465.92	0.857
466.13	0.908
466.34	0.833
466.55	0.890
466.76	0.852
466.97	0.875
467.19	0.864
467.40	0.900
467.61	0.904
467.82	0.817
468.03	0.802
468.24	0.869
468.45	0.904
468.66	0.884
468.88	0.899
469.09	0.900
469.30	0.952
469.51	0.866
469.72	0.908
469.93	0.874
470.14	0.854
470.35	0.943
470.57	0.899
470.78	0.837
470.99	0.979
471.20	0.909
471.41	0.868
471.62	0.921
471.83	0.898
472.04	0.933
472.25	0.981
472.47	0.888
472.68	0.897
472.89	0.899
473.10	0.942
473.31	0.888
473.52	0.954
473.73	0.973
473.94	0.884
474.15	0.908
474.36	0.907
474.57	0.939
474.79	0.912
475.00	0.914
475.21	0.901
475.42	1.001
475.63	0.896
475.84	0.926
476.05	0.933
476.26	0.902
476.47	0.935
476.68	0.981
476.89	0.902
477.10	0.956
477.32	0.937
477.53	0.988
477.74	0.905
477.95	0.947
478.16	0.898
478.37	0.944
478.58	0.954
478.79	0.972
479.00	0.973
479.21	0.932
479.42	0.970
479.63	0.979
479.84	0.944
480.05	0.942
480.26	0.972
480.47	0.995
480.69	0.993
480.90	0.955
481.11	0.947
481.32	1.015
481.53	0.947
481.74	1.007
481.95	0.967
482.16	0.984
482.37	0.993
482.58	0.956
482.79	0.971
483.00	1.002
483.21	0.946
483.42	0.917
483.63	0.995
483.84	1.025
484.05	1.010
484.26	0.987
484.47	0.982
484.68	0.942
484.89	0.953
485.10	1.002
485.31	0.979
485.52	0.985
485.73	0.987
485.94	1.030
486.15	0.975
486.37	0.995
486.58	0.952
486.79	0.966
487.00	1.020
487.21	1.007
487.42	1.002
487.63	1.009
487.84	1.026
488.05	1.020
488.26	0.976
488.47	0.983
488.68	1.012
488.89	0.989
489.10	0.984
489.31	0.997
489.52	1.030
489.73	0.996
489.94	1.033
490.15	0.989
490.36	1.034
490.57	0.984
490.78	0.965
490.99	1.005
491.20	1.090
491.41	1.040
491.62	0.978
491.83	1.010
492.04	1.007
492.25	1.016
492.45	1.015
492.66	1.043
492.87	1.030
493.08	1.021
493.29	1.001
493.50	0.990
493.71	1.000
493.92	0.994
494.13	1.009
494.34	1.030
494.55	1.036
494.76	1.066
494.97	1.055
495.18	1.021
495.39	1.037
495.60	0.988
495.81	0.991
496.02	1.012
496.23	1.008
496.44	1.045
496.65	1.035
496.86	1.040
497.07	1.073
497.28	1.066
497.49	1.010
497.70	1.012
497.91	1.030
498.12	1.007
498.32	1.050
498.53	1.032
498.74	1.021
498.95	1.047
499.16	1.001
499.37	1.003
499.58	1.015
499.79	1.046
500.00	1.038
500.21	1.069
500.42	1.014
500.63	1.016
500.84	1.037
501.05	1.014
501.26	1.042
501.46	1.081
501.67	1.040
501.88	1.043
502.09	1.018
502.30	1.028
502.51	1.081
502.72	1.034
502.93	1.050
503.14	1.074
503.35	1.044
503.56	1.038
503.77	1.070
503.97	1.047
504.18	1.046
504.39	1.081
504.60	1.050
504.81	1.079
505.02	1.065
505.23	1.067
505.44	1.048
505.65	1.056
505.86	1.037
506.07	1.107
506.27	1.064
506.48	1.069
506.69	1.052
506.90	1.071
507.11	1.069
507.32	1.043
507.53	1.053
507.74	1.047
507.95	1.060
508.15	1.067
508.36	1.071
508.57	1.081
508.78	1.065
508.99	1.066
509.20	1.042
509.41	1.067
509.62	1.055
509.82	1.048
510.03	1.058
510.24	1.057
510.45	1.079
510.66	1.072
510.87	1.067
511.08	1.025
511.29	1.066
511.49	1.042
511.70	1.089
511.91	1.019
512.12	1.021
512.33	1.055
512.54	1.071
512.75	1.054
512.95	1.081
513.16	1.071
513.37	1.045
513.58	1.086
513.79	1.049
514.00	1.056
514.20	1.075
514.41	1.060
514.62	1.028
514.83	1.068
515.04	1.060
515.25	1.039
515.46	1.052
515.66	1.051
515.87	1.064
516.08	1.029
516.29	1.054
516.50	1.034
516.71	1.029
516.91	1.037
517.12	1.056
517.33	1.041
517.54	1.026
517.75	1.030
517.95	1.046
518.16	1.059
518.37	1.027
518.58	1.032
518.79	1.005
519.00	1.037
519.20	1.048
519.41	1.020
519.62	1.039
519.83	1.048
520.04	1.010
520.24	1.007
520.45	1.016
520.66	1.038
520.87	1.001
521.08	0.999
521.28	1.002
521.49	1.019
521.70	0.987
521.91	1.003
522.12	0.986
522.32	1.009
522.53	0.990
522.74	0.979
522.95	0.992
523.16	0.994
523.36	1.004
523.57	0.984
523.78	0.978
523.99	0.984
524.20	0.975
524.40	0.988
524.61	0.995
524.82	0.967
525.03	0.971
525.23	0.970
525.44	0.953
525.65	0.951
525.86	0.975
526.06	0.946
526.27	0.945
526.48	0.956
526.69	0.936
526.90	0.941
527.10	0.979
527.31	0.934
527.52	0.929
527.73	0.921
527.93	0.932
528.14	0.938
528.35	0.926
528.56	0.927
528.76	0.921
528.97	0.912
529.18	0.903
529.39	0.902
529.59	0.905
529.80	0.936
530.01	0.909
530.22	0.907
530.42	0.875
530.63	0.894
530.84	0.871
531.05	0.884
531.25	0.888
531.46	0.879
531.67	0.856
531.88	0.875
532.08	0.869
532.29	0.863
532.50	0.857
532.70	0.851
532.91	0.841
533.12	0.844
533.33	0.871
533.53	0.839
533.74	0.839
533.95	0.845
534.15	0.834
534.36	0.834
534.57	0.818
534.78	0.819
534.98	0.829
535.19	0.799
535.40	0.801
535.60	0.819
535.81	0.798
536.02	0.801
536.23	0.792
536.43	0.793
536.64	0.781
536.85	0.789
537.05	0.798
537.26	0.775
537.47	0.778
537.67	0.768
537.88	0.762
538.09	0.770
538.30	0.759
538.50	0.750
538.71	0.761
538.92	0.747
539.12	0.743
539.33	0.738
539.54	0.738
539.74	0.743
539.95	0.733
540.16	0.731
540.36	0.722
540.57	0.722
540.78	0.716
540.98	0.714
541.19	0.713
541.40	0.700
541.60	0.712
541.81	0.706
542.02	0.707
542.22	0.695
542.43	0.691
542.64	0.684
542.84	0.683
543.05	0.674
543.26	0.674
543.46	0.676
543.67	0.674
543.88	0.669
544.08	0.659
544.29	0.654
544.50	0.654
544.70	0.655
544.91	0.647
545.12	0.649
545.32	0.643
545.53	0.648
545.74	0.637
545.94	0.633
546.15	0.630
546.35	0.627
546.56	0.623
546.77	0.620
546.97	0.617
547.18	0.610
547.39	0.610
547.59	0.608
547.80	0.603
548.01	0.608
548.21	0.603
548.42	0.596
548.62	0.595
548.83	0.592
549.04	0.588
549.24	0.580
549.45	0.579
549.65	0.575
549.86	0.570
550.07	0.570
550.27	0.567
550.48	0.575
550.69	0.560
550.89	0.561
551.10	0.557
551.30	0.556
551.51	0.555
551.72	0.545
551.92	0.547
552.13	0.547
552.33	0.547
552.54	0.541
552.75	0.534
552.95	0.535
553.16	0.529
553.36	0.527
553.57	0.525
553.78	0.523
553.98	0.523
554.19	0.513
554.39	0.510
554.60	0.512
554.80	0.512
555.01	0.505
555.22	0.508
555.42	0.504
555.63	0.498
555.83	0.501
556.04	0.495
556.25	0.497
556.45	0.489
556.66	0.487
556.86	0.490
557.07	0.488
557.27	0.487
557.48	0.481
557.68	0.478
557.89	0.479
558.10	0.475
558.30	0.472
558.51	0.469
558.71	0.467
558.92	0.463
559.12	0.465
559.33	0.467
559.54	0.461
559.74	0.457
559.95	0.455
560.15	0.455
560.36	0.453
560.56	0.448
560.77	0.449
560.97	0.449
561.18	0.443
561.38	0.442
561.59	0.445
561.79	0.442
562.00	0.440
562.21	0.436
562.41	0.435
562.62	0.433
562.82	0.431
563.03	0.427
563.23	0.426
563.44	0.426
563.64	0.423
563.85	0.424
564.05	0.417
564.26	0.416
564.46	0.415
564.67	0.415
564.87	0.411
565.08	0.407
565.28	0.407
565.49	0.407
565.69	0.404
565.90	0.401
566.10	0.404
566.31	0.397
566.51	0.399
566.72	0.400
566.92	0.393
567.13	0.393
567.33	0.392
567.54	0.390
567.74	0.389
567.95	0.385
568.15	0.386
568.36	0.386
568.56	0.384
568.77	0.380
568.97	0.378
569.18	0.378
569.38	0.376
569.59	0.377
569.79	0.374
570.00	0.372
570.20	0.371
570.41	0.369
570.61	0.367
570.82	0.368
571.02	0.364
571.23	0.366
571.43	0.362
571.64	0.360
571.84	0.359
572.05	0.358
572.25	0.358
572.45	0.356
572.66	0.353
572.86	0.352
573.07	0.350
573.27	0.351
573.48	0.350
573.68	0.345
573.89	0.345
574.09	0.346
574.30	0.343
574.50	0.342
574.70	0.342
574.91	0.340
575.11	0.340
575.32	0.340
575.52	0.335
575.73	0.334
575.93	0.334
576.14	0.333
576.34	0.331
576.54	0.330
576.75	0.328
576.95	0.327
577.16	0.325
577.36	0.324
577.57	0.323
577.77	0.322
577.97	0.319
578.18	0.320
578.38	0.317
578.59	0.316
578.79	0.314
579.00	0.315
579.20	0.313
579.40	0.313
579.61	0.312
579.81	0.311
580.02	0.309
580.22	0.309
580.42	0.307
580.63	0.308
580.83	0.306
581.04	0.305
581.24	0.304
581.45	0.303
581.65	0.302
581.85	0.301
582.06	0.298
582.26	0.298
582.47	0.297
582.67	0.296
582.87	0.295
583.08	0.293
583.28	0.293
583.48	0.291
583.69	0.288
583.89	0.288
584.10	0.289
584.30	0.286
584.50	0.285
584.71	0.284
584.91	0.284
585.12	0.281
585.32	0.283
585.52	0.280
585.73	0.279
585.93	0.278
586.13	0.277
586.34	0.276
586.54	0.276
586.75	0.275
586.95	0.273
587.15	0.273
587.36	0.272
587.56	0.270
587.76	0.269
587.97	0.268
588.17	0.267
588.37	0.267
588.58	0.267
588.78	0.264
588.98	0.264
589.19	0.263
589.39	0.261
589.60	0.263
589.80	0.260
590.00	0.260
590.21	0.260
590.41	0.258
590.61	0.257
590.82	0.257
591.02	0.255
591.22	0.254
591.43	0.254
591.63	0.252
591.83	0.252
592.04	0.250
592.24	0.251
592.44	0.248
592.65	0.246
592.85	0.246
593.05	0.247
593.26	0.245
593.46	0.245
593.66	0.245
593.86	0.244
594.07	0.242
594.27	0.242
594.47	0.241
594.68	0.241
594.88	0.241
595.08	0.240
595.29	0.240
595.49	0.238
595.69	0.238
595.90	0.237
596.10	0.237
596.30	0.237
596.50	0.235
596.71	0.235
596.91	0.234
597.11	0.234
597.32	0.233
597.52	0.233
597.72	0.232
597.93	0.231
598.13	0.230
598.33	0.230
598.53	0.229
598.74	0.228
598.94	0.228
599.14	0.227
599.35	0.227
599.55	0.227
599.75	0.226
599.95	0.225
600.16	0.226
600.36	0.224
600.56	0.223
600.76	0.222
600.97	0.221
601.17	0.220
601.37	0.220
601.58	0.219
601.78	0.219
601.98	0.218
602.18	0.216
602.39	0.216
602.59	0.216
602.79	0.215
602.99	0.215
603.20	0.214
603.40	0.215
603.60	0.214
603.80	0.214
604.01	0.213
604.21	0.212
604.41	0.212
604.61	0.210
604.82	0.210
605.02	0.210
605.22	0.210
605.42	0.210
605.62	0.210
605.83	0.209
606.03	0.208
606.23	0.208
606.43	0.207
606.64	0.207
606.84	0.207
607.04	0.206
607.24	0.206
607.45	0.206
607.65	0.204
607.85	0.205
608.05	0.203
608.25	0.203
608.46	0.202
608.66	0.202
608.86	0.202
609.06	0.201
609.26	0.199
609.47	0.199
609.67	0.198
609.87	0.199
610.07	0.198
610.28	0.197
610.48	0.197
610.68	0.198
610.88	0.197
611.08	0.197
611.29	0.196
611.49	0.196
611.69	0.196
611.89	0.195
612.09	0.194
612.29	0.194
612.50	0.194
612.70	0.193
612.90	0.192
613.10	0.191
613.30	0.190
613.51	0.190
613.71	0.189
613.91	0.194
614.11	0.189
614.31	0.189
614.51	0.188
614.72	0.187
614.92	0.187
615.12	0.187
615.32	0.188
615.52	0.187
615.72	0.187
615.93	0.187
616.13	0.186
616.33	0.186
616.53	0.186
616.73	0.186
616.93	0.185
617.14	0.185
617.34	0.185
617.54	0.185
617.74	0.185
617.94	0.184
618.14	0.184
618.34	0.184
618.55	0.183
618.75	0.184
618.95	0.183
619.15	0.183
619.35	0.183
619.55	0.181
619.75	0.182
619.96	0.181
620.16	0.181
620.36	0.181
620.56	0.180
620.76	0.180
620.96	0.179
621.16	0.179
621.36	0.179
621.57	0.179
621.77	0.179
621.97	0.178
622.17	0.178
622.37	0.177
622.57	0.177
622.77	0.176
622.97	0.175
623.18	0.176
623.38	0.176
623.58	0.175
623.78	0.175
623.98	0.174
624.18	0.174
624.38	0.173
624.58	0.173
624.78	0.174
624.98	0.174
625.19	0.173
625.39	0.173
625.59	0.173
625.79	0.173
625.99	0.172
626.19	0.173
626.39	0.172
626.59	0.172
626.79	0.172
626.99	0.172
627.19	0.171
627.40	0.171
627.60	0.171
627.80	0.170
628.00	0.170
628.20	0.169
628.40	0.169
628.60	0.169
628.80	0.168
629.00	0.169
629.20	0.168
629.40	0.168
629.60	0.166
629.80	0.167
630.00	0.167
630.20	0.167
630.41	0.166
630.61	0.166
630.81	0.165
631.01	0.166
631.21	0.165
631.41	0.165
631.61	0.165
631.81	0.165
632.01	0.165
632.21	0.165
632.41	0.163
632.61	0.163
632.81	0.163
633.01	0.164
633.21	0.163
633.41	0.164
633.61	0.163
633.81	0.162
634.01	0.162
634.21	0.162
634.41	0.162
634.61	0.162
634.81	0.162
635.01	0.161
635.22	0.161
635.42	0.161
635.62	0.161
635.82	0.161
636.02	0.161
636.22	0.160
636.42	0.159
636.62	0.159
636.82	0.159
637.02	0.159
637.22	0.159
637.42	0.158
637.62	0.157
637.82	0.158
638.02	0.157
638.22	0.157
638.42	0.157
638.62	0.156
638.82	0.156
639.02	0.156
639.22	0.156
639.42	0.155
639.62	0.155
639.82	0.155
640.02	0.155
640.22	0.155
640.42	0.155
640.62	0.155
640.82	0.154
641.02	0.154
641.22	0.154
641.42	0.153
641.61	0.154
641.81	0.154
642.01	0.153
642.21	0.154
642.41	0.154
642.61	0.153
642.81	0.152
643.01	0.152
643.21	0.152
643.41	0.152
643.61	0.152
643.81	0.152
644.01	0.150
644.21	0.150
644.41	0.150
644.61	0.150
644.81	0.150
645.01	0.150
645.21	0.150
645.41	0.150
645.61	0.150
645.81	0.149
646.01	0.149
646.21	0.149
646.40	0.149
646.60	0.149
646.80	0.149
647.00	0.149
647.20	0.148
647.40	0.148
647.60	0.148
647.80	0.148
648.00	0.148
648.20	0.147
648.40	0.147
648.60	0.146
648.80	0.146
649.00	0.146
649.20	0.146
649.39	0.145
649.59	0.144
649.79	0.144
649.99	0.144
650.19	0.144
650.39	0.143
650.59	0.144
650.79	0.143
650.99	0.143
651.19	0.142
651.39	0.142
651.58	0.142
651.78	0.142
651.98	0.142
652.18	0.141
652.38	0.141
652.58	0.142
652.78	0.141
652.98	0.141
653.18	0.141
653.38	0.141
653.57	0.141
653.77	0.141
653.97	0.141
654.17	0.140
654.37	0.140
654.57	0.140
654.77	0.139
654.97	0.139
655.16	0.139
655.36	0.138
655.56	0.138
655.76	0.137
655.96	0.138
656.16	0.137
656.36	0.137
656.56	0.137
656.75	0.136
656.95	0.136
657.15	0.136
657.35	0.136
657.55	0.136
657.75	0.136
657.95	0.136
658.14	0.136
658.34	0.136
658.54	0.135
658.74	0.135
658.94	0.135
659.14	0.135
659.34	0.135
659.53	0.134
659.73	0.134
659.93	0.134
660.13	0.133
660.33	0.133
660.53	0.133
660.72	0.134
660.92	0.133
661.12	0.132
661.32	0.132
661.52	0.132
661.72	0.132
661.91	0.132
662.11	0.132
662.31	0.131
662.51	0.131
662.71	0.131
662.90	0.130
663.10	0.130
663.30	0.130
663.50	0.129
663.70	0.129
663.90	0.129
664.09	0.128
664.29	0.128
664.49	0.128
664.69	0.128
664.89	0.128
665.08	0.127
665.28	0.127
665.48	0.127
665.68	0.126
665.88	0.126
666.07	0.126
666.27	0.126
666.47	0.126
666.67	0.127
666.87	0.127
667.06	0.126
667.26	0.126
667.46	0.126
667.66	0.126
667.85	0.126
668.05	0.126
668.25	0.126
668.45	0.126
668.65	0.126
668.84	0.125
669.04	0.125
669.24	0.124
669.44	0.124
669.63	0.124
669.83	0.124
670.03	0.123
670.23	0.123
670.42	0.123
670.62	0.122
670.82	0.122
671.02	0.122
671.22	0.121
671.41	0.121
671.61	0.121
671.81	0.121
672.01	0.121
672.20	0.121
672.40	0.120
672.60	0.120
672.80	0.120
672.99	0.120
673.19	0.119
673.39	0.119
673.58	0.119
673.78	0.118
673.98	0.118
674.18	0.118
674.37	0.117
674.57	0.117
674.77	0.118
674.97	0.117
675.16	0.117
675.36	0.117
675.56	0.116
675.75	0.116
675.95	0.116
676.15	0.116
676.35	0.116
676.54	0.117
676.74	0.116
676.94	0.116
677.13	0.115
677.33	0.115
677.53	0.115
677.73	0.115
677.92	0.115
678.12	0.115
678.32	0.114
678.51	0.115
678.71	0.115
678.91	0.114
679.11	0.114
679.30	0.113
679.50	0.113
679.70	0.113
679.89	0.113
680.09	0.113
680.29	0.112
680.48	0.112
680.68	0.111
680.88	0.112
681.07	0.112
681.27	0.111
681.47	0.111
681.66	0.111
681.86	0.111
682.06	0.111
682.25	0.111
682.45	0.111
682.65	0.110
682.84	0.110
683.04	0.110
683.24	0.109
683.43	0.110
683.63	0.109
683.83	0.109
684.02	0.109
684.22	0.109
684.42	0.109
684.61	0.109
684.81	0.109
685.01	0.109
685.20	0.108
685.40	0.108
685.60	0.108
685.79	0.108
685.99	0.108
686.19	0.107
686.38	0.107
686.58	0.107
686.77	0.107
686.97	0.107
687.17	0.107
687.36	0.106
687.56	0.106
687.76	0.106
687.95	0.106
688.15	0.106
688.34	0.106
688.54	0.105
688.74	0.105
688.93	0.104
689.13	0.104
689.33	0.104
689.52	0.104
689.72	0.104
689.91	0.104
690.11	0.104
690.31	0.103
690.50	0.103
690.70	0.104
690.89	0.104
691.09	0.103
691.29	0.103
691.48	0.103
691.68	0.103
691.87	0.103
692.07	0.103
692.27	0.102
692.46	0.102
692.66	0.102
692.85	0.102
693.05	0.102
693.25	0.102
693.44	0.101
693.64	0.101
693.83	0.101
694.03	0.101
694.22	0.100
694.42	0.101
694.62	0.101
694.81	0.101
695.01	0.101
695.20	0.100
695.40	0.100
695.59	0.100
695.79	0.099
695.99	0.099
696.18	0.099
696.38	0.100
696.57	0.100
696.77	0.099
696.96	0.100
697.16	0.099
697.36	0.099
697.55	0.099
697.75	0.099
697.94	0.099
698.14	0.099
698.33	0.098
698.53	0.098
698.72	0.098
698.92	0.098
699.11	0.097
699.31	0.097
699.51	0.097
699.70	0.097
699.90	0.097
700.09	0.097
700.29	0.096
700.48	0.097
700.68	0.096
700.87	0.096
701.07	0.096
701.26	0.095
701.46	0.095
701.65	0.095
701.85	0.095
702.04	0.095
702.24	0.095
702.43	0.095
702.63	0.095
702.82	0.095
703.02	0.095
703.21	0.094
703.41	0.094
703.60	0.094
703.80	0.094
703.99	0.093
704.19	0.094
704.38	0.094
704.58	0.093
704.77	0.093
704.97	0.093
705.16	0.093
705.36	0.094
705.55	0.094
705.75	0.094
705.94	0.094
706.14	0.094
706.33	0.094
706.53	0.094
706.72	0.094
706.92	0.093
707.11	0.093
707.31	0.093
707.50	0.093
707.70	0.093
707.89	0.093
708.09	0.093
708.28	0.093
708.48	0.093
708.67	0.093
708.86	0.093
709.06	0.093
709.25	0.092
709.45	0.092
709.64	0.092
709.84	0.092
710.03	0.091
710.23	0.091
710.42	0.091
710.62	0.091
710.81	0.090
711.00	0.090
711.20	0.090
711.39	0.090
711.59	0.090
711.78	0.090
711.98	0.091
712.17	0.091
712.37	0.091
712.56	0.091
712.75	0.091
712.95	0.091
713.14	0.091
713.34	0.091
713.53	0.091
713.73	0.091
713.92	0.091
714.11	0.091
714.31	0.091
714.50	0.091
714.70	0.090
714.89	0.090
715.08	0.090
715.28	0.090
715.47	0.089
715.67	0.089
715.86	0.089
716.06	0.089
716.25	0.089
716.44	0.089
716.64	0.089
716.83	0.089
717.03	0.089
717.22	0.088
717.41	0.089
717.61	0.089
717.80	0.089
717.99	0.089
718.19	0.089
718.38	0.089
718.58	0.089
718.77	0.089
718.96	0.089
719.16	0.088
719.35	0.088
719.55	0.088
719.74	0.088
719.93	0.088
720.13	0.087
720.32	0.087
720.51	0.087
720.71	0.087
720.90	0.087
721.10	0.087
721.29	0.087
721.48	0.087
721.68	0.087
721.87	0.087
722.06	0.086
722.26	0.087
722.45	0.087
722.64	0.088
722.84	0.088
723.03	0.088
723.22	0.088
723.42	0.088
723.61	0.088
723.80	0.088
724.00	0.088
724.19	0.088
724.38	0.088
724.58	0.087
724.77	0.087
724.96	0.087
725.16	0.087
725.35	0.087
725.54	0.088
725.74	0.088
725.93	0.088
726.12	0.088
726.32	0.088
726.51	0.088
726.70	0.088
726.90	0.088
727.09	0.088
727.28	0.088
727.48	0.088
727.67	0.087
727.86	0.087
728.06	0.087
728.25	0.087
728.44	0.087
728.64	0.087
728.83	0.087
729.02	0.087
729.21	0.087
729.41	0.087
729.60	0.087
729.79	0.087
729.99	0.087
730.18	0.086
730.37	0.086
730.56	0.086
730.76	0.086
730.95	0.086
731.14	0.086
731.34	0.086
731.53	0.086
731.72	0.086
731.91	0.087
732.11	0.087
732.30	0.087
732.49	0.087
732.69	0.088
732.88	0.087
733.07	0.087
733.26	0.088
733.46	0.087
733.65	0.088
733.84	0.087
734.03	0.087
734.23	0.087
734.42	0.087
734.61	0.087
734.80	0.087
735.00	0.087
735.19	0.087
735.38	0.087
735.57	0.087
735.77	0.087
735.96	0.087
736.15	0.087
736.34	0.087
736.54	0.087
736.73	0.087
736.92	0.088
737.11	0.087
737.31	0.088
737.50	0.088
737.69	0.088
737.88	0.088
738.07	0.088
738.27	0.088
738.46	0.088
738.65	0.087
738.84	0.087
739.04	0.087
739.23	0.087
739.42	0.087
739.61	0.087
739.80	0.086
740.00	0.087
740.19	0.087
740.38	0.087
740.57	0.087
740.76	0.086
740.96	0.087
741.15	0.087
741.34	0.087
741.53	0.087
741.72	0.087
741.92	0.086
742.11	0.086
742.30	0.086
742.49	0.086
742.68	0.086
742.88	0.086
743.07	0.086
743.26	0.086
743.45	0.087
743.64	0.086
743.84	0.086
744.03	0.086
744.22	0.086
744.41	0.086
744.60	0.085
744.79	0.085
744.99	0.085
745.18	0.085
745.37	0.084
745.56	0.084
745.75	0.084
745.94	0.084
746.14	0.084
746.33	0.084
746.52	0.085
746.71	0.085
746.90	0.085
747.09	0.085
747.28	0.085
747.48	0.085
747.67	0.084
747.86	0.084
748.05	0.084
748.24	0.084
748.43	0.084
748.62	0.084
748.82	0.084
749.01	0.084
749.20	0.083
749.39	0.083
749.58	0.084
749.77	0.084
749.96	0.084
750.16	0.084
750.35	0.084
750.54	0.083
750.73	0.083
750.92	0.084
751.11	0.084
751.30	0.084
751.49	0.084
751.68	0.083
751.88	0.083
752.07	0.083
752.26	0.083
752.45	0.083
752.64	0.083
752.83	0.083
753.02	0.083
753.21	0.083
753.40	0.083
753.60	0.083
753.79	0.083
753.98	0.083
754.17	0.083
754.36	0.083
754.55	0.083
754.74	0.083
754.93	0.082
755.12	0.082
755.31	0.082
755.50	0.082
755.70	0.082
755.89	0.082
756.08	0.081
756.27	0.081
756.46	0.082
756.65	0.081
756.84	0.081
757.03	0.081
757.22	0.081
757.41	0.081
757.60	0.081
757.79	0.081
757.98	0.081
758.17	0.082
758.36	0.081
758.56	0.081
758.75	0.081
758.94	0.081
759.13	0.081
759.32	0.081
759.51	0.081
759.70	0.081
759.89	0.081
760.08	0.081
760.27	0.080
760.46	0.081
760.65	0.081
760.84	0.081
761.03	0.081
761.22	0.081
761.41	0.081
761.60	0.081
761.79	0.080
761.98	0.080
762.17	0.080
762.36	0.080
762.55	0.080
762.74	0.080
762.93	0.080
763.12	0.080
763.31	0.080
763.50	0.080
763.69	0.080
763.88	0.080
764.07	0.080
764.26	0.080
764.45	0.080
764.64	0.080
764.83	0.080
765.02	0.080
765.21	0.080
765.40	0.080
765.59	0.080
765.78	0.080
765.97	0.080
766.16	0.080
766.35	0.080
766.54	0.080
766.73	0.080
766.92	0.080
767.11	0.079
767.30	0.080
767.49	0.080
767.68	0.080
767.87	0.079
768.06	0.079
768.25	0.079
768.44	0.079
768.63	0.079
768.82	0.078
769.01	0.078
769.20	0.078
769.39	0.078
769.58	0.078
769.77	0.078
769.96	0.078
770.15	0.078
770.34	0.078
770.53	0.078
770.72	0.078
770.91	0.078
771.10	0.078
771.29	0.078
771.47	0.077
771.66	0.078
771.85	0.078
772.04	0.078
772.23	0.078
772.42	0.078
772.61	0.078
772.80	0.078
772.99	0.078
773.18	0.077
773.37	0.078
773.56	0.077
773.75	0.078
773.94	0.078
774.13	0.077
774.31	0.077
774.50	0.077
774.69	0.077
774.88	0.077
775.07	0.077
775.26	0.077
775.45	0.077
775.64	0.077
775.83	0.077
776.02	0.076
776.21	0.076
776.40	0.077
776.58	0.077
776.77	0.077
776.96	0.077
777.15	0.077
777.34	0.077
777.53	0.078
777.72	0.078
777.91	0.078
778.10	0.078
778.28	0.077
778.47	0.077
778.66	0.077
778.85	0.076
779.04	0.076
779.23	0.076
779.42	0.076
779.61	0.076
779.79	0.076
779.98	0.075
780.17	0.076
780.36	0.076
780.55	0.075
780.74	0.076
780.93	0.076
781.12	0.076
781.30	0.076
781.49	0.076
781.68	0.076
781.87	0.076
782.06	0.076
782.25	0.076
782.44	0.076
782.62	0.076
782.81	0.076
783.00	0.076
783.19	0.076
783.38	0.076
783.57	0.076
783.75	0.075
783.94	0.075
784.13	0.075
784.32	0.075
784.51	0.075
784.70	0.075
784.88	0.075
785.07	0.074
785.26	0.074
785.45	0.074
785.64	0.074
785.83	0.075
786.01	0.074
786.20	0.075
786.39	0.074
786.58	0.074
786.77	0.074
786.95	0.074
787.14	0.074
787.33	0.074
787.52	0.074
787.71	0.074
787.90	0.074
788.08	0.074
788.27	0.074
788.46	0.075
788.65	0.075
788.84	0.075
789.02	0.075
789.21	0.075
789.40	0.075
789.59	0.075
789.77	0.075
789.96	0.074
790.15	0.074
790.34	0.074
790.53	0.074
790.71	0.074
790.90	0.074
791.09	0.073
791.28	0.074
791.46	0.074
791.65	0.073
791.84	0.073
792.03	0.073
792.22	0.074
792.40	0.073
792.59	0.073
792.78	0.073
792.97	0.074
793.15	0.074
793.34	0.074
793.53	0.074
793.72	0.074
793.90	0.073
794.09	0.074
794.28	0.073
794.47	0.074
794.65	0.073
794.84	0.073
795.03	0.073
795.22	0.073
795.40	0.073
795.59	0.073
795.78	0.073
795.97	0.073
796.15	0.074
796.34	0.074
796.53	0.074
796.71	0.074
796.90	0.074
797.09	0.074
797.28	0.074
797.46	0.074
797.65	0.074
797.84	0.073
798.02	0.073
798.21	0.072
798.40	0.072
798.59	0.072
798.77	0.072
798.96	0.072
799.15	0.071
799.33	0.072
799.52	0.072
799.71	0.072
799.90	0.072
800.08	0.072
800.27	0.072
800.46	0.072
800.64	0.072
800.83	0.072
801.02	0.072
801.20	0.072
801.39	0.072
801.58	0.071
801.76	0.071
801.95	0.072
802.14	0.071
802.32	0.071
802.51	0.072
802.70	0.071
802.88	0.071
803.07	0.071
803.26	0.071
803.44	0.071
803.63	0.071
803.82	0.071
804.00	0.071
804.19	0.071
804.38	0.071
804.56	0.071
804.75	0.071
804.94	0.071
805.12	0.071
805.31	0.072
805.50	0.072
805.68	0.072
805.87	0.072
806.06	0.072
806.24	0.072
806.43	0.072
806.62	0.072
806.80	0.072
806.99	0.072
807.17	0.072
807.36	0.072
807.55	0.072
807.73	0.072
807.92	0.072
808.11	0.072
808.29	0.071
808.48	0.071
808.66	0.071
808.85	0.071
809.04	0.071
809.22	0.071
809.41	0.071
809.59	0.070
809.78	0.071
809.97	0.070
810.15	0.070
810.34	0.070
810.53	0.071
810.71	0.071
810.90	0.071
811.08	0.071
811.27	0.070
811.45	0.071
811.64	0.071
811.83	0.071
812.01	0.071
812.20	0.070
812.38	0.070
812.57	0.070
812.76	0.070
812.94	0.070
813.13	0.070
813.31	0.071
813.50	0.071
813.68	0.071
813.87	0.071
814.06	0.071
814.24	0.071
814.43	0.071
814.61	0.071
814.80	0.071
814.98	0.071
815.17	0.070
815.36	0.070
815.54	0.071
815.73	0.070
815.91	0.070
816.10	0.071
816.28	0.070
816.47	0.070
816.65	0.070
816.84	0.070
817.03	0.071
817.21	0.071
817.40	0.071
817.58	0.071
817.77	0.071
817.95	0.071
818.14	0.071
818.32	0.071
818.51	0.071
818.69	0.071
818.88	0.071
819.06	0.071
819.25	0.071
819.43	0.071
819.62	0.071
819.80	0.071
819.99	0.071
820.18	0.071
820.36	0.071
820.55	0.071
820.73	0.071
820.92	0.071
821.10	0.071
821.29	0.071
821.47	0.071
821.66	0.071
821.84	0.071
822.03	0.071
822.21	0.071
822.40	0.071
822.58	0.071
822.77	0.071
822.95	0.071
823.14	0.071
823.32	0.071
823.50	0.072
823.69	0.072
823.87	0.072
824.06	0.072
824.24	0.073
824.43	0.072
824.61	0.072
824.80	0.073
824.98	0.073
825.17	0.073
825.35	0.073
825.54	0.073
825.72	0.072
825.91	0.072
826.09	0.072
826.28	0.072
826.46	0.072
826.64	0.073
826.83	0.073
827.01	0.073
827.20	0.073
827.38	0.073
827.57	0.074
827.75	0.074
827.94	0.074
828.12	0.074
828.31	0.074
828.49	0.074
828.67	0.074
828.86	0.074
829.04	0.074
829.23	0.074
829.41	0.074
829.60	0.074
829.78	0.074
829.96	0.075
830.15	0.075
830.33	0.075
830.52	0.075
830.70	0.075
830.88	0.075
831.07	0.076
831.25	0.076
831.44	0.076
831.62	0.076
831.81	0.076
831.99	0.075
832.17	0.075
832.36	0.076
832.54	0.076
832.73	0.076
832.91	0.076
833.09	0.075
833.28	0.076
833.46	0.076
833.65	0.076
833.83	0.076
834.01	0.076
834.20	0.076
834.38	0.076
834.56	0.077
834.75	0.076
834.93	0.077
835.12	0.077
835.30	0.077
835.48	0.077
835.67	0.077
835.85	0.077
836.03	0.077
836.22	0.077
836.40	0.077
836.59	0.077
836.77	0.077
836.95	0.077
837.14	0.077
837.32	0.077
837.50	0.076
837.69	0.076
837.87	0.077
838.05	0.076
838.24	0.076
838.42	0.077
838.60	0.077
838.79	0.078
838.97	0.077
839.15	0.077
839.34	0.078
839.52	0.078
839.70	0.078
839.89	0.078
840.07	0.079
840.25	0.078
840.44	0.078
840.62	0.078
840.80	0.078
840.99	0.078
841.17	0.078
841.35	0.078
841.54	0.078
841.72	0.078
841.90	0.078
842.09	0.078
842.27	0.078
842.45	0.078
842.64	0.079
842.82	0.078
843.00	0.079
843.19	0.079
843.37	0.078
843.55	0.078
843.73	0.078
843.92	0.078
844.10	0.078
844.28	0.078
844.47	0.078
844.65	0.077
844.83	0.078
845.01	0.078
845.20	0.078
845.38	0.078
845.56	0.078
845.75	0.078
845.93	0.078
846.11	0.078
846.29	0.078
846.48	0.078
846.66	0.078
846.84	0.078
847.02	0.078
847.21	0.078
847.39	0.078
847.57	0.078
847.76	0.079
847.94	0.079
848.12	0.079
848.30	0.079
848.49	0.079
848.67	0.079
848.85	0.079
849.03	0.079
849.22	0.079
849.40	0.079
849.58	0.079
849.76	0.079
849.95	0.079
850.13	0.079
850.31	0.079
850.49	0.079
850.67	0.079
850.86	0.079
851.04	0.079
851.22	0.079
851.40	0.079
851.59	0.079
851.77	0.079
851.95	0.079
852.13	0.080
852.31	0.079
852.50	0.080
852.68	0.080
852.86	0.080
853.04	0.080
853.23	0.080
853.41	0.080
853.59	0.080
853.77	0.080
853.95	0.080
854.14	0.080
854.32	0.080
854.50	0.079
854.68	0.079
854.86	0.079
855.04	0.079
855.23	0.079
855.41	0.080
855.59	0.079
855.77	0.079
855.95	0.080
856.14	0.080
856.32	0.080
856.50	0.079
856.68	0.079
856.86	0.079
857.04	0.079
857.23	0.079
857.41	0.079
857.59	0.079
857.77	0.079
857.95	0.079
858.13	0.079
858.32	0.079
858.50	0.080
858.68	0.079
858.86	0.080
859.04	0.080
859.22	0.080
859.41	0.080
859.59	0.080
859.77	0.079
859.95	0.079
860.13	0.080
860.31	0.080
860.49	0.079
860.68	0.079
860.86	0.080
861.04	0.079
861.22	0.079
861.40	0.079
861.58	0.079
861.76	0.079
861.94	0.080
862.13	0.080
862.31	0.080
862.49	0.080
862.67	0.080
862.85	0.080
863.03	0.081
863.21	0.081
863.39	0.081
863.57	0.081
863.76	0.082
863.94	0.082
864.12	0.082
864.30	0.081
864.48	0.081
864.66	0.081
864.84	0.081
865.02	0.081
865.20	0.081
865.38	0.081
865.57	0.081
865.75	0.081
865.93	0.081
866.11	0.081
866.29	0.081
866.47	0.082
866.65	0.082
866.83	0.082
867.01	0.081
867.19	0.081
867.37	0.081
867.55	0.081
867.73	0.081
867.92	0.081
868.10	0.081
868.28	0.081
868.46	0.081
868.64	0.081
868.82	0.081
869.00	0.081
869.18	0.081
869.36	0.082
869.54	0.082
869.72	0.082
869.90	0.082
870.08	0.082
870.26	0.082
870.44	0.082
870.62	0.082
870.80	0.082
870.98	0.082
871.16	0.082
871.34	0.081
871.53	0.081
871.71	0.082
871.89	0.082
872.07	0.082
872.25	0.082
872.43	0.082
872.61	0.082
872.79	0.082
872.97	0.082
873.15	0.083
873.33	0.083
873.51	0.083
873.69	0.083
873.87	0.082
874.05	0.083
874.23	0.083
874.41	0.083
874.59	0.083
874.77	0.082
874.95	0.082
875.13	0.082
875.31	0.082
875.49	0.083
875.67	0.082
875.85	0.082
876.03	0.083
876.21	0.083
876.39	0.083
876.57	0.083
876.75	0.084
876.93	0.084
877.11	0.084
877.29	0.084
877.47	0.084
877.65	0.084
877.82	0.084
878.00	0.084
878.18	0.084
878.36	0.083
878.54	0.084
878.72	0.083
878.90	0.084
879.08	0.084
879.26	0.084
879.44	0.084
879.62	0.084
879.80	0.084
879.98	0.084
880.16	0.084
880.34	0.084
880.52	0.084
880.70	0.084
880.88	0.084
881.06	0.084
881.24	0.084
881.42	0.084
881.59	0.083
881.77	0.083
881.95	0.084
882.13	0.084
882.31	0.084
882.49	0.084
882.67	0.084
882.85	0.084
883.03	0.084
883.21	0.085
883.39	0.084
883.57	0.085
883.75	0.085
883.92	0.085
884.10	0.085
884.28	0.085
884.46	0.085
884.64	0.085
884.82	0.085
885.00	0.085
885.18	0.085
885.36	0.085
885.54	0.085
885.71	0.086
885.89	0.086
886.07	0.086
886.25	0.086
886.43	0.086
886.61	0.086
886.79	0.086
886.97	0.086
887.15	0.086
887.32	0.086
887.50	0.086
887.68	0.086
887.86	0.086
888.04	0.086
888.22	0.086
888.40	0.086
888.57	0.086
888.75	0.086
888.93	0.086
889.11	0.086
889.29	0.086
889.47	0.087
889.65	0.087
889.82	0.087
890.00	0.087
890.18	0.087
890.36	0.087
890.54	0.087
890.72	0.087
890.90	0.087
891.07	0.087
891.25	0.086
891.43	0.086
891.61	0.086
891.79	0.086
891.97	0.086
892.14	0.086
892.32	0.086
892.50	0.086
892.68	0.087
892.86	0.087
893.03	0.087
893.21	0.087
893.39	0.087
893.57	0.087
893.75	0.087
893.93	0.087
894.10	0.087
894.28	0.087
894.46	0.087
894.64	0.087
894.82	0.087
894.99	0.087
895.17	0.087
895.35	0.087
895.53	0.087
895.71	0.087
895.88	0.087
896.06	0.087
896.24	0.087
896.42	0.087
896.59	0.087
896.77	0.088
896.95	0.087
897.13	0.088
897.31	0.088
897.48	0.088
897.66	0.088
897.84	0.088
898.02	0.088
898.19	0.088
898.37	0.088
898.55	0.088
898.73	0.088
898.91	0.088
899.08	0.088
899.26	0.088
899.44	0.088
899.62	0.089
899.79	0.089
899.97	0.089
900.15	0.088
900.33	0.088
900.50	0.088
900.68	0.088
900.86	0.089
901.04	0.089
901.21	0.089
901.39	0.089
901.57	0.089
901.74	0.089
901.92	0.089
902.10	0.089
902.28	0.089
902.45	0.089
902.63	0.089
902.81	0.089
902.99	0.089
903.16	0.089
903.34	0.090
903.52	0.090
903.69	0.090
903.87	0.090
904.05	0.090
904.22	0.091
904.40	0.090
904.58	0.090
904.76	0.090
904.93	0.090
905.11	0.091
905.29	0.091
905.46	0.090
905.64	0.091
905.82	0.091
905.99	0.091
906.17	0.091
906.35	0.091
906.53	0.091
906.70	0.091
906.88	0.091
907.06	0.091
907.23	0.091
907.41	0.091
907.59	0.091
907.76	0.092
907.94	0.092
908.12	0.092
908.29	0.092
908.47	0.092
908.65	0.092
908.82	0.092
909.00	0.092
909.18	0.093
909.35	0.093
909.53	0.093
909.71	0.093
909.88	0.093
910.06	0.093
910.23	0.092
910.41	0.093
910.59	0.092
910.76	0.092
910.94	0.092
911.12	0.092
911.29	0.092
911.47	0.092
911.65	0.092
911.82	0.092
912.00	0.092
912.17	0.092
912.35	0.093
912.53	0.093
912.70	0.093
912.88	0.093
913.06	0.094
913.23	0.094
913.41	0.094
913.58	0.095
913.76	0.095
913.94	0.094
914.11	0.095
914.29	0.095
914.46	0.095
914.64	0.095
914.82	0.095
914.99	0.095
915.17	0.094
915.34	0.094
915.52	0.095
915.70	0.095
915.87	0.095
916.05	0.095
916.22	0.095
916.40	0.095
916.57	0.096
916.75	0.096
916.93	0.097
917.10	0.096
917.28	0.097
917.45	0.096
917.63	0.096
917.80	0.096
917.98	0.096
918.16	0.096
918.33	0.097
918.51	0.096
918.68	0.096
918.86	0.096
919.03	0.096
919.21	0.097
919.39	0.097
919.56	0.098
919.74	0.098
919.91	0.098
920.09	0.098
920.26	0.098
920.44	0.099
920.61	0.099
920.79	0.099
920.96	0.099
921.14	0.100
921.31	0.100
921.49	0.100
921.67	0.100
921.84	0.101
922.02	0.101
922.19	0.101
922.37	0.101
922.54	0.102
922.72	0.102
922.89	0.102
923.07	0.103
923.24	0.103
923.42	0.103
923.59	0.103
923.77	0.103
923.94	0.104
924.12	0.104
924.29	0.105
924.47	0.105
924.64	0.105
924.82	0.105
924.99	0.106
925.17	0.106
925.34	0.107
925.52	0.107
925.69	0.107
925.87	0.107
926.04	0.108
926.22	0.108
926.39	0.108
926.57	0.108
926.74	0.108
926.91	0.109
927.09	0.109
927.26	0.109
927.44	0.109
927.61	0.109
927.79	0.110
927.96	0.110
928.14	0.111
928.31	0.111
928.49	0.112
928.66	0.112
928.84	0.113
929.01	0.113
929.18	0.114
929.36	0.115
929.53	0.115
929.71	0.115
929.88	0.116
930.06	0.116
930.23	0.116
930.41	0.116
930.58	0.117
930.75	0.117
930.93	0.117
931.10	0.117
931.28	0.118
931.45	0.119
931.63	0.119
931.80	0.119
931.97	0.120
932.15	0.120
932.32	0.121
932.50	0.121
932.67	0.122
932.84	0.122
933.02	0.123
933.19	0.123
933.37	0.124
933.54	0.124
933.71	0.124
933.89	0.125
934.06	0.125
934.24	0.126
934.41	0.127
934.58	0.127
934.76	0.127
934.93	0.128
935.11	0.128
935.28	0.128
935.45	0.129
935.63	0.130
935.80	0.130
935.98	0.131
936.15	0.131
936.32	0.131
936.50	0.132
936.67	0.132
936.84	0.132
937.02	0.134
937.19	0.134
937.36	0.135
937.54	0.135
937.71	0.136
937.89	0.136
938.06	0.137
938.23	0.137
938.41	0.138
938.58	0.138
938.75	0.138
938.93	0.139
939.10	0.139
939.27	0.139
939.45	0.141
939.62	0.141
939.79	0.142
939.97	0.142
940.14	0.143
940.31	0.143
940.49	0.144
940.66	0.144
940.83	0.145
941.01	0.145
941.18	0.146
941.35	0.147
941.53	0.147
941.70	0.148
941.87	0.149
942.05	0.149
942.22	0.150
942.39	0.151
942.57	0.151
942.74	0.153
942.91	0.152
943.08	0.153
943.26	0.153
943.43	0.154
943.60	0.155
943.78	0.155
943.95	0.156
944.12	0.157
944.29	0.158
944.47	0.158
944.64	0.159
944.81	0.161
944.99	0.161
945.16	0.162
945.33	0.162
945.50	0.163
945.68	0.164
945.85	0.165
946.02	0.166
946.20	0.167
946.37	0.168
946.54	0.168
946.71	0.169
946.89	0.170
947.06	0.170
947.23	0.171
947.40	0.172
947.58	0.173
947.75	0.174
947.92	0.175
948.09	0.175
948.27	0.177
948.44	0.178
948.61	0.179
948.78	0.180
948.96	0.182
949.13	0.182
949.30	0.183
949.47	0.183
949.65	0.185
949.82	0.187
949.99	0.187
950.16	0.189
950.33	0.190
950.51	0.191
950.68	0.193
950.85	0.193
951.02	0.195
951.20	0.196
951.37	0.198
951.54	0.198
951.71	0.199
951.88	0.201
952.06	0.201
952.23	0.202
952.40	0.203
952.57	0.204
952.74	0.206
952.92	0.207
953.09	0.208
953.26	0.209
953.43	0.210
953.60	0.211
953.77	0.212
953.95	0.213
954.12	0.215
954.29	0.216
954.46	0.219
954.63	0.219
954.81	0.220
954.98	0.221
955.15	0.223
955.32	0.225
955.49	0.225
955.66	0.226
955.84	0.228
956.01	0.228
956.18	0.230
956.35	0.231
956.52	0.232
956.69	0.233
956.87	0.234
957.04	0.234
957.21	0.237
957.38	0.237
957.55	0.238
957.72	0.238
957.89	0.239
958.07	0.239
958.24	0.242
958.41	0.243
958.58	0.243
958.75	0.244
958.92	0.245
959.09	0.246
959.26	0.246
959.44	0.247
959.61	0.248
959.78	0.248
959.95	0.251
960.12	0.251
960.29	0.253
960.46	0.252
960.63	0.252
960.81	0.252
960.98	0.253
961.15	0.254
961.32	0.255
961.49	0.254
961.66	0.256
961.83	0.256
962.00	0.256
962.17	0.257
962.34	0.256
962.52	0.257
962.69	0.259
962.86	0.258
963.03	0.258
963.20	0.259
963.37	0.258
963.54	0.259
963.71	0.258
963.88	0.258
964.05	0.259
964.22	0.261
964.39	0.260
964.56	0.259
964.74	0.261
964.91	0.260
965.08	0.261
965.25	0.261
965.42	0.262
965.59	0.262
965.76	0.262
965.93	0.263
966.10	0.261
966.27	0.262
966.44	0.262
966.61	0.263
966.78	0.263
966.95	0.262
967.12	0.263
967.29	0.265
967.46	0.265
967.63	0.264
967.80	0.265
967.97	0.265
968.14	0.264
968.32	0.265
968.49	0.265
968.66	0.265
968.83	0.265
969.00	0.264
969.17	0.265
969.34	0.266
969.51	0.267
969.68	0.266
969.85	0.266
970.02	0.267
970.19	0.267
970.36	0.268
970.53	0.268
970.70	0.266
970.87	0.267
971.04	0.266
971.21	0.266
971.38	0.266
971.55	0.267
971.72	0.267
971.89	0.268
972.06	0.267
972.23	0.267
972.40	0.266
972.57	0.266
972.74	0.266
972.91	0.267
973.07	0.267
973.24	0.267
973.41	0.267
973.58	0.265
973.75	0.278
973.92	0.266
974.09	0.266
974.26	0.265
974.43	0.264
974.60	0.265
974.77	0.266
974.94	0.265
975.11	0.266
975.28	0.268
975.45	0.266
975.62	0.267
975.79	0.268
975.96	0.267
976.13	0.266
976.30	0.267
976.47	0.265
976.64	0.265
976.80	0.266
976.97	0.266
977.14	0.265
977.31	0.265
977.48	0.265
977.65	0.265
977.82	0.264
977.99	0.265
978.16	0.265
978.33	0.265
978.50	0.264
978.67	0.264
978.83	0.263
979.00	0.264
979.17	0.263
979.34	0.263
979.51	0.262
979.68	0.263
979.85	0.262
980.02	0.263
980.19	0.261
980.36	0.262
980.52	0.264
980.69	0.261
980.86	0.261
981.03	0.261
981.20	0.260
981.37	0.260
981.54	0.261
981.71	0.260
981.88	0.260
982.04	0.260
982.21	0.259
982.38	0.261
982.55	0.260
982.72	0.259
982.89	0.260
983.06	0.259
983.22	0.259
983.39	0.259
983.56	0.258
983.73	0.258
983.90	0.257
984.07	0.258
984.24	0.257
984.40	0.257
984.57	0.256
984.74	0.258
984.91	0.259
985.08	0.257
985.25	0.255
985.41	0.256
985.58	0.256
985.75	0.257
985.92	0.256
986.09	0.254
986.26	0.254
986.42	0.253
986.59	0.251
986.76	0.253
986.93	0.253
987.10	0.253
987.27	0.251
987.43	0.249
987.60	0.251
987.77	0.251
987.94	0.249
988.11	0.251
988.27	0.251
988.44	0.251
988.61	0.250
988.78	0.248
988.95	0.248
989.11	0.250
989.28	0.248
989.45	0.248
989.62	0.247
989.79	0.248
989.95	0.246
990.12	0.248
990.29	0.248
990.46	0.246
990.62	0.244
990.79	0.245
990.96	0.244
991.13	0.245
991.30	0.243
991.46	0.243
991.63	0.241
991.80	0.240
991.97	0.239
992.13	0.240
992.30	0.241
992.47	0.240
992.64	0.240
992.80	0.240
992.97	0.240
993.14	0.238
993.31	0.236
993.47	0.239
993.64	0.237
993.81	0.236
993.98	0.236
994.14	0.235
994.31	0.234
994.48	0.235
994.64	0.235
994.81	0.234
994.98	0.234
995.15	0.231
995.31	0.231
995.48	0.231
995.65	0.234
995.82	0.231
995.98	0.231
996.15	0.232
996.32	0.233
996.48	0.231
996.65	0.231
996.82	0.229
996.99	0.230
997.15	0.229
997.32	0.230
997.49	0.228
997.65	0.229
997.82	0.228
997.99	0.226
998.15	0.227
998.32	0.228
998.49	0.227
998.65	0.227
998.82	0.227
998.99	0.224
999.15	0.225
999.32	0.225
999.49	0.225
999.65	0.225
999.82	0.222
999.99	0.223
1000.15	0.223
1000.32	0.222
1000.49	0.222
1000.65	0.220
1000.82	0.219
1000.99	0.220
1001.15	0.219
1001.32	0.218
1001.49	0.218
1001.65	0.218
1001.82	0.220
1001.99	0.217
1002.15	0.217
1002.32	0.217
1002.49	0.218
1002.65	0.217
1002.82	0.215
1002.99	0.214
1003.15	0.217
1003.32	0.216
1003.48	0.216
1003.65	0.216
1003.82	0.214
1003.98	0.212
1004.15	0.212
1004.32	0.212
1004.48	0.212
1004.65	0.213
1004.81	0.211
1004.98	0.210
1005.15	0.210
1005.31	0.209
1005.48	0.208
1005.64	0.208
1005.81	0.211
1005.98	0.207
1006.14	0.206
1006.31	0.207
1006.47	0.205
1006.64	0.204
1006.81	0.204
1006.97	0.204
1007.14	0.204
1007.30	0.205
1007.47	0.204
1007.63	0.202
1007.80	0.200
1007.97	0.200
1008.13	0.201
1008.30	0.200
1008.46	0.200
1008.63	0.200
1008.79	0.200
1008.96	0.200
1009.13	0.201
1009.29	0.198
1009.46	0.198
1009.62	0.198
1009.79	0.196
1009.95	0.197
1010.12	0.198
1010.28	0.197
1010.45	0.196
1010.62	0.195
1010.78	0.194
1010.95	0.193
1011.11	0.194
1011.28	0.194
1011.44	0.196
1011.61	0.194
1011.77	0.192
1011.94	0.192
1012.10	0.193
1012.27	0.193
1012.43	0.193
1012.60	0.192
1012.76	0.192
1012.93	0.191
1013.10	0.189
1013.26	0.187
1013.43	0.188
1013.59	0.196
1013.76	0.188
1013.92	0.186
1014.09	0.185
1014.25	0.186
1014.42	0.186
1014.58	0.186
1014.75	0.188
1014.91	0.187
1015.08	0.189
1015.24	0.186
1015.41	0.187
1015.57	0.188
1015.73	0.186
1015.90	0.183
1016.06	0.185
1016.23	0.183
1016.39	0.184
1016.56	0.183
1016.72	0.182
1016.89	0.182
1017.05	0.185
1017.22	0.182
1017.38	0.182
1017.55	0.180
1017.71	0.182
1017.88	0.182
1018.04	0.182
1018.21	0.180
1018.37	0.180
1018.53	0.179
1018.70	0.177
1018.86	0.176
1019.03	0.178
1019.19	0.176
1019.36	0.177
1019.52	0.178
1019.69	0.178
1019.85	0.176
1020.01	0.177
1020.18	0.175
1020.34	0.176
1020.51	0.175
1020.67	0.177
1020.84	0.174
1021.00	0.174
1021.16	0.171
1021.33	0.172
1021.49	0.172
1021.66	0.173
1021.82	0.170
1021.98	0.171
1022.15	0.170
1022.31	0.168
1022.48	0.167
1022.64	0.168
1022.80	0.168
1022.97	0.166
1023.13	0.165
1023.30	0.166
1023.46	0.166
1023.62	0.164
1023.79	0.165
1023.95	0.165
1024.12	0.165
1024.28	0.164
1024.44	0.164
1024.61	0.162
1024.77	0.162
1024.93	0.161
1025.10	0.163
1025.26	0.161
1025.43	0.162
1025.59	0.159
1025.75	0.163
1025.92	0.161
1026.08	0.161
1026.24	0.161
1026.41	0.163
1026.57	0.161
1026.73	0.158
1026.90	0.160
1027.06	0.158
1027.23	0.159
1027.39	0.159
1027.55	0.158
1027.72	0.157
1027.88	0.156
1028.04	0.156
1028.21	0.156
1028.37	0.151
1028.53	0.157
1028.70	0.154
1028.86	0.152
1029.02	0.153
1029.19	0.153
1029.35	0.151
1029.51	0.151
1029.67	0.151
1029.84	0.153
1030.00	0.149
1030.16	0.149
1030.33	0.152
1030.49	0.149
1030.65	0.147
1030.82	0.163
1030.98	0.149
1031.14	0.149
1031.31	0.150
1031.47	0.147
1031.63	0.149
1031.79	0.148
1031.96	0.150
1032.12	0.151
1032.28	0.149
1032.45	0.154
1032.61	0.152
1032.77	0.151
1032.93	0.149
1033.10	0.150
1033.26	0.153
1033.42	0.150
1033.58	0.149
1033.75	0.149
1033.91	0.147
1034.07	0.150
1034.24	0.147
1034.40	0.145
1034.56	0.145
1034.72	0.145
1034.89	0.145
1035.05	0.143
1035.21	0.144
1035.37	0.143
1035.54	0.146
1035.70	0.144
1035.86	0.144
1036.02	0.145
1036.19	0.143
1036.35	0.142
1036.51	0.146
1036.67	0.143
1036.83	0.142
1037.00	0.140
1037.16	0.141
1037.32	0.142
1037.48	0.140
1037.65	0.144
1037.81	0.140
1037.97	0.139
1038.13	0.138
1038.29	0.136
1038.46	0.135
1038.62	0.138
1038.78	0.137
1038.94	0.132
1039.10	0.137
1039.27	0.134
1039.43	0.136
1039.59	0.136
1039.75	0.136
1039.91	0.135
1040.08	0.134
1040.24	0.136
1040.40	0.137
1040.56	0.135
1040.72	0.129
1040.89	0.131
1041.05	0.133
1041.21	0.131
1041.37	0.129
1041.53	0.135
1041.69	0.132
1041.86	0.132
1042.02	0.128
1042.18	0.130
1042.34	0.132
1042.50	0.136
1042.66	0.132
1042.83	0.131
1042.99	0.135
1043.15	0.129
1043.31	0.129
1043.47	0.134
1043.63	0.130
1043.79	0.130
1043.96	0.132
1044.12	0.135
1044.28	0.131
1044.44	0.132
1044.60	0.127
1044.76	0.126
1044.92	0.129
1045.09	0.131
1045.25	0.128
1045.41	0.128
1045.57	0.124
1045.73	0.124
1045.89	0.124
1046.05	0.127
1046.21	0.130
1046.38	0.139
1046.54	0.128
1046.70	0.119
1046.86	0.132
>>>>>End Processed Spectral Data<<<<<
