SpectraSuite Data File
++++++++++++++++++++++++++++++++++++
Date: Mon May 20 12:10:45 CDT 2013
User: Students
Dark Spectrum Present: Yes
Reference Spectrum Present: Yes
Number of Sampled Component Spectra: 1
Spectrometers: USB4H00887
Integration Time (usec): 60000 (USB4H00887)
Spectra Averaged: 5 (USB4H00887)
Boxcar Smoothing: 5 (USB4H00887)
Correct for Electrical Dark: No (USB4H00887)
Strobe/Lamp Enabled: No (USB4H00887)
Correct for Detector Non-linearity: No (USB4H00887)
Correct for Stray Light: No (USB4H00887)
Number of Pixels in Processed Spectrum: 3648
>>>>>Begin Processed Spectral Data<<<<<
345.83	0.761
346.05	0.761
346.26	0.761
346.48	-0.000
346.70	0.288
346.92	-0.047
347.14	-0.002
347.35	0.025
347.57	0.158
347.79	-0.146
348.01	-0.128
348.23	-0.181
348.44	-0.000
348.66	0.221
348.88	-0.387
349.10	-0.182
349.32	0.086
349.53	-0.029
349.75	-0.017
349.97	-0.018
350.19	0.005
350.41	0.010
350.62	-0.119
350.84	-0.000
351.06	0.015
351.28	-0.002
351.50	-0.097
351.71	-0.049
351.93	-0.035
352.15	-0.023
352.37	-0.110
352.58	-0.032
352.80	-0.015
353.02	-0.033
353.24	-0.011
353.46	0.017
353.67	-0.044
353.89	0.019
354.11	0.027
354.33	0.026
354.54	0.072
354.76	0.122
354.98	0.279
355.20	0.175
355.41	0.080
355.63	0.102
355.85	0.056
356.07	0.665
356.28	0.063
356.50	0.072
356.72	0.035
356.94	0.087
357.15	0.166
357.37	-0.000
357.59	0.123
357.81	0.099
358.02	0.176
358.24	0.127
358.46	0.211
358.68	0.228
358.89	0.128
359.11	-0.000
359.33	0.120
359.55	-0.589
359.76	0.139
359.98	0.158
360.20	0.143
360.42	0.116
360.63	0.137
360.85	0.110
361.07	0.549
361.29	0.083
361.50	0.234
361.72	0.104
361.94	0.522
362.15	0.191
362.37	0.096
362.59	0.101
362.81	0.157
363.02	0.251
363.24	0.393
363.46	0.206
363.68	0.324
363.89	0.215
364.11	0.274
364.33	0.308
364.54	0.193
364.76	0.257
364.98	0.284
365.20	0.342
365.41	0.203
365.63	0.256
365.85	0.178
366.06	0.575
366.28	0.414
366.50	0.290
366.71	0.111
366.93	0.135
367.15	0.125
367.37	0.114
367.58	0.121
367.80	0.129
368.02	0.314
368.23	0.111
368.45	0.121
368.67	0.125
368.88	0.109
369.10	-0.000
369.32	0.131
369.53	0.074
369.75	0.114
369.97	0.274
370.19	0.196
370.40	0.075
370.62	0.248
370.84	0.091
371.05	0.450
371.27	0.125
371.49	0.137
371.70	0.152
371.92	0.215
372.14	0.096
372.35	0.117
372.57	0.125
372.79	0.363
373.00	0.084
373.22	0.144
373.44	0.143
373.65	0.115
373.87	0.153
374.09	0.611
374.30	0.130
374.52	0.144
374.74	0.104
374.95	0.414
375.17	0.098
375.39	-0.000
375.60	0.110
375.82	0.194
376.04	0.085
376.25	0.104
376.47	0.064
376.68	0.177
376.90	0.112
377.12	0.260
377.33	0.141
377.55	0.333
377.77	0.195
377.98	0.289
378.20	0.154
378.42	0.178
378.63	0.237
378.85	-0.000
379.07	0.155
379.28	0.721
379.50	0.360
379.71	0.175
379.93	0.130
380.15	0.168
380.36	0.226
380.58	0.166
380.80	0.506
381.01	0.131
381.23	0.107
381.44	0.117
381.66	0.130
381.88	0.160
382.09	-0.076
382.31	0.111
382.53	0.111
382.74	0.589
382.96	0.170
383.17	0.141
383.39	0.193
383.61	0.285
383.82	0.192
384.04	0.224
384.25	0.267
384.47	0.254
384.69	0.263
384.90	0.267
385.12	0.573
385.33	0.351
385.55	0.276
385.77	0.456
385.98	0.209
386.20	0.289
386.41	0.250
386.63	0.286
386.85	0.248
387.06	0.292
387.28	0.407
387.49	0.264
387.71	0.192
387.93	0.162
388.14	0.470
388.36	0.205
388.57	0.197
388.79	0.211
389.01	3.241
389.22	0.261
389.44	0.220
389.65	0.186
389.87	0.182
390.08	0.209
390.30	0.160
390.52	0.313
390.73	0.303
390.95	0.197
391.16	0.187
391.38	-0.000
391.59	0.214
391.81	0.196
392.03	0.183
392.24	0.222
392.46	0.183
392.67	0.170
392.89	0.221
393.10	0.330
393.32	0.227
393.53	0.268
393.75	0.174
393.97	0.195
394.18	0.259
394.40	0.224
394.61	0.234
394.83	0.211
395.04	0.246
395.26	0.176
395.47	0.270
395.69	0.232
395.91	0.247
396.12	0.295
396.34	0.293
396.55	0.199
396.77	0.297
396.98	0.911
397.20	0.317
397.41	0.356
397.63	0.243
397.84	0.208
398.06	0.197
398.27	0.203
398.49	0.233
398.71	0.174
398.92	0.199
399.14	0.249
399.35	0.322
399.57	0.303
399.78	0.201
400.00	0.201
400.21	0.258
400.43	0.201
400.64	0.204
400.86	0.402
401.07	0.244
401.29	0.208
401.50	0.222
401.72	0.299
401.93	0.207
402.15	0.254
402.36	0.234
402.58	0.190
402.79	0.212
403.01	0.317
403.22	0.255
403.44	0.181
403.65	0.270
403.87	0.299
404.08	0.246
404.30	0.362
404.51	0.213
404.73	0.246
404.94	0.227
405.16	0.239
405.37	0.198
405.59	0.320
405.80	0.211
406.02	0.259
406.23	0.251
406.45	0.261
406.66	0.276
406.88	0.200
407.09	0.287
407.31	0.224
407.52	0.256
407.74	0.214
407.95	0.249
408.17	0.245
408.38	0.248
408.60	0.171
408.81	0.271
409.03	0.214
409.24	0.215
409.45	0.244
409.67	0.240
409.88	0.220
410.10	0.271
410.31	0.227
410.53	0.220
410.74	0.301
410.96	0.294
411.17	0.288
411.39	0.230
411.60	0.213
411.82	0.244
412.03	0.234
412.24	0.227
412.46	0.299
412.67	0.266
412.89	0.258
413.10	0.251
413.32	0.240
413.53	0.283
413.75	0.284
413.96	0.227
414.17	0.278
414.39	0.282
414.60	0.241
414.82	0.299
415.03	0.240
415.25	0.255
415.46	0.189
415.68	0.250
415.89	0.357
416.10	0.326
416.32	0.209
416.53	0.233
416.75	0.226
416.96	0.257
417.18	0.225
417.39	0.212
417.60	0.214
417.82	0.279
418.03	0.245
418.25	0.213
418.46	0.220
418.67	0.207
418.89	0.222
419.10	0.225
419.32	0.282
419.53	0.263
419.75	0.244
419.96	0.221
420.17	0.250
420.39	0.243
420.60	0.258
420.82	0.297
421.03	0.255
421.24	0.224
421.46	0.238
421.67	0.246
421.89	0.227
422.10	0.240
422.31	0.239
422.53	0.307
422.74	0.255
422.96	0.215
423.17	0.235
423.38	0.276
423.60	0.246
423.81	0.291
424.03	0.260
424.24	0.272
424.45	0.268
424.67	0.261
424.88	0.239
425.09	0.248
425.31	0.227
425.52	0.230
425.74	0.244
425.95	0.252
426.16	0.210
426.38	0.232
426.59	0.222
426.80	0.239
427.02	0.248
427.23	0.214
427.45	0.249
427.66	0.248
427.87	0.213
428.09	0.220
428.30	0.237
428.51	0.241
428.73	0.260
428.94	0.243
429.15	0.237
429.37	0.231
429.58	0.238
429.79	0.228
430.01	0.252
430.22	0.249
430.44	0.251
430.65	0.234
430.86	0.240
431.08	0.232
431.29	0.218
431.50	0.245
431.72	0.287
431.93	0.255
432.14	0.212
432.36	0.227
432.57	0.227
432.78	0.235
433.00	0.222
433.21	0.220
433.42	0.251
433.64	0.230
433.85	0.247
434.06	0.210
434.28	0.216
434.49	0.221
434.70	0.224
434.92	0.229
435.13	0.238
435.34	0.234
435.56	0.227
435.77	0.227
435.98	0.260
436.20	0.235
436.41	0.214
436.62	0.211
436.83	0.228
437.05	0.242
437.26	0.225
437.47	0.210
437.69	0.227
437.90	0.216
438.11	0.211
438.33	0.223
438.54	0.225
438.75	0.262
438.97	0.263
439.18	0.227
439.39	0.232
439.60	0.241
439.82	0.231
440.03	0.217
440.24	0.262
440.46	0.228
440.67	0.221
440.88	0.232
441.10	0.223
441.31	0.223
441.52	0.232
441.73	0.250
441.95	0.235
442.16	0.220
442.37	0.276
442.58	0.222
442.80	0.218
443.01	0.253
443.22	0.240
443.44	0.215
443.65	0.234
443.86	0.232
444.07	0.236
444.29	0.216
444.50	0.250
444.71	0.215
444.92	0.205
445.14	0.231
445.35	0.239
445.56	0.208
445.78	0.230
445.99	0.229
446.20	0.209
446.41	0.226
446.63	0.225
446.84	0.218
447.05	0.221
447.26	0.242
447.48	0.221
447.69	0.214
447.90	0.231
448.11	0.216
448.33	0.224
448.54	0.229
448.75	0.233
448.96	0.232
449.18	0.236
449.39	0.220
449.60	0.218
449.81	0.241
450.03	0.224
450.24	0.235
450.45	0.230
450.66	0.223
450.87	0.226
451.09	0.218
451.30	0.219
451.51	0.232
451.72	0.236
451.94	0.238
452.15	0.250
452.36	0.226
452.57	0.227
452.78	0.226
453.00	0.231
453.21	0.225
453.42	0.222
453.63	0.237
453.85	0.229
454.06	0.225
454.27	0.241
454.48	0.230
454.69	0.222
454.91	0.231
455.12	0.215
455.33	0.230
455.54	0.233
455.75	0.230
455.97	0.232
456.18	0.233
456.39	0.234
456.60	0.241
456.81	0.231
457.03	0.231
457.24	0.233
457.45	0.245
457.66	0.236
457.87	0.228
458.09	0.228
458.30	0.218
458.51	0.237
458.72	0.241
458.93	0.240
459.15	0.225
459.36	0.235
459.57	0.240
459.78	0.248
459.99	0.235
460.20	0.231
460.42	0.243
460.63	0.233
460.84	0.231
461.05	0.233
461.26	0.243
461.47	0.232
461.69	0.240
461.90	0.243
462.11	0.237
462.32	0.245
462.53	0.239
462.74	0.253
462.96	0.237
463.17	0.235
463.38	0.240
463.59	0.253
463.80	0.233
464.01	0.236
464.23	0.248
464.44	0.244
464.65	0.244
464.86	0.244
465.07	0.245
465.28	0.240
465.49	0.245
465.71	0.241
465.92	0.247
466.13	0.253
466.34	0.245
466.55	0.252
466.76	0.245
466.97	0.248
467.19	0.249
467.40	0.254
467.61	0.255
467.82	0.243
468.03	0.241
468.24	0.249
468.45	0.251
468.66	0.249
468.88	0.248
469.09	0.250
469.30	0.255
469.51	0.247
469.72	0.252
469.93	0.248
470.14	0.246
470.35	0.255
470.57	0.253
470.78	0.246
470.99	0.261
471.20	0.256
471.41	0.251
471.62	0.257
471.83	0.253
472.04	0.255
472.25	0.260
472.47	0.250
472.68	0.252
472.89	0.251
473.10	0.257
473.31	0.252
473.52	0.258
473.73	0.260
473.94	0.251
474.15	0.254
474.36	0.256
474.57	0.260
474.79	0.258
475.00	0.257
475.21	0.255
475.42	0.266
475.63	0.256
475.84	0.260
476.05	0.260
476.26	0.258
476.47	0.259
476.68	0.264
476.89	0.256
477.10	0.263
477.32	0.261
477.53	0.268
477.74	0.259
477.95	0.262
478.16	0.258
478.37	0.263
478.58	0.263
478.79	0.268
479.00	0.266
479.21	0.262
479.42	0.266
479.63	0.267
479.84	0.264
480.05	0.264
480.26	0.268
480.47	0.270
480.69	0.271
480.90	0.267
481.11	0.267
481.32	0.274
481.53	0.267
481.74	0.274
481.95	0.271
482.16	0.272
482.37	0.274
482.58	0.270
482.79	0.272
483.00	0.275
483.21	0.269
483.42	0.265
483.63	0.275
483.84	0.277
484.05	0.273
484.26	0.271
484.47	0.271
484.68	0.267
484.89	0.267
485.10	0.271
485.31	0.270
485.52	0.272
485.73	0.271
485.94	0.275
486.15	0.271
486.37	0.273
486.58	0.269
486.79	0.271
487.00	0.275
487.21	0.276
487.42	0.276
487.63	0.276
487.84	0.278
488.05	0.279
488.26	0.275
488.47	0.276
488.68	0.280
488.89	0.278
489.10	0.278
489.31	0.279
489.52	0.283
489.73	0.279
489.94	0.283
490.15	0.279
490.36	0.283
490.57	0.277
490.78	0.276
490.99	0.279
491.20	0.286
491.41	0.282
491.62	0.277
491.83	0.280
492.04	0.279
492.25	0.280
492.45	0.280
492.66	0.283
492.87	0.282
493.08	0.282
493.29	0.281
493.50	0.280
493.71	0.281
493.92	0.281
494.13	0.283
494.34	0.285
494.55	0.286
494.76	0.288
494.97	0.287
495.18	0.284
495.39	0.285
495.60	0.280
495.81	0.280
496.02	0.282
496.23	0.281
496.44	0.284
496.65	0.284
496.86	0.284
497.07	0.288
497.28	0.287
497.49	0.282
497.70	0.283
497.91	0.286
498.12	0.284
498.32	0.289
498.53	0.288
498.74	0.287
498.95	0.289
499.16	0.286
499.37	0.285
499.58	0.286
499.79	0.289
500.00	0.288
500.21	0.291
500.42	0.285
500.63	0.284
500.84	0.286
501.05	0.285
501.26	0.287
501.46	0.290
501.67	0.288
501.88	0.287
502.09	0.285
502.30	0.287
502.51	0.291
502.72	0.288
502.93	0.291
503.14	0.292
503.35	0.289
503.56	0.290
503.77	0.294
503.97	0.291
504.18	0.292
504.39	0.296
504.60	0.292
504.81	0.295
505.02	0.294
505.23	0.293
505.44	0.292
505.65	0.293
505.86	0.290
506.07	0.296
506.27	0.292
506.48	0.293
506.69	0.291
506.90	0.293
507.11	0.293
507.32	0.291
507.53	0.292
507.74	0.291
507.95	0.293
508.15	0.295
508.36	0.295
508.57	0.296
508.78	0.294
508.99	0.295
509.20	0.293
509.41	0.296
509.62	0.295
509.82	0.295
510.03	0.296
510.24	0.296
510.45	0.299
510.66	0.298
510.87	0.298
511.08	0.295
511.29	0.299
511.49	0.295
511.70	0.300
511.91	0.293
512.12	0.293
512.33	0.297
512.54	0.299
512.75	0.297
512.95	0.300
513.16	0.299
513.37	0.297
513.58	0.301
513.79	0.297
514.00	0.298
514.20	0.300
514.41	0.300
514.62	0.296
514.83	0.300
515.04	0.299
515.25	0.298
515.46	0.298
515.66	0.299
515.87	0.300
516.08	0.298
516.29	0.301
516.50	0.298
516.71	0.297
516.91	0.299
517.12	0.301
517.33	0.299
517.54	0.298
517.75	0.299
517.95	0.301
518.16	0.302
518.37	0.298
518.58	0.299
518.79	0.296
519.00	0.299
519.20	0.300
519.41	0.297
519.62	0.299
519.83	0.300
520.04	0.297
520.24	0.296
520.45	0.297
520.66	0.301
520.87	0.296
521.08	0.296
521.28	0.297
521.49	0.298
521.70	0.295
521.91	0.297
522.12	0.295
522.32	0.297
522.53	0.296
522.74	0.295
522.95	0.296
523.16	0.296
523.36	0.297
523.57	0.294
523.78	0.294
523.99	0.294
524.20	0.293
524.40	0.295
524.61	0.296
524.82	0.293
525.03	0.294
525.23	0.294
525.44	0.293
525.65	0.294
525.86	0.297
526.06	0.294
526.27	0.294
526.48	0.296
526.69	0.294
526.90	0.295
527.10	0.300
527.31	0.294
527.52	0.293
527.73	0.293
527.93	0.295
528.14	0.296
528.35	0.294
528.56	0.295
528.76	0.294
528.97	0.292
529.18	0.292
529.39	0.291
529.59	0.292
529.80	0.297
530.01	0.293
530.22	0.293
530.42	0.289
530.63	0.292
530.84	0.289
531.05	0.291
531.25	0.292
531.46	0.291
531.67	0.288
531.88	0.291
532.08	0.290
532.29	0.290
532.50	0.288
532.70	0.287
532.91	0.287
533.12	0.287
533.33	0.291
533.53	0.287
533.74	0.287
533.95	0.289
534.15	0.287
534.36	0.287
534.57	0.284
534.78	0.285
534.98	0.287
535.19	0.282
535.40	0.282
535.60	0.286
535.81	0.284
536.02	0.284
536.23	0.283
536.43	0.284
536.64	0.283
536.85	0.285
537.05	0.287
537.26	0.283
537.47	0.283
537.67	0.282
537.88	0.282
538.09	0.283
538.30	0.282
538.50	0.281
538.71	0.283
538.92	0.281
539.12	0.280
539.33	0.280
539.54	0.281
539.74	0.283
539.95	0.282
540.16	0.281
540.36	0.280
540.57	0.281
540.78	0.279
540.98	0.280
541.19	0.280
541.40	0.278
541.60	0.281
541.81	0.280
542.02	0.280
542.22	0.278
542.43	0.277
542.64	0.276
542.84	0.277
543.05	0.275
543.26	0.276
543.46	0.278
543.67	0.278
543.88	0.278
544.08	0.276
544.29	0.276
544.50	0.277
544.70	0.278
544.91	0.277
545.12	0.278
545.32	0.277
545.53	0.278
545.74	0.276
545.94	0.275
546.15	0.276
546.35	0.275
546.56	0.275
546.77	0.275
546.97	0.274
547.18	0.272
547.39	0.273
547.59	0.273
547.80	0.273
548.01	0.275
548.21	0.275
548.42	0.272
548.62	0.273
548.83	0.274
549.04	0.273
549.24	0.272
549.45	0.273
549.65	0.272
549.86	0.272
550.07	0.272
550.27	0.271
550.48	0.273
550.69	0.270
550.89	0.270
551.10	0.269
551.30	0.269
551.51	0.270
551.72	0.268
551.92	0.268
552.13	0.269
552.33	0.269
552.54	0.268
552.75	0.266
552.95	0.268
553.16	0.266
553.36	0.266
553.57	0.266
553.78	0.266
553.98	0.266
554.19	0.264
554.39	0.264
554.60	0.266
554.80	0.267
555.01	0.265
555.22	0.266
555.42	0.266
555.63	0.264
555.83	0.267
556.04	0.265
556.25	0.268
556.45	0.265
556.66	0.265
556.86	0.267
557.07	0.267
557.27	0.267
557.48	0.265
557.68	0.265
557.89	0.266
558.10	0.264
558.30	0.263
558.51	0.264
558.71	0.263
558.92	0.262
559.12	0.263
559.33	0.265
559.54	0.264
559.74	0.263
559.95	0.263
560.15	0.264
560.36	0.263
560.56	0.262
560.77	0.263
560.97	0.263
561.18	0.261
561.38	0.262
561.59	0.264
561.79	0.263
562.00	0.263
562.21	0.262
562.41	0.261
562.62	0.261
562.82	0.261
563.03	0.259
563.23	0.260
563.44	0.261
563.64	0.260
563.85	0.262
564.05	0.259
564.26	0.260
564.46	0.260
564.67	0.261
564.87	0.260
565.08	0.260
565.28	0.261
565.49	0.262
565.69	0.261
565.90	0.260
566.10	0.261
566.31	0.258
566.51	0.260
566.72	0.260
566.92	0.257
567.13	0.257
567.33	0.257
567.54	0.258
567.74	0.258
567.95	0.256
568.15	0.257
568.36	0.259
568.56	0.259
568.77	0.256
568.97	0.256
569.18	0.257
569.38	0.257
569.59	0.259
569.79	0.257
570.00	0.257
570.20	0.256
570.41	0.256
570.61	0.255
570.82	0.256
571.02	0.255
571.23	0.257
571.43	0.255
571.64	0.255
571.84	0.256
572.05	0.256
572.25	0.255
572.45	0.255
572.66	0.254
572.86	0.254
573.07	0.253
573.27	0.254
573.48	0.254
573.68	0.252
573.89	0.252
574.09	0.253
574.30	0.252
574.50	0.252
574.70	0.254
574.91	0.253
575.11	0.253
575.32	0.254
575.52	0.252
575.73	0.253
575.93	0.254
576.14	0.254
576.34	0.253
576.54	0.254
576.75	0.253
576.95	0.252
577.16	0.252
577.36	0.252
577.57	0.252
577.77	0.252
577.97	0.250
578.18	0.252
578.38	0.250
578.59	0.250
578.79	0.249
579.00	0.250
579.20	0.249
579.40	0.249
579.61	0.249
579.81	0.248
580.02	0.247
580.22	0.248
580.42	0.248
580.63	0.249
580.83	0.249
581.04	0.248
581.24	0.248
581.45	0.248
581.65	0.249
581.85	0.249
582.06	0.248
582.26	0.249
582.47	0.248
582.67	0.248
582.87	0.248
583.08	0.247
583.28	0.248
583.48	0.247
583.69	0.246
583.89	0.246
584.10	0.248
584.30	0.246
584.50	0.245
584.71	0.245
584.91	0.245
585.12	0.244
585.32	0.245
585.52	0.244
585.73	0.244
585.93	0.244
586.13	0.245
586.34	0.245
586.54	0.245
586.75	0.244
586.95	0.244
587.15	0.245
587.36	0.245
587.56	0.244
587.76	0.243
587.97	0.244
588.17	0.243
588.37	0.243
588.58	0.243
588.78	0.241
588.98	0.243
589.19	0.243
589.39	0.241
589.60	0.243
589.80	0.241
590.00	0.242
590.21	0.242
590.41	0.241
590.61	0.241
590.82	0.241
591.02	0.241
591.22	0.240
591.43	0.241
591.63	0.240
591.83	0.240
592.04	0.239
592.24	0.240
592.44	0.238
592.65	0.238
592.85	0.239
593.05	0.240
593.26	0.239
593.46	0.239
593.66	0.239
593.86	0.239
594.07	0.238
594.27	0.239
594.47	0.238
594.68	0.238
594.88	0.240
595.08	0.240
595.29	0.241
595.49	0.239
595.69	0.239
595.90	0.239
596.10	0.240
596.30	0.240
596.50	0.239
596.71	0.239
596.91	0.238
597.11	0.238
597.32	0.238
597.52	0.237
597.72	0.237
597.93	0.236
598.13	0.235
598.33	0.236
598.53	0.235
598.74	0.235
598.94	0.235
599.14	0.235
599.35	0.236
599.55	0.236
599.75	0.236
599.95	0.235
600.16	0.236
600.36	0.235
600.56	0.235
600.76	0.235
600.97	0.233
601.17	0.233
601.37	0.234
601.58	0.234
601.78	0.234
601.98	0.233
602.18	0.232
602.39	0.233
602.59	0.233
602.79	0.232
602.99	0.232
603.20	0.231
603.40	0.232
603.60	0.232
603.80	0.232
604.01	0.232
604.21	0.231
604.41	0.231
604.61	0.230
604.82	0.230
605.02	0.231
605.22	0.230
605.42	0.230
605.62	0.230
605.83	0.229
606.03	0.229
606.23	0.230
606.43	0.230
606.64	0.230
606.84	0.229
607.04	0.229
607.24	0.229
607.45	0.230
607.65	0.228
607.85	0.229
608.05	0.229
608.25	0.228
608.46	0.228
608.66	0.228
608.86	0.228
609.06	0.227
609.26	0.226
609.47	0.227
609.67	0.226
609.87	0.228
610.07	0.227
610.28	0.225
610.48	0.226
610.68	0.226
610.88	0.224
611.08	0.225
611.29	0.223
611.49	0.223
611.69	0.224
611.89	0.222
612.09	0.222
612.29	0.222
612.50	0.222
612.70	0.222
612.90	0.221
613.10	0.222
613.30	0.221
613.51	0.222
613.71	0.221
613.91	0.226
614.11	0.221
614.31	0.221
614.51	0.221
614.72	0.220
614.92	0.221
615.12	0.220
615.32	0.221
615.52	0.220
615.72	0.221
615.93	0.221
616.13	0.221
616.33	0.221
616.53	0.220
616.73	0.221
616.93	0.219
617.14	0.220
617.34	0.220
617.54	0.220
617.74	0.220
617.94	0.219
618.14	0.219
618.34	0.218
618.55	0.218
618.75	0.219
618.95	0.218
619.15	0.219
619.35	0.218
619.55	0.217
619.75	0.218
619.96	0.216
620.16	0.217
620.36	0.217
620.56	0.216
620.76	0.216
620.96	0.216
621.16	0.216
621.36	0.216
621.57	0.216
621.77	0.216
621.97	0.215
622.17	0.215
622.37	0.215
622.57	0.215
622.77	0.215
622.97	0.213
623.18	0.214
623.38	0.215
623.58	0.214
623.78	0.214
623.98	0.214
624.18	0.213
624.38	0.213
624.58	0.213
624.78	0.214
624.98	0.213
625.19	0.213
625.39	0.213
625.59	0.213
625.79	0.213
625.99	0.213
626.19	0.213
626.39	0.212
626.59	0.212
626.79	0.211
626.99	0.212
627.19	0.212
627.40	0.212
627.60	0.211
627.80	0.211
628.00	0.212
628.20	0.210
628.40	0.210
628.60	0.211
628.80	0.210
629.00	0.211
629.20	0.210
629.40	0.210
629.60	0.209
629.80	0.209
630.00	0.209
630.20	0.208
630.41	0.207
630.61	0.207
630.81	0.207
631.01	0.207
631.21	0.206
631.41	0.206
631.61	0.206
631.81	0.206
632.01	0.205
632.21	0.205
632.41	0.204
632.61	0.204
632.81	0.204
633.01	0.204
633.21	0.204
633.41	0.204
633.61	0.203
633.81	0.203
634.01	0.202
634.21	0.203
634.41	0.203
634.61	0.203
634.81	0.202
635.01	0.202
635.22	0.202
635.42	0.202
635.62	0.202
635.82	0.203
636.02	0.202
636.22	0.201
636.42	0.201
636.62	0.201
636.82	0.201
637.02	0.201
637.22	0.201
637.42	0.200
637.62	0.199
637.82	0.199
638.02	0.198
638.22	0.198
638.42	0.198
638.62	0.197
638.82	0.197
639.02	0.197
639.22	0.196
639.42	0.196
639.62	0.196
639.82	0.195
640.02	0.195
640.22	0.195
640.42	0.195
640.62	0.195
640.82	0.195
641.02	0.194
641.22	0.195
641.42	0.194
641.61	0.194
641.81	0.194
642.01	0.194
642.21	0.195
642.41	0.194
642.61	0.194
642.81	0.192
643.01	0.192
643.21	0.192
643.41	0.193
643.61	0.192
643.81	0.192
644.01	0.190
644.21	0.190
644.41	0.191
644.61	0.190
644.81	0.191
645.01	0.191
645.21	0.190
645.41	0.190
645.61	0.189
645.81	0.189
646.01	0.188
646.21	0.189
646.40	0.188
646.60	0.188
646.80	0.189
647.00	0.187
647.20	0.186
647.40	0.187
647.60	0.187
647.80	0.187
648.00	0.187
648.20	0.187
648.40	0.186
648.60	0.186
648.80	0.186
649.00	0.185
649.20	0.186
649.39	0.185
649.59	0.184
649.79	0.184
649.99	0.183
650.19	0.183
650.39	0.182
650.59	0.183
650.79	0.182
650.99	0.182
651.19	0.181
651.39	0.181
651.58	0.181
651.78	0.181
651.98	0.180
652.18	0.180
652.38	0.180
652.58	0.180
652.78	0.179
652.98	0.179
653.18	0.179
653.38	0.179
653.57	0.179
653.77	0.180
653.97	0.179
654.17	0.179
654.37	0.178
654.57	0.178
654.77	0.178
654.97	0.177
655.16	0.177
655.36	0.177
655.56	0.176
655.76	0.175
655.96	0.176
656.16	0.175
656.36	0.176
656.56	0.175
656.75	0.175
656.95	0.174
657.15	0.174
657.35	0.174
657.55	0.173
657.75	0.174
657.95	0.174
658.14	0.173
658.34	0.173
658.54	0.173
658.74	0.173
658.94	0.172
659.14	0.172
659.34	0.172
659.53	0.171
659.73	0.171
659.93	0.170
660.13	0.170
660.33	0.170
660.53	0.169
660.72	0.170
660.92	0.169
661.12	0.168
661.32	0.168
661.52	0.168
661.72	0.167
661.91	0.167
662.11	0.167
662.31	0.166
662.51	0.166
662.71	0.166
662.90	0.165
663.10	0.165
663.30	0.164
663.50	0.164
663.70	0.164
663.90	0.164
664.09	0.163
664.29	0.163
664.49	0.162
664.69	0.163
664.89	0.162
665.08	0.162
665.28	0.162
665.48	0.162
665.68	0.161
665.88	0.161
666.07	0.160
666.27	0.160
666.47	0.160
666.67	0.161
666.87	0.160
667.06	0.159
667.26	0.159
667.46	0.159
667.66	0.159
667.85	0.159
668.05	0.159
668.25	0.159
668.45	0.159
668.65	0.158
668.84	0.158
669.04	0.158
669.24	0.158
669.44	0.157
669.63	0.156
669.83	0.156
670.03	0.154
670.23	0.154
670.42	0.154
670.62	0.153
670.82	0.153
671.02	0.152
671.22	0.152
671.41	0.151
671.61	0.152
671.81	0.152
672.01	0.152
672.20	0.152
672.40	0.151
672.60	0.151
672.80	0.152
672.99	0.151
673.19	0.150
673.39	0.151
673.58	0.150
673.78	0.150
673.98	0.149
674.18	0.149
674.37	0.149
674.57	0.148
674.77	0.148
674.97	0.148
675.16	0.148
675.36	0.147
675.56	0.147
675.75	0.146
675.95	0.146
676.15	0.146
676.35	0.146
676.54	0.146
676.74	0.146
676.94	0.146
677.13	0.145
677.33	0.145
677.53	0.145
677.73	0.145
677.92	0.145
678.12	0.145
678.32	0.144
678.51	0.144
678.71	0.143
678.91	0.143
679.11	0.142
679.30	0.142
679.50	0.142
679.70	0.141
679.89	0.141
680.09	0.141
680.29	0.140
680.48	0.140
680.68	0.139
680.88	0.140
681.07	0.140
681.27	0.139
681.47	0.139
681.66	0.139
681.86	0.138
682.06	0.138
682.25	0.138
682.45	0.138
682.65	0.138
682.84	0.137
683.04	0.136
683.24	0.136
683.43	0.136
683.63	0.136
683.83	0.136
684.02	0.136
684.22	0.136
684.42	0.135
684.61	0.135
684.81	0.135
685.01	0.135
685.20	0.135
685.40	0.135
685.60	0.135
685.79	0.135
685.99	0.134
686.19	0.134
686.38	0.134
686.58	0.134
686.77	0.134
686.97	0.133
687.17	0.134
687.36	0.133
687.56	0.133
687.76	0.132
687.95	0.132
688.15	0.132
688.34	0.132
688.54	0.131
688.74	0.130
688.93	0.130
689.13	0.130
689.33	0.130
689.52	0.129
689.72	0.129
689.91	0.129
690.11	0.128
690.31	0.128
690.50	0.128
690.70	0.128
690.89	0.127
691.09	0.127
691.29	0.127
691.48	0.126
691.68	0.126
691.87	0.126
692.07	0.126
692.27	0.126
692.46	0.126
692.66	0.125
692.85	0.125
693.05	0.125
693.25	0.125
693.44	0.124
693.64	0.124
693.83	0.124
694.03	0.124
694.22	0.123
694.42	0.123
694.62	0.123
694.81	0.123
695.01	0.123
695.20	0.123
695.40	0.122
695.59	0.122
695.79	0.122
695.99	0.122
696.18	0.122
696.38	0.122
696.57	0.122
696.77	0.121
696.96	0.121
697.16	0.121
697.36	0.121
697.55	0.121
697.75	0.121
697.94	0.120
698.14	0.120
698.33	0.120
698.53	0.119
698.72	0.119
698.92	0.119
699.11	0.119
699.31	0.119
699.51	0.119
699.70	0.118
699.90	0.118
700.09	0.118
700.29	0.117
700.48	0.117
700.68	0.117
700.87	0.117
701.07	0.117
701.26	0.116
701.46	0.116
701.65	0.116
701.85	0.116
702.04	0.116
702.24	0.115
702.43	0.115
702.63	0.115
702.82	0.115
703.02	0.115
703.21	0.115
703.41	0.114
703.60	0.114
703.80	0.113
703.99	0.113
704.19	0.113
704.38	0.113
704.58	0.112
704.77	0.112
704.97	0.112
705.16	0.112
705.36	0.112
705.55	0.112
705.75	0.112
705.94	0.112
706.14	0.112
706.33	0.111
706.53	0.111
706.72	0.112
706.92	0.111
707.11	0.111
707.31	0.111
707.50	0.110
707.70	0.110
707.89	0.111
708.09	0.110
708.28	0.110
708.48	0.110
708.67	0.110
708.86	0.110
709.06	0.109
709.25	0.109
709.45	0.109
709.64	0.109
709.84	0.108
710.03	0.108
710.23	0.108
710.42	0.107
710.62	0.107
710.81	0.107
711.00	0.107
711.20	0.107
711.39	0.106
711.59	0.106
711.78	0.106
711.98	0.106
712.17	0.106
712.37	0.105
712.56	0.106
712.75	0.106
712.95	0.106
713.14	0.106
713.34	0.106
713.53	0.106
713.73	0.106
713.92	0.106
714.11	0.106
714.31	0.106
714.50	0.106
714.70	0.106
714.89	0.105
715.08	0.105
715.28	0.105
715.47	0.105
715.67	0.105
715.86	0.104
716.06	0.105
716.25	0.104
716.44	0.104
716.64	0.104
716.83	0.104
717.03	0.103
717.22	0.103
717.41	0.103
717.61	0.103
717.80	0.103
717.99	0.103
718.19	0.103
718.38	0.103
718.58	0.102
718.77	0.102
718.96	0.102
719.16	0.102
719.35	0.101
719.55	0.101
719.74	0.101
719.93	0.101
720.13	0.101
720.32	0.100
720.51	0.100
720.71	0.101
720.90	0.100
721.10	0.100
721.29	0.100
721.48	0.100
721.68	0.100
721.87	0.099
722.06	0.099
722.26	0.100
722.45	0.099
722.64	0.100
722.84	0.099
723.03	0.099
723.22	0.099
723.42	0.099
723.61	0.099
723.80	0.099
724.00	0.100
724.19	0.099
724.38	0.099
724.58	0.099
724.77	0.099
724.96	0.099
725.16	0.099
725.35	0.099
725.54	0.099
725.74	0.099
725.93	0.099
726.12	0.099
726.32	0.099
726.51	0.099
726.70	0.099
726.90	0.099
727.09	0.099
727.28	0.098
727.48	0.098
727.67	0.098
727.86	0.098
728.06	0.098
728.25	0.098
728.44	0.098
728.64	0.098
728.83	0.098
729.02	0.097
729.21	0.098
729.41	0.097
729.60	0.097
729.79	0.097
729.99	0.097
730.18	0.097
730.37	0.096
730.56	0.096
730.76	0.096
730.95	0.096
731.14	0.096
731.34	0.096
731.53	0.097
731.72	0.096
731.91	0.097
732.11	0.096
732.30	0.096
732.49	0.097
732.69	0.097
732.88	0.097
733.07	0.097
733.26	0.097
733.46	0.096
733.65	0.097
733.84	0.096
734.03	0.096
734.23	0.096
734.42	0.096
734.61	0.096
734.80	0.096
735.00	0.096
735.19	0.095
735.38	0.095
735.57	0.095
735.77	0.095
735.96	0.095
736.15	0.095
736.34	0.095
736.54	0.096
736.73	0.095
736.92	0.095
737.11	0.095
737.31	0.095
737.50	0.095
737.69	0.095
737.88	0.095
738.07	0.095
738.27	0.095
738.46	0.095
738.65	0.094
738.84	0.094
739.04	0.095
739.23	0.095
739.42	0.094
739.61	0.094
739.80	0.094
740.00	0.094
740.19	0.094
740.38	0.094
740.57	0.094
740.76	0.094
740.96	0.093
741.15	0.093
741.34	0.093
741.53	0.093
741.72	0.093
741.92	0.093
742.11	0.093
742.30	0.093
742.49	0.093
742.68	0.093
742.88	0.093
743.07	0.093
743.26	0.093
743.45	0.093
743.64	0.092
743.84	0.091
744.03	0.091
744.22	0.092
744.41	0.091
744.60	0.091
744.79	0.091
744.99	0.090
745.18	0.090
745.37	0.090
745.56	0.090
745.75	0.090
745.94	0.090
746.14	0.090
746.33	0.090
746.52	0.090
746.71	0.090
746.90	0.089
747.09	0.089
747.28	0.089
747.48	0.089
747.67	0.089
747.86	0.089
748.05	0.089
748.24	0.089
748.43	0.089
748.62	0.089
748.82	0.089
749.01	0.089
749.20	0.089
749.39	0.088
749.58	0.089
749.77	0.088
749.96	0.088
750.16	0.089
750.35	0.088
750.54	0.088
750.73	0.088
750.92	0.088
751.11	0.088
751.30	0.088
751.49	0.088
751.68	0.088
751.88	0.088
752.07	0.088
752.26	0.087
752.45	0.087
752.64	0.087
752.83	0.087
753.02	0.087
753.21	0.087
753.40	0.086
753.60	0.087
753.79	0.087
753.98	0.087
754.17	0.087
754.36	0.086
754.55	0.086
754.74	0.086
754.93	0.086
755.12	0.086
755.31	0.086
755.50	0.086
755.70	0.086
755.89	0.086
756.08	0.085
756.27	0.085
756.46	0.085
756.65	0.085
756.84	0.085
757.03	0.085
757.22	0.084
757.41	0.084
757.60	0.084
757.79	0.084
757.98	0.084
758.17	0.084
758.36	0.084
758.56	0.084
758.75	0.084
758.94	0.084
759.13	0.084
759.32	0.083
759.51	0.083
759.70	0.083
759.89	0.083
760.08	0.083
760.27	0.082
760.46	0.083
760.65	0.082
760.84	0.082
761.03	0.083
761.22	0.083
761.41	0.083
761.60	0.083
761.79	0.082
761.98	0.082
762.17	0.082
762.36	0.082
762.55	0.082
762.74	0.082
762.93	0.082
763.12	0.081
763.31	0.081
763.50	0.081
763.69	0.081
763.88	0.081
764.07	0.081
764.26	0.081
764.45	0.081
764.64	0.081
764.83	0.081
765.02	0.081
765.21	0.081
765.40	0.081
765.59	0.080
765.78	0.081
765.97	0.080
766.16	0.080
766.35	0.080
766.54	0.081
766.73	0.081
766.92	0.080
767.11	0.080
767.30	0.081
767.49	0.081
767.68	0.081
767.87	0.080
768.06	0.080
768.25	0.080
768.44	0.080
768.63	0.079
768.82	0.079
769.01	0.079
769.20	0.079
769.39	0.079
769.58	0.079
769.77	0.079
769.96	0.079
770.15	0.079
770.34	0.079
770.53	0.079
770.72	0.079
770.91	0.079
771.10	0.079
771.29	0.079
771.47	0.078
771.66	0.078
771.85	0.078
772.04	0.078
772.23	0.078
772.42	0.078
772.61	0.078
772.80	0.078
772.99	0.078
773.18	0.077
773.37	0.078
773.56	0.078
773.75	0.078
773.94	0.078
774.13	0.078
774.31	0.078
774.50	0.078
774.69	0.078
774.88	0.078
775.07	0.078
775.26	0.078
775.45	0.077
775.64	0.077
775.83	0.077
776.02	0.077
776.21	0.076
776.40	0.077
776.58	0.076
776.77	0.076
776.96	0.076
777.15	0.076
777.34	0.076
777.53	0.076
777.72	0.076
777.91	0.076
778.10	0.076
778.28	0.076
778.47	0.076
778.66	0.075
778.85	0.075
779.04	0.075
779.23	0.075
779.42	0.075
779.61	0.075
779.79	0.074
779.98	0.074
780.17	0.074
780.36	0.074
780.55	0.074
780.74	0.074
780.93	0.074
781.12	0.074
781.30	0.074
781.49	0.074
781.68	0.074
781.87	0.074
782.06	0.074
782.25	0.074
782.44	0.074
782.62	0.074
782.81	0.075
783.00	0.074
783.19	0.074
783.38	0.074
783.57	0.074
783.75	0.073
783.94	0.073
784.13	0.073
784.32	0.073
784.51	0.073
784.70	0.073
784.88	0.073
785.07	0.073
785.26	0.073
785.45	0.073
785.64	0.073
785.83	0.073
786.01	0.073
786.20	0.073
786.39	0.073
786.58	0.073
786.77	0.073
786.95	0.073
787.14	0.073
787.33	0.073
787.52	0.073
787.71	0.073
787.90	0.072
788.08	0.072
788.27	0.072
788.46	0.072
788.65	0.072
788.84	0.072
789.02	0.071
789.21	0.071
789.40	0.071
789.59	0.071
789.77	0.071
789.96	0.071
790.15	0.071
790.34	0.071
790.53	0.071
790.71	0.070
790.90	0.070
791.09	0.070
791.28	0.071
791.46	0.071
791.65	0.071
791.84	0.071
792.03	0.071
792.22	0.070
792.40	0.070
792.59	0.071
792.78	0.071
792.97	0.072
793.15	0.071
793.34	0.071
793.53	0.071
793.72	0.071
793.90	0.070
794.09	0.071
794.28	0.071
794.47	0.071
794.65	0.070
794.84	0.070
795.03	0.070
795.22	0.070
795.40	0.070
795.59	0.070
795.78	0.070
795.97	0.070
796.15	0.070
796.34	0.070
796.53	0.070
796.71	0.070
796.90	0.070
797.09	0.070
797.28	0.070
797.46	0.070
797.65	0.070
797.84	0.070
798.02	0.070
798.21	0.069
798.40	0.069
798.59	0.069
798.77	0.069
798.96	0.068
799.15	0.068
799.33	0.069
799.52	0.068
799.71	0.068
799.90	0.068
800.08	0.068
800.27	0.068
800.46	0.068
800.64	0.068
800.83	0.068
801.02	0.069
801.20	0.069
801.39	0.069
801.58	0.069
801.76	0.068
801.95	0.068
802.14	0.069
802.32	0.069
802.51	0.069
802.70	0.068
802.88	0.068
803.07	0.068
803.26	0.068
803.44	0.068
803.63	0.068
803.82	0.068
804.00	0.068
804.19	0.068
804.38	0.068
804.56	0.068
804.75	0.068
804.94	0.068
805.12	0.069
805.31	0.068
805.50	0.068
805.68	0.068
805.87	0.068
806.06	0.068
806.24	0.068
806.43	0.068
806.62	0.068
806.80	0.067
806.99	0.067
807.17	0.067
807.36	0.068
807.55	0.068
807.73	0.067
807.92	0.068
808.11	0.068
808.29	0.067
808.48	0.067
808.66	0.067
808.85	0.067
809.04	0.067
809.22	0.067
809.41	0.067
809.59	0.067
809.78	0.067
809.97	0.066
810.15	0.067
810.34	0.067
810.53	0.067
810.71	0.067
810.90	0.067
811.08	0.066
811.27	0.066
811.45	0.066
811.64	0.066
811.83	0.067
812.01	0.066
812.20	0.066
812.38	0.066
812.57	0.066
812.76	0.066
812.94	0.066
813.13	0.066
813.31	0.066
813.50	0.066
813.68	0.066
813.87	0.066
814.06	0.066
814.24	0.066
814.43	0.066
814.61	0.066
814.80	0.066
814.98	0.067
815.17	0.067
815.36	0.066
815.54	0.067
815.73	0.066
815.91	0.066
816.10	0.066
816.28	0.066
816.47	0.066
816.65	0.067
816.84	0.066
817.03	0.067
817.21	0.067
817.40	0.067
817.58	0.067
817.77	0.067
817.95	0.067
818.14	0.067
818.32	0.067
818.51	0.067
818.69	0.067
818.88	0.067
819.06	0.066
819.25	0.066
819.43	0.066
819.62	0.066
819.80	0.066
819.99	0.066
820.18	0.067
820.36	0.066
820.55	0.066
820.73	0.066
820.92	0.066
821.10	0.066
821.29	0.066
821.47	0.066
821.66	0.066
821.84	0.066
822.03	0.066
822.21	0.066
822.40	0.065
822.58	0.066
822.77	0.066
822.95	0.066
823.14	0.066
823.32	0.066
823.50	0.066
823.69	0.066
823.87	0.066
824.06	0.066
824.24	0.066
824.43	0.066
824.61	0.067
824.80	0.067
824.98	0.067
825.17	0.067
825.35	0.068
825.54	0.067
825.72	0.067
825.91	0.068
826.09	0.068
826.28	0.068
826.46	0.068
826.64	0.068
826.83	0.068
827.01	0.068
827.20	0.068
827.38	0.068
827.57	0.069
827.75	0.069
827.94	0.069
828.12	0.069
828.31	0.069
828.49	0.069
828.67	0.069
828.86	0.069
829.04	0.069
829.23	0.069
829.41	0.069
829.60	0.069
829.78	0.069
829.96	0.070
830.15	0.070
830.33	0.070
830.52	0.070
830.70	0.070
830.88	0.070
831.07	0.070
831.25	0.070
831.44	0.070
831.62	0.070
831.81	0.070
831.99	0.070
832.17	0.070
832.36	0.071
832.54	0.070
832.73	0.071
832.91	0.071
833.09	0.071
833.28	0.071
833.46	0.071
833.65	0.071
833.83	0.072
834.01	0.072
834.20	0.072
834.38	0.072
834.56	0.072
834.75	0.071
834.93	0.072
835.12	0.072
835.30	0.072
835.48	0.072
835.67	0.071
835.85	0.071
836.03	0.071
836.22	0.071
836.40	0.072
836.59	0.072
836.77	0.072
836.95	0.072
837.14	0.072
837.32	0.072
837.50	0.072
837.69	0.072
837.87	0.072
838.05	0.072
838.24	0.072
838.42	0.072
838.60	0.072
838.79	0.072
838.97	0.072
839.15	0.072
839.34	0.072
839.52	0.073
839.70	0.073
839.89	0.073
840.07	0.073
840.25	0.073
840.44	0.073
840.62	0.073
840.80	0.073
840.99	0.073
841.17	0.073
841.35	0.073
841.54	0.073
841.72	0.073
841.90	0.073
842.09	0.073
842.27	0.073
842.45	0.073
842.64	0.073
842.82	0.073
843.00	0.073
843.19	0.073
843.37	0.073
843.55	0.073
843.73	0.073
843.92	0.072
844.10	0.072
844.28	0.072
844.47	0.072
844.65	0.072
844.83	0.072
845.01	0.073
845.20	0.073
845.38	0.073
845.56	0.073
845.75	0.073
845.93	0.073
846.11	0.073
846.29	0.074
846.48	0.074
846.66	0.074
846.84	0.073
847.02	0.073
847.21	0.073
847.39	0.073
847.57	0.073
847.76	0.073
847.94	0.073
848.12	0.073
848.30	0.073
848.49	0.073
848.67	0.073
848.85	0.074
849.03	0.074
849.22	0.074
849.40	0.074
849.58	0.074
849.76	0.074
849.95	0.074
850.13	0.074
850.31	0.074
850.49	0.074
850.67	0.074
850.86	0.074
851.04	0.074
851.22	0.074
851.40	0.074
851.59	0.074
851.77	0.073
851.95	0.073
852.13	0.073
852.31	0.073
852.50	0.074
852.68	0.074
852.86	0.073
853.04	0.073
853.23	0.073
853.41	0.073
853.59	0.073
853.77	0.073
853.95	0.073
854.14	0.074
854.32	0.073
854.50	0.073
854.68	0.073
854.86	0.074
855.04	0.074
855.23	0.074
855.41	0.074
855.59	0.074
855.77	0.074
855.95	0.074
856.14	0.074
856.32	0.074
856.50	0.074
856.68	0.074
856.86	0.074
857.04	0.073
857.23	0.073
857.41	0.073
857.59	0.073
857.77	0.073
857.95	0.073
858.13	0.073
858.32	0.073
858.50	0.074
858.68	0.073
858.86	0.074
859.04	0.074
859.22	0.074
859.41	0.074
859.59	0.074
859.77	0.074
859.95	0.074
860.13	0.074
860.31	0.074
860.49	0.074
860.68	0.074
860.86	0.074
861.04	0.074
861.22	0.074
861.40	0.074
861.58	0.074
861.76	0.074
861.94	0.074
862.13	0.074
862.31	0.074
862.49	0.075
862.67	0.075
862.85	0.075
863.03	0.075
863.21	0.075
863.39	0.075
863.57	0.075
863.76	0.075
863.94	0.075
864.12	0.075
864.30	0.075
864.48	0.075
864.66	0.075
864.84	0.075
865.02	0.075
865.20	0.075
865.38	0.075
865.57	0.075
865.75	0.076
865.93	0.076
866.11	0.076
866.29	0.076
866.47	0.076
866.65	0.076
866.83	0.076
867.01	0.076
867.19	0.076
867.37	0.075
867.55	0.076
867.73	0.075
867.92	0.075
868.10	0.075
868.28	0.075
868.46	0.075
868.64	0.075
868.82	0.076
869.00	0.076
869.18	0.076
869.36	0.076
869.54	0.076
869.72	0.076
869.90	0.076
870.08	0.076
870.26	0.076
870.44	0.076
870.62	0.075
870.80	0.075
870.98	0.075
871.16	0.075
871.34	0.075
871.53	0.075
871.71	0.075
871.89	0.076
872.07	0.076
872.25	0.076
872.43	0.076
872.61	0.076
872.79	0.076
872.97	0.076
873.15	0.076
873.33	0.076
873.51	0.076
873.69	0.077
873.87	0.077
874.05	0.077
874.23	0.077
874.41	0.077
874.59	0.078
874.77	0.077
874.95	0.077
875.13	0.077
875.31	0.077
875.49	0.077
875.67	0.077
875.85	0.077
876.03	0.077
876.21	0.078
876.39	0.078
876.57	0.077
876.75	0.078
876.93	0.078
877.11	0.078
877.29	0.077
877.47	0.077
877.65	0.078
877.82	0.078
878.00	0.078
878.18	0.078
878.36	0.077
878.54	0.078
878.72	0.078
878.90	0.078
879.08	0.078
879.26	0.078
879.44	0.078
879.62	0.077
879.80	0.077
879.98	0.078
880.16	0.078
880.34	0.077
880.52	0.078
880.70	0.078
880.88	0.078
881.06	0.078
881.24	0.078
881.42	0.078
881.59	0.078
881.77	0.077
881.95	0.077
882.13	0.078
882.31	0.078
882.49	0.077
882.67	0.078
882.85	0.078
883.03	0.078
883.21	0.078
883.39	0.078
883.57	0.078
883.75	0.078
883.92	0.078
884.10	0.079
884.28	0.079
884.46	0.079
884.64	0.078
884.82	0.078
885.00	0.078
885.18	0.078
885.36	0.079
885.54	0.079
885.71	0.079
885.89	0.079
886.07	0.079
886.25	0.079
886.43	0.079
886.61	0.079
886.79	0.079
886.97	0.079
887.15	0.079
887.32	0.079
887.50	0.079
887.68	0.079
887.86	0.079
888.04	0.079
888.22	0.079
888.40	0.080
888.57	0.080
888.75	0.080
888.93	0.080
889.11	0.080
889.29	0.080
889.47	0.080
889.65	0.080
889.82	0.080
890.00	0.081
890.18	0.081
890.36	0.081
890.54	0.081
890.72	0.081
890.90	0.081
891.07	0.080
891.25	0.080
891.43	0.080
891.61	0.080
891.79	0.080
891.97	0.080
892.14	0.080
892.32	0.080
892.50	0.080
892.68	0.081
892.86	0.081
893.03	0.081
893.21	0.081
893.39	0.081
893.57	0.081
893.75	0.081
893.93	0.081
894.10	0.082
894.28	0.082
894.46	0.082
894.64	0.082
894.82	0.081
894.99	0.082
895.17	0.081
895.35	0.081
895.53	0.081
895.71	0.081
895.88	0.081
896.06	0.081
896.24	0.082
896.42	0.081
896.59	0.081
896.77	0.081
896.95	0.081
897.13	0.081
897.31	0.081
897.48	0.081
897.66	0.081
897.84	0.081
898.02	0.081
898.19	0.081
898.37	0.081
898.55	0.081
898.73	0.082
898.91	0.082
899.08	0.082
899.26	0.082
899.44	0.082
899.62	0.082
899.79	0.082
899.97	0.083
900.15	0.082
900.33	0.082
900.50	0.082
900.68	0.082
900.86	0.082
901.04	0.083
901.21	0.083
901.39	0.083
901.57	0.083
901.74	0.082
901.92	0.082
902.10	0.082
902.28	0.082
902.45	0.083
902.63	0.083
902.81	0.082
902.99	0.083
903.16	0.083
903.34	0.083
903.52	0.083
903.69	0.083
903.87	0.083
904.05	0.084
904.22	0.084
904.40	0.084
904.58	0.084
904.76	0.084
904.93	0.084
905.11	0.084
905.29	0.084
905.46	0.085
905.64	0.085
905.82	0.085
905.99	0.084
906.17	0.084
906.35	0.084
906.53	0.084
906.70	0.085
906.88	0.085
907.06	0.085
907.23	0.085
907.41	0.085
907.59	0.085
907.76	0.085
907.94	0.086
908.12	0.085
908.29	0.086
908.47	0.086
908.65	0.086
908.82	0.086
909.00	0.086
909.18	0.086
909.35	0.086
909.53	0.086
909.71	0.086
909.88	0.086
910.06	0.086
910.23	0.086
910.41	0.087
910.59	0.086
910.76	0.086
910.94	0.086
911.12	0.086
911.29	0.086
911.47	0.086
911.65	0.087
911.82	0.087
912.00	0.087
912.17	0.087
912.35	0.088
912.53	0.088
912.70	0.088
912.88	0.088
913.06	0.088
913.23	0.088
913.41	0.088
913.58	0.088
913.76	0.088
913.94	0.088
914.11	0.088
914.29	0.088
914.46	0.089
914.64	0.088
914.82	0.089
914.99	0.088
915.17	0.089
915.34	0.089
915.52	0.089
915.70	0.089
915.87	0.089
916.05	0.089
916.22	0.089
916.40	0.089
916.57	0.090
916.75	0.090
916.93	0.090
917.10	0.090
917.28	0.090
917.45	0.090
917.63	0.090
917.80	0.090
917.98	0.090
918.16	0.091
918.33	0.091
918.51	0.091
918.68	0.091
918.86	0.091
919.03	0.092
919.21	0.092
919.39	0.092
919.56	0.093
919.74	0.093
919.91	0.093
920.09	0.093
920.26	0.093
920.44	0.094
920.61	0.094
920.79	0.094
920.96	0.094
921.14	0.094
921.31	0.094
921.49	0.094
921.67	0.094
921.84	0.095
922.02	0.095
922.19	0.095
922.37	0.095
922.54	0.096
922.72	0.096
922.89	0.096
923.07	0.097
923.24	0.097
923.42	0.097
923.59	0.098
923.77	0.098
923.94	0.099
924.12	0.099
924.29	0.099
924.47	0.099
924.64	0.100
924.82	0.100
924.99	0.100
925.17	0.101
925.34	0.101
925.52	0.101
925.69	0.101
925.87	0.102
926.04	0.102
926.22	0.102
926.39	0.102
926.57	0.102
926.74	0.102
926.91	0.103
927.09	0.103
927.26	0.103
927.44	0.103
927.61	0.103
927.79	0.104
927.96	0.104
928.14	0.105
928.31	0.105
928.49	0.106
928.66	0.106
928.84	0.107
929.01	0.107
929.18	0.108
929.36	0.108
929.53	0.108
929.71	0.108
929.88	0.109
930.06	0.109
930.23	0.109
930.41	0.109
930.58	0.110
930.75	0.110
930.93	0.111
931.10	0.111
931.28	0.112
931.45	0.112
931.63	0.113
931.80	0.113
931.97	0.114
932.15	0.114
932.32	0.115
932.50	0.115
932.67	0.116
932.84	0.116
933.02	0.117
933.19	0.117
933.37	0.118
933.54	0.118
933.71	0.119
933.89	0.119
934.06	0.120
934.24	0.120
934.41	0.120
934.58	0.121
934.76	0.121
934.93	0.121
935.11	0.121
935.28	0.122
935.45	0.122
935.63	0.123
935.80	0.123
935.98	0.124
936.15	0.123
936.32	0.124
936.50	0.125
936.67	0.125
936.84	0.125
937.02	0.127
937.19	0.128
937.36	0.128
937.54	0.128
937.71	0.129
937.89	0.129
938.06	0.130
938.23	0.131
938.41	0.132
938.58	0.132
938.75	0.132
938.93	0.133
939.10	0.133
939.27	0.134
939.45	0.134
939.62	0.135
939.79	0.136
939.97	0.136
940.14	0.136
940.31	0.137
940.49	0.137
940.66	0.138
940.83	0.138
941.01	0.139
941.18	0.140
941.35	0.141
941.53	0.141
941.70	0.142
941.87	0.142
942.05	0.143
942.22	0.144
942.39	0.145
942.57	0.146
942.74	0.147
942.91	0.147
943.08	0.147
943.26	0.147
943.43	0.148
943.60	0.149
943.78	0.150
943.95	0.151
944.12	0.150
944.29	0.152
944.47	0.152
944.64	0.153
944.81	0.154
944.99	0.155
945.16	0.156
945.33	0.156
945.50	0.157
945.68	0.158
945.85	0.158
946.02	0.160
946.20	0.160
946.37	0.161
946.54	0.162
946.71	0.163
946.89	0.163
947.06	0.164
947.23	0.165
947.40	0.166
947.58	0.166
947.75	0.168
947.92	0.168
948.09	0.169
948.27	0.170
948.44	0.171
948.61	0.172
948.78	0.173
948.96	0.175
949.13	0.175
949.30	0.176
949.47	0.177
949.65	0.178
949.82	0.180
949.99	0.180
950.16	0.182
950.33	0.183
950.51	0.184
950.68	0.185
950.85	0.186
951.02	0.187
951.20	0.188
951.37	0.190
951.54	0.190
951.71	0.192
951.88	0.193
952.06	0.194
952.23	0.195
952.40	0.197
952.57	0.198
952.74	0.200
952.92	0.201
953.09	0.202
953.26	0.204
953.43	0.205
953.60	0.206
953.77	0.206
953.95	0.207
954.12	0.209
954.29	0.210
954.46	0.212
954.63	0.213
954.81	0.214
954.98	0.214
955.15	0.217
955.32	0.218
955.49	0.218
955.66	0.220
955.84	0.221
956.01	0.221
956.18	0.224
956.35	0.225
956.52	0.225
956.69	0.227
956.87	0.228
957.04	0.228
957.21	0.231
957.38	0.230
957.55	0.232
957.72	0.232
957.89	0.233
958.07	0.233
958.24	0.236
958.41	0.237
958.58	0.237
958.75	0.238
958.92	0.239
959.09	0.239
959.26	0.240
959.44	0.240
959.61	0.242
959.78	0.242
959.95	0.244
960.12	0.244
960.29	0.247
960.46	0.245
960.63	0.246
960.81	0.246
960.98	0.247
961.15	0.248
961.32	0.249
961.49	0.248
961.66	0.250
961.83	0.250
962.00	0.250
962.17	0.251
962.34	0.251
962.52	0.252
962.69	0.253
962.86	0.252
963.03	0.253
963.20	0.253
963.37	0.252
963.54	0.253
963.71	0.253
963.88	0.252
964.05	0.253
964.22	0.254
964.39	0.253
964.56	0.253
964.74	0.255
964.91	0.254
965.08	0.255
965.25	0.255
965.42	0.256
965.59	0.257
965.76	0.257
965.93	0.258
966.10	0.257
966.27	0.257
966.44	0.257
966.61	0.259
966.78	0.258
966.95	0.258
967.12	0.259
967.29	0.260
967.46	0.259
967.63	0.259
967.80	0.259
967.97	0.259
968.14	0.259
968.32	0.259
968.49	0.259
968.66	0.259
968.83	0.259
969.00	0.259
969.17	0.259
969.34	0.260
969.51	0.261
969.68	0.260
969.85	0.261
970.02	0.260
970.19	0.260
970.36	0.261
970.53	0.260
970.70	0.259
970.87	0.260
971.04	0.259
971.21	0.260
971.38	0.260
971.55	0.261
971.72	0.260
971.89	0.262
972.06	0.261
972.23	0.262
972.40	0.262
972.57	0.260
972.74	0.260
972.91	0.261
973.07	0.261
973.24	0.260
973.41	0.260
973.58	0.259
973.75	0.272
973.92	0.260
974.09	0.260
974.26	0.259
974.43	0.259
974.60	0.260
974.77	0.260
974.94	0.260
975.11	0.260
975.28	0.261
975.45	0.259
975.62	0.260
975.79	0.261
975.96	0.260
976.13	0.259
976.30	0.260
976.47	0.259
976.64	0.259
976.80	0.259
976.97	0.259
977.14	0.259
977.31	0.259
977.48	0.260
977.65	0.259
977.82	0.257
977.99	0.259
978.16	0.259
978.33	0.259
978.50	0.258
978.67	0.258
978.83	0.258
979.00	0.258
979.17	0.257
979.34	0.257
979.51	0.256
979.68	0.257
979.85	0.256
980.02	0.257
980.19	0.255
980.36	0.257
980.52	0.258
980.69	0.257
980.86	0.257
981.03	0.257
981.20	0.256
981.37	0.257
981.54	0.257
981.71	0.256
981.88	0.257
982.04	0.256
982.21	0.255
982.38	0.256
982.55	0.255
982.72	0.254
982.89	0.255
983.06	0.254
983.22	0.253
983.39	0.253
983.56	0.253
983.73	0.252
983.90	0.251
984.07	0.253
984.24	0.252
984.40	0.251
984.57	0.250
984.74	0.253
984.91	0.254
985.08	0.252
985.25	0.250
985.41	0.251
985.58	0.251
985.75	0.252
985.92	0.251
986.09	0.250
986.26	0.250
986.42	0.249
986.59	0.247
986.76	0.248
986.93	0.248
987.10	0.248
987.27	0.246
987.43	0.244
987.60	0.246
987.77	0.246
987.94	0.244
988.11	0.245
988.27	0.245
988.44	0.245
988.61	0.244
988.78	0.242
988.95	0.243
989.11	0.244
989.28	0.243
989.45	0.242
989.62	0.242
989.79	0.242
989.95	0.241
990.12	0.243
990.29	0.242
990.46	0.240
990.62	0.239
990.79	0.239
990.96	0.239
991.13	0.239
991.30	0.238
991.46	0.237
991.63	0.236
991.80	0.235
991.97	0.235
992.13	0.236
992.30	0.236
992.47	0.235
992.64	0.234
992.80	0.234
992.97	0.235
993.14	0.233
993.31	0.231
993.47	0.233
993.64	0.231
993.81	0.230
993.98	0.231
994.14	0.230
994.31	0.229
994.48	0.231
994.64	0.230
994.81	0.229
994.98	0.229
995.15	0.226
995.31	0.226
995.48	0.226
995.65	0.228
995.82	0.225
995.98	0.225
996.15	0.226
996.32	0.228
996.48	0.226
996.65	0.226
996.82	0.224
996.99	0.225
997.15	0.224
997.32	0.226
997.49	0.223
997.65	0.224
997.82	0.223
997.99	0.221
998.15	0.221
998.32	0.222
998.49	0.221
998.65	0.222
998.82	0.221
998.99	0.218
999.15	0.220
999.32	0.219
999.49	0.219
999.65	0.219
999.82	0.217
999.99	0.218
1000.15	0.218
1000.32	0.217
1000.49	0.217
1000.65	0.215
1000.82	0.215
1000.99	0.215
1001.15	0.215
1001.32	0.214
1001.49	0.215
1001.65	0.214
1001.82	0.216
1001.99	0.213
1002.15	0.212
1002.32	0.212
1002.49	0.212
1002.65	0.210
1002.82	0.209
1002.99	0.208
1003.15	0.210
1003.32	0.209
1003.48	0.209
1003.65	0.209
1003.82	0.208
1003.98	0.206
1004.15	0.205
1004.32	0.206
1004.48	0.206
1004.65	0.207
1004.81	0.204
1004.98	0.203
1005.15	0.204
1005.31	0.205
1005.48	0.202
1005.64	0.202
1005.81	0.205
1005.98	0.202
1006.14	0.201
1006.31	0.202
1006.47	0.201
1006.64	0.200
1006.81	0.200
1006.97	0.200
1007.14	0.199
1007.30	0.200
1007.47	0.200
1007.63	0.197
1007.80	0.196
1007.97	0.196
1008.13	0.196
1008.30	0.196
1008.46	0.196
1008.63	0.194
1008.79	0.195
1008.96	0.195
1009.13	0.196
1009.29	0.195
1009.46	0.194
1009.62	0.194
1009.79	0.192
1009.95	0.192
1010.12	0.193
1010.28	0.193
1010.45	0.192
1010.62	0.191
1010.78	0.189
1010.95	0.188
1011.11	0.188
1011.28	0.188
1011.44	0.189
1011.61	0.188
1011.77	0.187
1011.94	0.186
1012.10	0.186
1012.27	0.186
1012.43	0.185
1012.60	0.184
1012.76	0.184
1012.93	0.183
1013.10	0.182
1013.26	0.180
1013.43	0.181
1013.59	0.188
1013.76	0.180
1013.92	0.179
1014.09	0.178
1014.25	0.180
1014.42	0.181
1014.58	0.181
1014.75	0.183
1014.91	0.182
1015.08	0.183
1015.24	0.180
1015.41	0.182
1015.57	0.182
1015.73	0.181
1015.90	0.179
1016.06	0.180
1016.23	0.178
1016.39	0.178
1016.56	0.178
1016.72	0.178
1016.89	0.177
1017.05	0.178
1017.22	0.174
1017.38	0.175
1017.55	0.173
1017.71	0.175
1017.88	0.174
1018.04	0.174
1018.21	0.172
1018.37	0.171
1018.53	0.172
1018.70	0.171
1018.86	0.171
1019.03	0.173
1019.19	0.171
1019.36	0.170
1019.52	0.172
1019.69	0.173
1019.85	0.173
1020.01	0.172
1020.18	0.171
1020.34	0.171
1020.51	0.170
1020.67	0.172
1020.84	0.170
1021.00	0.171
1021.16	0.170
1021.33	0.169
1021.49	0.168
1021.66	0.168
1021.82	0.166
1021.98	0.166
1022.15	0.165
1022.31	0.165
1022.48	0.163
1022.64	0.164
1022.80	0.163
1022.97	0.161
1023.13	0.160
1023.30	0.161
1023.46	0.161
1023.62	0.158
1023.79	0.160
1023.95	0.160
1024.12	0.159
1024.28	0.158
1024.44	0.159
1024.61	0.156
1024.77	0.157
1024.93	0.156
1025.10	0.157
1025.26	0.155
1025.43	0.156
1025.59	0.152
1025.75	0.156
1025.92	0.155
1026.08	0.154
1026.24	0.154
1026.41	0.156
1026.57	0.153
1026.73	0.152
1026.90	0.155
1027.06	0.152
1027.23	0.153
1027.39	0.153
1027.55	0.153
1027.72	0.152
1027.88	0.152
1028.04	0.153
1028.21	0.153
1028.37	0.148
1028.53	0.153
1028.70	0.152
1028.86	0.150
1029.02	0.150
1029.19	0.151
1029.35	0.149
1029.51	0.148
1029.67	0.147
1029.84	0.148
1030.00	0.144
1030.16	0.145
1030.33	0.149
1030.49	0.144
1030.65	0.143
1030.82	0.158
1030.98	0.145
1031.14	0.145
1031.31	0.146
1031.47	0.143
1031.63	0.145
1031.79	0.144
1031.96	0.145
1032.12	0.145
1032.28	0.143
1032.45	0.147
1032.61	0.145
1032.77	0.145
1032.93	0.143
1033.10	0.144
1033.26	0.146
1033.42	0.145
1033.58	0.145
1033.75	0.145
1033.91	0.143
1034.07	0.146
1034.24	0.145
1034.40	0.143
1034.56	0.142
1034.72	0.143
1034.89	0.142
1035.05	0.140
1035.21	0.139
1035.37	0.137
1035.54	0.140
1035.70	0.138
1035.86	0.137
1036.02	0.138
1036.19	0.135
1036.35	0.134
1036.51	0.138
1036.67	0.135
1036.83	0.135
1037.00	0.135
1037.16	0.134
1037.32	0.136
1037.48	0.134
1037.65	0.138
1037.81	0.134
1037.97	0.136
1038.13	0.136
1038.29	0.134
1038.46	0.132
1038.62	0.137
1038.78	0.134
1038.94	0.131
1039.10	0.134
1039.27	0.131
1039.43	0.132
1039.59	0.132
1039.75	0.131
1039.91	0.130
1040.08	0.130
1040.24	0.133
1040.40	0.133
1040.56	0.132
1040.72	0.127
1040.89	0.130
1041.05	0.132
1041.21	0.130
1041.37	0.128
1041.53	0.133
1041.69	0.130
1041.86	0.130
1042.02	0.127
1042.18	0.126
1042.34	0.127
1042.50	0.131
1042.66	0.128
1042.83	0.126
1042.99	0.131
1043.15	0.126
1043.31	0.126
1043.47	0.131
1043.63	0.127
1043.79	0.127
1043.96	0.128
1044.12	0.132
1044.28	0.128
1044.44	0.129
1044.60	0.124
1044.76	0.122
1044.92	0.126
1045.09	0.128
1045.25	0.124
1045.41	0.124
1045.57	0.119
1045.73	0.120
1045.89	0.121
1046.05	0.124
1046.21	0.117
1046.38	0.122
1046.54	0.133
1046.70	0.125
1046.86	0.126
>>>>>End Processed Spectral Data<<<<<
