SpectraSuite Data File
++++++++++++++++++++++++++++++++++++
Date: Mon May 20 12:13:56 CDT 2013
User: Students
Dark Spectrum Present: Yes
Reference Spectrum Present: Yes
Number of Sampled Component Spectra: 1
Spectrometers: USB4H00887
Integration Time (usec): 60000 (USB4H00887)
Spectra Averaged: 5 (USB4H00887)
Boxcar Smoothing: 5 (USB4H00887)
Correct for Electrical Dark: No (USB4H00887)
Strobe/Lamp Enabled: No (USB4H00887)
Correct for Detector Non-linearity: No (USB4H00887)
Correct for Stray Light: No (USB4H00887)
Number of Pixels in Processed Spectrum: 3648
>>>>>Begin Processed Spectral Data<<<<<
345.83	14.131
346.05	14.131
346.26	14.131
346.48	-0.000
346.70	0.519
346.92	-0.038
347.14	0.004
347.35	0.032
347.57	0.171
347.79	-0.168
348.01	-0.137
348.23	-0.240
348.44	-0.000
348.66	0.210
348.88	-0.281
349.10	-0.017
349.32	-0.039
349.53	0.053
349.75	0.086
349.97	0.017
350.19	0.039
350.41	0.026
350.62	-0.081
350.84	0.032
351.06	0.020
351.28	0.003
351.50	-0.117
351.71	-0.081
351.93	-0.062
352.15	-0.002
352.37	0.008
352.58	0.019
352.80	0.035
353.02	0.068
353.24	0.089
353.46	0.573
353.67	-0.161
353.89	0.066
354.11	0.059
354.33	0.057
354.54	0.099
354.76	0.192
354.98	0.257
355.20	0.204
355.41	0.081
355.63	0.135
355.85	0.061
356.07	0.791
356.28	0.058
356.50	0.073
356.72	0.029
356.94	0.079
357.15	0.112
357.37	-0.000
357.59	0.104
357.81	0.084
358.02	0.156
358.24	0.123
358.46	0.272
358.68	0.310
358.89	0.175
359.11	-0.000
359.33	0.172
359.55	-0.742
359.76	0.184
359.98	0.175
360.20	0.137
360.42	0.094
360.63	0.082
360.85	0.049
361.07	0.150
361.29	0.027
361.50	0.053
361.72	0.034
361.94	0.134
362.15	0.077
362.37	0.057
362.59	0.087
362.81	0.151
363.02	0.276
363.24	0.425
363.46	0.253
363.68	0.320
363.89	0.207
364.11	0.271
364.33	0.326
364.54	0.192
364.76	0.218
364.98	0.183
365.20	0.174
365.41	0.097
365.63	0.123
365.85	0.079
366.06	0.187
366.28	0.219
366.50	0.134
366.71	0.075
366.93	0.086
367.15	0.065
367.37	0.058
367.58	0.089
367.80	0.129
368.02	0.286
368.23	0.112
368.45	0.144
368.67	0.108
368.88	0.100
369.10	-0.000
369.32	0.098
369.53	0.077
369.75	0.129
369.97	0.349
370.19	0.155
370.40	0.066
370.62	0.157
370.84	0.062
371.05	0.294
371.27	0.093
371.49	0.098
371.70	0.118
371.92	0.134
372.14	0.075
372.35	0.080
372.57	0.096
372.79	0.185
373.00	0.055
373.22	0.098
373.44	0.102
373.65	0.082
373.87	0.115
374.09	0.450
374.30	0.104
374.52	0.112
374.74	0.068
374.95	0.203
375.17	0.086
375.39	-0.000
375.60	0.101
375.82	0.164
376.04	0.073
376.25	0.078
376.47	0.040
376.68	0.105
376.90	0.062
377.12	0.163
377.33	0.110
377.55	0.239
377.77	0.090
377.98	0.141
378.20	0.094
378.42	0.117
378.63	0.153
378.85	-0.000
379.07	0.118
379.28	0.462
379.50	0.297
379.71	0.156
379.93	0.125
380.15	0.179
380.36	0.263
380.58	0.195
380.80	0.543
381.01	0.157
381.23	0.133
381.44	0.136
381.66	0.151
381.88	0.161
382.09	-0.074
382.31	0.098
382.53	0.106
382.74	0.537
382.96	0.158
383.17	0.147
383.39	0.200
383.61	0.254
383.82	0.181
384.04	0.211
384.25	0.267
384.47	0.249
384.69	0.241
384.90	0.221
385.12	0.471
385.33	0.313
385.55	0.232
385.77	0.350
385.98	0.193
386.20	0.251
386.41	0.206
386.63	0.237
386.85	0.189
387.06	0.228
387.28	0.350
387.49	0.223
387.71	0.152
387.93	0.142
388.14	0.443
388.36	0.192
388.57	0.179
388.79	0.211
389.01	-0.000
389.22	0.330
389.44	0.289
389.65	0.239
389.87	0.227
390.08	0.304
390.30	0.226
390.52	0.450
390.73	0.451
390.95	0.283
391.16	0.269
391.38	-0.000
391.59	0.284
391.81	0.230
392.03	0.212
392.24	0.259
392.46	0.195
392.67	0.173
392.89	0.236
393.10	0.323
393.32	0.248
393.53	0.283
393.75	0.189
393.97	0.220
394.18	0.316
394.40	0.263
394.61	0.261
394.83	0.234
395.04	0.279
395.26	0.189
395.47	0.298
395.69	0.252
395.91	0.277
396.12	0.313
396.34	0.314
396.55	0.204
396.77	0.331
396.98	-0.000
397.20	0.409
397.41	0.439
397.63	0.311
397.84	0.270
398.06	0.252
398.27	0.254
398.49	0.309
398.71	0.231
398.92	0.281
399.14	0.353
399.35	0.453
399.57	0.439
399.78	0.308
400.00	0.299
400.21	0.395
400.43	0.313
400.64	0.331
400.86	0.753
401.07	0.370
401.29	0.308
401.50	0.322
401.72	0.460
401.93	0.287
402.15	0.337
402.36	0.313
402.58	0.249
402.79	0.277
403.01	0.460
403.22	0.354
403.44	0.249
403.65	0.416
403.87	0.487
404.08	0.389
404.30	0.676
404.51	0.370
404.73	0.450
404.94	0.411
405.16	0.437
405.37	0.330
405.59	0.674
405.80	0.386
406.02	0.482
406.23	0.468
406.45	0.515
406.66	0.561
406.88	0.341
407.09	0.523
407.31	0.394
407.52	0.474
407.74	0.380
407.95	0.461
408.17	0.433
408.38	0.437
408.60	0.286
408.81	0.496
409.03	0.365
409.24	0.366
409.45	0.441
409.67	0.420
409.88	0.376
410.10	0.471
410.31	0.383
410.53	0.362
410.74	0.517
410.96	0.495
411.17	0.505
411.39	0.381
411.60	0.349
411.82	0.400
412.03	0.388
412.24	0.382
412.46	0.557
412.67	0.457
412.89	0.444
413.10	0.434
413.32	0.407
413.53	0.477
413.75	0.495
413.96	0.375
414.17	0.502
414.39	0.504
414.60	0.399
414.82	0.533
415.03	0.420
415.25	0.479
415.46	0.343
415.68	0.479
415.89	0.945
416.10	0.745
416.32	0.402
416.53	0.474
416.75	0.461
416.96	0.587
417.18	0.510
417.39	0.487
417.60	0.485
417.82	0.732
418.03	0.635
418.25	0.507
418.46	0.527
418.67	0.474
418.89	0.503
419.10	0.516
419.32	0.698
419.53	0.608
419.75	0.526
419.96	0.466
420.17	0.579
420.39	0.541
420.60	0.568
420.82	0.730
421.03	0.575
421.24	0.480
421.46	0.538
421.67	0.598
421.89	0.511
422.10	0.541
422.31	0.519
422.53	0.760
422.74	0.536
422.96	0.420
423.17	0.464
423.38	0.564
423.60	0.478
423.81	0.595
424.03	0.503
424.24	0.557
424.45	0.552
424.67	0.548
424.88	0.484
425.09	0.540
425.31	0.502
425.52	0.528
425.74	0.597
425.95	0.649
426.16	0.504
426.38	0.586
426.59	0.544
426.80	0.627
427.02	0.661
427.23	0.513
427.45	0.664
427.66	0.653
427.87	0.500
428.09	0.537
428.30	0.594
428.51	0.575
428.73	0.642
428.94	0.564
429.15	0.554
429.37	0.535
429.58	0.570
429.79	0.527
430.01	0.632
430.22	0.636
430.44	0.650
430.65	0.578
430.86	0.623
431.08	0.594
431.29	0.542
431.50	0.642
431.72	0.851
431.93	0.683
432.14	0.502
432.36	0.544
432.57	0.549
432.78	0.570
433.00	0.530
433.21	0.525
433.42	0.663
433.64	0.577
433.85	0.654
434.06	0.537
434.28	0.559
434.49	0.588
434.70	0.605
434.92	0.625
435.13	0.670
435.34	0.683
435.56	0.648
435.77	0.641
435.98	0.849
436.20	0.697
436.41	0.601
436.62	0.596
436.83	0.682
437.05	0.780
437.26	0.674
437.47	0.596
437.69	0.650
437.90	0.588
438.11	0.573
438.33	0.622
438.54	0.644
438.75	0.822
438.97	0.798
439.18	0.594
439.39	0.627
439.60	0.671
439.82	0.635
440.03	0.586
440.24	0.872
440.46	0.655
440.67	0.635
440.88	0.687
441.10	0.639
441.31	0.640
441.52	0.692
441.73	0.777
441.95	0.686
442.16	0.625
442.37	1.008
442.58	0.607
442.80	0.588
443.01	0.770
443.22	0.694
443.44	0.584
443.65	0.691
443.86	0.681
444.07	0.734
444.29	0.633
444.50	0.812
444.71	0.620
444.92	0.585
445.14	0.743
445.35	0.772
445.56	0.610
445.78	0.728
445.99	0.730
446.20	0.639
446.41	0.714
446.63	0.717
446.84	0.674
447.05	0.672
447.26	0.812
447.48	0.695
447.69	0.666
447.90	0.765
448.11	0.669
448.33	0.694
448.54	0.713
448.75	0.760
448.96	0.771
449.18	0.815
449.39	0.734
449.60	0.721
449.81	0.878
450.03	0.745
450.24	0.809
450.45	0.765
450.66	0.742
450.87	0.775
451.09	0.714
451.30	0.691
451.51	0.779
451.72	0.781
451.94	0.791
452.15	0.867
452.36	0.715
452.57	0.733
452.78	0.733
453.00	0.772
453.21	0.723
453.42	0.699
453.63	0.809
453.85	0.763
454.06	0.760
454.27	0.902
454.48	0.791
454.69	0.717
454.91	0.793
455.12	0.689
455.33	0.776
455.54	0.795
455.75	0.758
455.97	0.778
456.18	0.769
456.39	0.772
456.60	0.795
456.81	0.740
457.03	0.751
457.24	0.753
457.45	0.848
457.66	0.784
457.87	0.741
458.09	0.764
458.30	0.680
458.51	0.809
458.72	0.836
458.93	0.861
459.15	0.744
459.36	0.812
459.57	0.839
459.78	0.887
459.99	0.790
460.20	0.746
460.42	0.834
460.63	0.785
460.84	0.768
461.05	0.790
461.26	0.845
461.47	0.763
461.69	0.813
461.90	0.853
462.11	0.812
462.32	0.877
462.53	0.815
462.74	0.920
462.96	0.795
463.17	0.784
463.38	0.825
463.59	0.947
463.80	0.781
464.01	0.806
464.23	0.898
464.44	0.851
464.65	0.855
464.86	0.875
465.07	0.879
465.28	0.831
465.49	0.854
465.71	0.808
465.92	0.848
466.13	0.895
466.34	0.826
466.55	0.880
466.76	0.842
466.97	0.868
467.19	0.857
467.40	0.898
467.61	0.905
467.82	0.822
468.03	0.807
468.24	0.884
468.45	0.918
468.66	0.901
468.88	0.905
469.09	0.902
469.30	0.955
469.51	0.869
469.72	0.913
469.93	0.879
470.14	0.854
470.35	0.944
470.57	0.891
470.78	0.833
470.99	0.973
471.20	0.913
471.41	0.867
471.62	0.920
471.83	0.895
472.04	0.924
472.25	0.974
472.47	0.885
472.68	0.892
472.89	0.895
473.10	0.936
473.31	0.882
473.52	0.942
473.73	0.969
473.94	0.885
474.15	0.913
474.36	0.918
474.57	0.946
474.79	0.912
475.00	0.914
475.21	0.899
475.42	0.999
475.63	0.892
475.84	0.927
476.05	0.937
476.26	0.906
476.47	0.940
476.68	0.985
476.89	0.909
477.10	0.967
477.32	0.951
477.53	1.016
477.74	0.927
477.95	0.979
478.16	0.921
478.37	0.965
478.58	0.968
478.79	0.980
479.00	0.983
479.21	0.938
479.42	0.977
479.63	0.981
479.84	0.937
480.05	0.936
480.26	0.961
480.47	0.982
480.69	0.984
480.90	0.951
481.11	0.949
481.32	1.013
481.53	0.952
481.74	1.014
481.95	0.977
482.16	0.998
482.37	1.007
482.58	0.969
482.79	0.990
483.00	1.024
483.21	0.962
483.42	0.931
483.63	1.014
483.84	1.039
484.05	1.025
484.26	0.993
484.47	0.993
484.68	0.955
484.89	0.964
485.10	1.014
485.31	0.990
485.52	0.998
485.73	1.003
485.94	1.047
486.15	0.990
486.37	1.010
486.58	0.972
486.79	0.982
487.00	1.038
487.21	1.026
487.42	1.021
487.63	1.025
487.84	1.044
488.05	1.038
488.26	0.992
488.47	0.999
488.68	1.028
488.89	1.003
489.10	1.000
489.31	1.004
489.52	1.044
489.73	1.007
489.94	1.046
490.15	1.001
490.36	1.045
490.57	0.996
490.78	0.977
490.99	1.017
491.20	1.100
491.41	1.048
491.62	0.989
491.83	1.018
492.04	1.013
492.25	1.020
492.45	1.021
492.66	1.046
492.87	1.030
493.08	1.019
493.29	1.005
493.50	0.996
493.71	1.005
493.92	1.000
494.13	1.017
494.34	1.040
494.55	1.049
494.76	1.080
494.97	1.072
495.18	1.038
495.39	1.052
495.60	0.994
495.81	0.995
496.02	1.020
496.23	1.015
496.44	1.050
496.65	1.038
496.86	1.041
497.07	1.067
497.28	1.063
497.49	1.010
497.70	1.011
497.91	1.039
498.12	1.019
498.32	1.063
498.53	1.046
498.74	1.034
498.95	1.063
499.16	1.018
499.37	1.023
499.58	1.034
499.79	1.064
500.00	1.060
500.21	1.090
500.42	1.031
500.63	1.031
500.84	1.053
501.05	1.029
501.26	1.057
501.46	1.098
501.67	1.057
501.88	1.059
502.09	1.031
502.30	1.041
502.51	1.093
502.72	1.041
502.93	1.056
503.14	1.077
503.35	1.046
503.56	1.041
503.77	1.074
503.97	1.048
504.18	1.043
504.39	1.079
504.60	1.045
504.81	1.074
505.02	1.065
505.23	1.070
505.44	1.051
505.65	1.061
505.86	1.041
506.07	1.112
506.27	1.069
506.48	1.078
506.69	1.061
506.90	1.084
507.11	1.079
507.32	1.051
507.53	1.060
507.74	1.052
507.95	1.065
508.15	1.072
508.36	1.079
508.57	1.091
508.78	1.074
508.99	1.078
509.20	1.050
509.41	1.075
509.62	1.063
509.82	1.060
510.03	1.070
510.24	1.072
510.45	1.094
510.66	1.084
510.87	1.078
511.08	1.033
511.29	1.074
511.49	1.050
511.70	1.100
511.91	1.032
512.12	1.029
512.33	1.064
512.54	1.080
512.75	1.063
512.95	1.090
513.16	1.079
513.37	1.056
513.58	1.100
513.79	1.060
514.00	1.066
514.20	1.084
514.41	1.072
514.62	1.037
514.83	1.084
515.04	1.074
515.25	1.053
515.46	1.066
515.66	1.063
515.87	1.076
516.08	1.042
516.29	1.068
516.50	1.047
516.71	1.039
516.91	1.050
517.12	1.064
517.33	1.047
517.54	1.031
517.75	1.033
517.95	1.048
518.16	1.059
518.37	1.028
518.58	1.036
518.79	1.009
519.00	1.042
519.20	1.053
519.41	1.027
519.62	1.049
519.83	1.062
520.04	1.025
520.24	1.024
520.45	1.034
520.66	1.058
520.87	1.014
521.08	1.010
521.28	1.015
521.49	1.031
521.70	0.997
521.91	1.012
522.12	0.993
522.32	1.015
522.53	0.998
522.74	0.986
522.95	0.997
523.16	1.000
523.36	1.011
523.57	0.994
523.78	0.988
523.99	0.994
524.20	0.986
524.40	0.998
524.61	1.005
524.82	0.977
525.03	0.982
525.23	0.982
525.44	0.965
525.65	0.963
525.86	0.987
526.06	0.957
526.27	0.958
526.48	0.967
526.69	0.950
526.90	0.955
527.10	0.990
527.31	0.943
527.52	0.938
527.73	0.932
527.93	0.944
528.14	0.949
528.35	0.938
528.56	0.940
528.76	0.934
528.97	0.922
529.18	0.913
529.39	0.915
529.59	0.917
529.80	0.949
530.01	0.919
530.22	0.918
530.42	0.886
530.63	0.903
530.84	0.879
531.05	0.894
531.25	0.898
531.46	0.890
531.67	0.867
531.88	0.888
532.08	0.881
532.29	0.876
532.50	0.868
532.70	0.861
532.91	0.852
533.12	0.856
533.33	0.881
533.53	0.850
533.74	0.849
533.95	0.855
534.15	0.842
534.36	0.843
534.57	0.825
534.78	0.826
534.98	0.837
535.19	0.806
535.40	0.807
535.60	0.827
535.81	0.804
536.02	0.807
536.23	0.799
536.43	0.800
536.64	0.788
536.85	0.796
537.05	0.805
537.26	0.782
537.47	0.785
537.67	0.773
537.88	0.768
538.09	0.776
538.30	0.767
538.50	0.757
538.71	0.770
538.92	0.755
539.12	0.751
539.33	0.745
539.54	0.745
539.74	0.749
539.95	0.739
540.16	0.736
540.36	0.727
540.57	0.726
540.78	0.719
540.98	0.718
541.19	0.717
541.40	0.705
541.60	0.717
541.81	0.711
542.02	0.713
542.22	0.702
542.43	0.697
542.64	0.692
542.84	0.692
543.05	0.683
543.26	0.683
543.46	0.686
543.67	0.684
543.88	0.679
544.08	0.668
544.29	0.663
544.50	0.664
544.70	0.666
544.91	0.657
545.12	0.658
545.32	0.652
545.53	0.657
545.74	0.645
545.94	0.642
546.15	0.640
546.35	0.636
546.56	0.632
546.77	0.629
546.97	0.626
547.18	0.617
547.39	0.618
547.59	0.616
547.80	0.611
548.01	0.615
548.21	0.610
548.42	0.602
548.62	0.601
548.83	0.598
549.04	0.595
549.24	0.587
549.45	0.586
549.65	0.582
549.86	0.577
550.07	0.577
550.27	0.575
550.48	0.583
550.69	0.568
550.89	0.568
551.10	0.564
551.30	0.562
551.51	0.562
551.72	0.551
551.92	0.553
552.13	0.552
552.33	0.553
552.54	0.546
552.75	0.540
552.95	0.541
553.16	0.536
553.36	0.534
553.57	0.532
553.78	0.530
553.98	0.529
554.19	0.520
554.39	0.518
554.60	0.520
554.80	0.520
555.01	0.512
555.22	0.514
555.42	0.510
555.63	0.504
555.83	0.507
556.04	0.500
556.25	0.502
556.45	0.493
556.66	0.490
556.86	0.494
557.07	0.491
557.27	0.490
557.48	0.484
557.68	0.482
557.89	0.483
558.10	0.479
558.30	0.476
558.51	0.474
558.71	0.472
558.92	0.468
559.12	0.470
559.33	0.473
559.54	0.467
559.74	0.463
559.95	0.461
560.15	0.461
560.36	0.459
560.56	0.453
560.77	0.454
560.97	0.453
561.18	0.447
561.38	0.446
561.59	0.449
561.79	0.445
562.00	0.443
562.21	0.439
562.41	0.438
562.62	0.436
562.82	0.435
563.03	0.431
563.23	0.431
563.44	0.431
563.64	0.428
563.85	0.429
564.05	0.422
564.26	0.421
564.46	0.420
564.67	0.420
564.87	0.416
565.08	0.412
565.28	0.412
565.49	0.412
565.69	0.409
565.90	0.405
566.10	0.408
566.31	0.401
566.51	0.403
566.72	0.403
566.92	0.397
567.13	0.397
567.33	0.395
567.54	0.394
567.74	0.393
567.95	0.389
568.15	0.390
568.36	0.389
568.56	0.388
568.77	0.383
568.97	0.382
569.18	0.381
569.38	0.379
569.59	0.380
569.79	0.377
570.00	0.375
570.20	0.373
570.41	0.372
570.61	0.370
570.82	0.371
571.02	0.368
571.23	0.369
571.43	0.365
571.64	0.364
571.84	0.363
572.05	0.361
572.25	0.360
572.45	0.359
572.66	0.355
572.86	0.354
573.07	0.352
573.27	0.353
573.48	0.351
573.68	0.348
573.89	0.347
574.09	0.347
574.30	0.346
574.50	0.344
574.70	0.344
574.91	0.341
575.11	0.341
575.32	0.341
575.52	0.337
575.73	0.336
575.93	0.336
576.14	0.335
576.34	0.333
576.54	0.332
576.75	0.330
576.95	0.329
577.16	0.327
577.36	0.326
577.57	0.325
577.77	0.323
577.97	0.320
578.18	0.322
578.38	0.318
578.59	0.316
578.79	0.315
579.00	0.315
579.20	0.313
579.40	0.312
579.61	0.311
579.81	0.311
580.02	0.308
580.22	0.308
580.42	0.306
580.63	0.306
580.83	0.305
581.04	0.302
581.24	0.301
581.45	0.300
581.65	0.300
581.85	0.299
582.06	0.297
582.26	0.297
582.47	0.296
582.67	0.295
582.87	0.294
583.08	0.292
583.28	0.292
583.48	0.290
583.69	0.288
583.89	0.288
584.10	0.288
584.30	0.286
584.50	0.284
584.71	0.283
584.91	0.283
585.12	0.280
585.32	0.281
585.52	0.279
585.73	0.278
585.93	0.277
586.13	0.277
586.34	0.275
586.54	0.274
586.75	0.273
586.95	0.272
587.15	0.272
587.36	0.271
587.56	0.270
587.76	0.269
587.97	0.268
588.17	0.267
588.37	0.266
588.58	0.266
588.78	0.263
588.98	0.264
589.19	0.262
589.39	0.261
589.60	0.263
589.80	0.260
590.00	0.259
590.21	0.259
590.41	0.257
590.61	0.257
590.82	0.257
591.02	0.256
591.22	0.254
591.43	0.255
591.63	0.253
591.83	0.252
592.04	0.250
592.24	0.251
592.44	0.249
592.65	0.248
592.85	0.248
593.05	0.249
593.26	0.247
593.46	0.246
593.66	0.246
593.86	0.245
594.07	0.243
594.27	0.243
594.47	0.242
594.68	0.241
594.88	0.241
595.08	0.240
595.29	0.240
595.49	0.238
595.69	0.237
595.90	0.236
596.10	0.236
596.30	0.236
596.50	0.235
596.71	0.234
596.91	0.233
597.11	0.233
597.32	0.232
597.52	0.231
597.72	0.231
597.93	0.230
598.13	0.229
598.33	0.229
598.53	0.227
598.74	0.227
598.94	0.226
599.14	0.226
599.35	0.226
599.55	0.226
599.75	0.224
599.95	0.223
600.16	0.224
600.36	0.222
600.56	0.222
600.76	0.221
600.97	0.219
601.17	0.219
601.37	0.219
601.58	0.218
601.78	0.218
601.98	0.217
602.18	0.216
602.39	0.216
602.59	0.216
602.79	0.215
602.99	0.215
603.20	0.213
603.40	0.214
603.60	0.213
603.80	0.213
604.01	0.212
604.21	0.212
604.41	0.211
604.61	0.209
604.82	0.209
605.02	0.210
605.22	0.209
605.42	0.209
605.62	0.208
605.83	0.207
606.03	0.206
606.23	0.206
606.43	0.205
606.64	0.205
606.84	0.204
607.04	0.204
607.24	0.204
607.45	0.204
607.65	0.202
607.85	0.204
608.05	0.202
608.25	0.201
608.46	0.201
608.66	0.201
608.86	0.201
609.06	0.199
609.26	0.198
609.47	0.199
609.67	0.197
609.87	0.198
610.07	0.197
610.28	0.195
610.48	0.195
610.68	0.195
610.88	0.194
611.08	0.194
611.29	0.193
611.49	0.193
611.69	0.194
611.89	0.192
612.09	0.192
612.29	0.191
612.50	0.191
612.70	0.191
612.90	0.190
613.10	0.189
613.30	0.189
613.51	0.189
613.71	0.188
613.91	0.192
614.11	0.188
614.31	0.187
614.51	0.187
614.72	0.186
614.92	0.186
615.12	0.185
615.32	0.186
615.52	0.186
615.72	0.186
615.93	0.186
616.13	0.185
616.33	0.185
616.53	0.185
616.73	0.185
616.93	0.183
617.14	0.184
617.34	0.183
617.54	0.183
617.74	0.183
617.94	0.181
618.14	0.182
618.34	0.180
618.55	0.180
618.75	0.181
618.95	0.180
619.15	0.181
619.35	0.180
619.55	0.179
619.75	0.179
619.96	0.178
620.16	0.178
620.36	0.178
620.56	0.178
620.76	0.178
620.96	0.177
621.16	0.177
621.36	0.177
621.57	0.177
621.77	0.177
621.97	0.176
622.17	0.176
622.37	0.176
622.57	0.176
622.77	0.175
622.97	0.174
623.18	0.174
623.38	0.174
623.58	0.173
623.78	0.173
623.98	0.173
624.18	0.172
624.38	0.172
624.58	0.171
624.78	0.172
624.98	0.172
625.19	0.171
625.39	0.172
625.59	0.171
625.79	0.171
625.99	0.170
626.19	0.170
626.39	0.170
626.59	0.170
626.79	0.170
626.99	0.170
627.19	0.170
627.40	0.170
627.60	0.169
627.80	0.169
628.00	0.169
628.20	0.169
628.40	0.168
628.60	0.168
628.80	0.167
629.00	0.168
629.20	0.167
629.40	0.167
629.60	0.165
629.80	0.166
630.00	0.165
630.20	0.165
630.41	0.164
630.61	0.164
630.81	0.164
631.01	0.164
631.21	0.163
631.41	0.163
631.61	0.163
631.81	0.162
632.01	0.162
632.21	0.163
632.41	0.161
632.61	0.161
632.81	0.161
633.01	0.162
633.21	0.162
633.41	0.162
633.61	0.161
633.81	0.160
634.01	0.160
634.21	0.160
634.41	0.159
634.61	0.159
634.81	0.159
635.01	0.158
635.22	0.159
635.42	0.158
635.62	0.158
635.82	0.158
636.02	0.157
636.22	0.157
636.42	0.157
636.62	0.157
636.82	0.157
637.02	0.156
637.22	0.157
637.42	0.156
637.62	0.155
637.82	0.156
638.02	0.155
638.22	0.155
638.42	0.155
638.62	0.154
638.82	0.154
639.02	0.154
639.22	0.154
639.42	0.153
639.62	0.153
639.82	0.152
640.02	0.152
640.22	0.152
640.42	0.153
640.62	0.153
640.82	0.152
641.02	0.152
641.22	0.153
641.42	0.152
641.61	0.152
641.81	0.152
642.01	0.152
642.21	0.152
642.41	0.152
642.61	0.151
642.81	0.151
643.01	0.150
643.21	0.150
643.41	0.150
643.61	0.150
643.81	0.149
644.01	0.148
644.21	0.148
644.41	0.148
644.61	0.148
644.81	0.148
645.01	0.148
645.21	0.148
645.41	0.147
645.61	0.147
645.81	0.147
646.01	0.146
646.21	0.147
646.40	0.147
646.60	0.146
646.80	0.146
647.00	0.146
647.20	0.145
647.40	0.145
647.60	0.145
647.80	0.145
648.00	0.145
648.20	0.144
648.40	0.144
648.60	0.144
648.80	0.144
649.00	0.144
649.20	0.145
649.39	0.144
649.59	0.144
649.79	0.143
649.99	0.143
650.19	0.143
650.39	0.143
650.59	0.142
650.79	0.142
650.99	0.141
651.19	0.140
651.39	0.140
651.58	0.140
651.78	0.140
651.98	0.140
652.18	0.140
652.38	0.139
652.58	0.140
652.78	0.139
652.98	0.139
653.18	0.140
653.38	0.140
653.57	0.140
653.77	0.139
653.97	0.139
654.17	0.138
654.37	0.138
654.57	0.138
654.77	0.137
654.97	0.137
655.16	0.137
655.36	0.137
655.56	0.136
655.76	0.135
655.96	0.136
656.16	0.135
656.36	0.136
656.56	0.135
656.75	0.135
656.95	0.135
657.15	0.135
657.35	0.135
657.55	0.134
657.75	0.135
657.95	0.134
658.14	0.134
658.34	0.135
658.54	0.134
658.74	0.134
658.94	0.133
659.14	0.133
659.34	0.133
659.53	0.133
659.73	0.132
659.93	0.132
660.13	0.132
660.33	0.132
660.53	0.131
660.72	0.132
660.92	0.132
661.12	0.131
661.32	0.131
661.52	0.130
661.72	0.130
661.91	0.130
662.11	0.130
662.31	0.130
662.51	0.129
662.71	0.129
662.90	0.128
663.10	0.128
663.30	0.128
663.50	0.128
663.70	0.128
663.90	0.128
664.09	0.128
664.29	0.128
664.49	0.127
664.69	0.127
664.89	0.128
665.08	0.128
665.28	0.127
665.48	0.127
665.68	0.126
665.88	0.126
666.07	0.126
666.27	0.126
666.47	0.125
666.67	0.125
666.87	0.125
667.06	0.125
667.26	0.124
667.46	0.124
667.66	0.124
667.85	0.124
668.05	0.124
668.25	0.124
668.45	0.124
668.65	0.124
668.84	0.124
669.04	0.124
669.24	0.123
669.44	0.123
669.63	0.123
669.83	0.123
670.03	0.122
670.23	0.121
670.42	0.121
670.62	0.120
670.82	0.120
671.02	0.119
671.22	0.119
671.41	0.119
671.61	0.119
671.81	0.119
672.01	0.119
672.20	0.119
672.40	0.119
672.60	0.119
672.80	0.119
672.99	0.119
673.19	0.118
673.39	0.118
673.58	0.118
673.78	0.118
673.98	0.117
674.18	0.117
674.37	0.117
674.57	0.116
674.77	0.117
674.97	0.116
675.16	0.116
675.36	0.116
675.56	0.115
675.75	0.115
675.95	0.115
676.15	0.115
676.35	0.115
676.54	0.115
676.74	0.115
676.94	0.115
677.13	0.114
677.33	0.114
677.53	0.114
677.73	0.114
677.92	0.114
678.12	0.114
678.32	0.113
678.51	0.113
678.71	0.113
678.91	0.112
679.11	0.112
679.30	0.112
679.50	0.111
679.70	0.111
679.89	0.111
680.09	0.111
680.29	0.110
680.48	0.110
680.68	0.110
680.88	0.110
681.07	0.110
681.27	0.110
681.47	0.110
681.66	0.110
681.86	0.110
682.06	0.110
682.25	0.109
682.45	0.109
682.65	0.109
682.84	0.108
683.04	0.108
683.24	0.108
683.43	0.108
683.63	0.108
683.83	0.108
684.02	0.108
684.22	0.107
684.42	0.107
684.61	0.107
684.81	0.107
685.01	0.107
685.20	0.107
685.40	0.107
685.60	0.106
685.79	0.106
685.99	0.106
686.19	0.106
686.38	0.106
686.58	0.107
686.77	0.107
686.97	0.106
687.17	0.106
687.36	0.106
687.56	0.106
687.76	0.105
687.95	0.105
688.15	0.105
688.34	0.105
688.54	0.104
688.74	0.104
688.93	0.103
689.13	0.103
689.33	0.103
689.52	0.103
689.72	0.103
689.91	0.103
690.11	0.102
690.31	0.102
690.50	0.102
690.70	0.102
690.89	0.102
691.09	0.102
691.29	0.102
691.48	0.101
691.68	0.101
691.87	0.101
692.07	0.102
692.27	0.101
692.46	0.101
692.66	0.101
692.85	0.101
693.05	0.101
693.25	0.101
693.44	0.101
693.64	0.100
693.83	0.101
694.03	0.100
694.22	0.099
694.42	0.100
694.62	0.100
694.81	0.100
695.01	0.100
695.20	0.099
695.40	0.099
695.59	0.099
695.79	0.098
695.99	0.099
696.18	0.099
696.38	0.099
696.57	0.098
696.77	0.098
696.96	0.098
697.16	0.098
697.36	0.098
697.55	0.098
697.75	0.098
697.94	0.097
698.14	0.098
698.33	0.097
698.53	0.097
698.72	0.097
698.92	0.097
699.11	0.097
699.31	0.097
699.51	0.097
699.70	0.096
699.90	0.096
700.09	0.097
700.29	0.096
700.48	0.096
700.68	0.096
700.87	0.096
701.07	0.096
701.26	0.095
701.46	0.095
701.65	0.095
701.85	0.094
702.04	0.094
702.24	0.094
702.43	0.094
702.63	0.094
702.82	0.093
703.02	0.093
703.21	0.094
703.41	0.094
703.60	0.093
703.80	0.093
703.99	0.093
704.19	0.093
704.38	0.093
704.58	0.093
704.77	0.093
704.97	0.093
705.16	0.093
705.36	0.093
705.55	0.093
705.75	0.092
705.94	0.093
706.14	0.093
706.33	0.092
706.53	0.092
706.72	0.093
706.92	0.092
707.11	0.092
707.31	0.092
707.50	0.092
707.70	0.092
707.89	0.092
708.09	0.091
708.28	0.091
708.48	0.091
708.67	0.091
708.86	0.091
709.06	0.091
709.25	0.091
709.45	0.091
709.64	0.091
709.84	0.091
710.03	0.091
710.23	0.090
710.42	0.090
710.62	0.090
710.81	0.090
711.00	0.090
711.20	0.090
711.39	0.089
711.59	0.089
711.78	0.089
711.98	0.089
712.17	0.089
712.37	0.089
712.56	0.089
712.75	0.089
712.95	0.089
713.14	0.089
713.34	0.089
713.53	0.090
713.73	0.090
713.92	0.090
714.11	0.090
714.31	0.090
714.50	0.090
714.70	0.090
714.89	0.090
715.08	0.090
715.28	0.090
715.47	0.089
715.67	0.090
715.86	0.089
716.06	0.089
716.25	0.089
716.44	0.089
716.64	0.088
716.83	0.088
717.03	0.088
717.22	0.088
717.41	0.088
717.61	0.088
717.80	0.088
717.99	0.088
718.19	0.088
718.38	0.088
718.58	0.088
718.77	0.088
718.96	0.087
719.16	0.087
719.35	0.087
719.55	0.087
719.74	0.087
719.93	0.087
720.13	0.087
720.32	0.087
720.51	0.087
720.71	0.087
720.90	0.086
721.10	0.086
721.29	0.086
721.48	0.086
721.68	0.086
721.87	0.086
722.06	0.086
722.26	0.087
722.45	0.086
722.64	0.086
722.84	0.086
723.03	0.087
723.22	0.087
723.42	0.087
723.61	0.087
723.80	0.087
724.00	0.087
724.19	0.087
724.38	0.087
724.58	0.087
724.77	0.087
724.96	0.087
725.16	0.087
725.35	0.086
725.54	0.087
725.74	0.087
725.93	0.087
726.12	0.087
726.32	0.087
726.51	0.087
726.70	0.087
726.90	0.088
727.09	0.087
727.28	0.087
727.48	0.087
727.67	0.086
727.86	0.086
728.06	0.086
728.25	0.086
728.44	0.086
728.64	0.086
728.83	0.086
729.02	0.086
729.21	0.086
729.41	0.086
729.60	0.086
729.79	0.086
729.99	0.086
730.18	0.086
730.37	0.086
730.56	0.086
730.76	0.086
730.95	0.086
731.14	0.086
731.34	0.086
731.53	0.087
731.72	0.087
731.91	0.087
732.11	0.086
732.30	0.087
732.49	0.087
732.69	0.087
732.88	0.087
733.07	0.087
733.26	0.087
733.46	0.087
733.65	0.087
733.84	0.086
734.03	0.087
734.23	0.087
734.42	0.087
734.61	0.086
734.80	0.086
735.00	0.086
735.19	0.087
735.38	0.087
735.57	0.086
735.77	0.086
735.96	0.086
736.15	0.086
736.34	0.086
736.54	0.087
736.73	0.087
736.92	0.086
737.11	0.086
737.31	0.086
737.50	0.086
737.69	0.087
737.88	0.087
738.07	0.087
738.27	0.087
738.46	0.087
738.65	0.086
738.84	0.087
739.04	0.087
739.23	0.087
739.42	0.087
739.61	0.087
739.80	0.087
740.00	0.087
740.19	0.087
740.38	0.087
740.57	0.087
740.76	0.087
740.96	0.087
741.15	0.086
741.34	0.086
741.53	0.087
741.72	0.087
741.92	0.086
742.11	0.086
742.30	0.086
742.49	0.086
742.68	0.086
742.88	0.086
743.07	0.085
743.26	0.086
743.45	0.086
743.64	0.085
743.84	0.085
744.03	0.085
744.22	0.086
744.41	0.086
744.60	0.085
744.79	0.086
744.99	0.085
745.18	0.085
745.37	0.085
745.56	0.085
745.75	0.085
745.94	0.084
746.14	0.084
746.33	0.084
746.52	0.085
746.71	0.085
746.90	0.084
747.09	0.084
747.28	0.084
747.48	0.084
747.67	0.084
747.86	0.084
748.05	0.084
748.24	0.083
748.43	0.084
748.62	0.083
748.82	0.083
749.01	0.083
749.20	0.083
749.39	0.083
749.58	0.083
749.77	0.083
749.96	0.083
750.16	0.084
750.35	0.084
750.54	0.084
750.73	0.084
750.92	0.084
751.11	0.084
751.30	0.084
751.49	0.084
751.68	0.083
751.88	0.083
752.07	0.083
752.26	0.083
752.45	0.083
752.64	0.083
752.83	0.083
753.02	0.083
753.21	0.082
753.40	0.082
753.60	0.082
753.79	0.082
753.98	0.082
754.17	0.082
754.36	0.082
754.55	0.082
754.74	0.082
754.93	0.082
755.12	0.083
755.31	0.083
755.50	0.083
755.70	0.082
755.89	0.082
756.08	0.082
756.27	0.082
756.46	0.082
756.65	0.082
756.84	0.081
757.03	0.081
757.22	0.081
757.41	0.081
757.60	0.081
757.79	0.081
757.98	0.081
758.17	0.081
758.36	0.081
758.56	0.081
758.75	0.081
758.94	0.081
759.13	0.081
759.32	0.081
759.51	0.080
759.70	0.080
759.89	0.080
760.08	0.080
760.27	0.080
760.46	0.080
760.65	0.080
760.84	0.080
761.03	0.080
761.22	0.080
761.41	0.081
761.60	0.081
761.79	0.080
761.98	0.080
762.17	0.080
762.36	0.080
762.55	0.080
762.74	0.080
762.93	0.080
763.12	0.080
763.31	0.080
763.50	0.080
763.69	0.080
763.88	0.080
764.07	0.080
764.26	0.080
764.45	0.080
764.64	0.080
764.83	0.080
765.02	0.080
765.21	0.080
765.40	0.080
765.59	0.079
765.78	0.080
765.97	0.080
766.16	0.080
766.35	0.080
766.54	0.080
766.73	0.080
766.92	0.079
767.11	0.079
767.30	0.080
767.49	0.079
767.68	0.080
767.87	0.079
768.06	0.079
768.25	0.079
768.44	0.079
768.63	0.079
768.82	0.079
769.01	0.079
769.20	0.079
769.39	0.079
769.58	0.079
769.77	0.079
769.96	0.079
770.15	0.079
770.34	0.079
770.53	0.079
770.72	0.079
770.91	0.078
771.10	0.078
771.29	0.078
771.47	0.078
771.66	0.077
771.85	0.077
772.04	0.077
772.23	0.077
772.42	0.077
772.61	0.077
772.80	0.077
772.99	0.077
773.18	0.077
773.37	0.078
773.56	0.078
773.75	0.078
773.94	0.078
774.13	0.078
774.31	0.078
774.50	0.077
774.69	0.077
774.88	0.077
775.07	0.077
775.26	0.077
775.45	0.077
775.64	0.077
775.83	0.077
776.02	0.077
776.21	0.077
776.40	0.077
776.58	0.077
776.77	0.077
776.96	0.077
777.15	0.078
777.34	0.077
777.53	0.078
777.72	0.078
777.91	0.077
778.10	0.077
778.28	0.077
778.47	0.077
778.66	0.076
778.85	0.076
779.04	0.076
779.23	0.077
779.42	0.077
779.61	0.076
779.79	0.076
779.98	0.076
780.17	0.076
780.36	0.076
780.55	0.076
780.74	0.076
780.93	0.075
781.12	0.075
781.30	0.075
781.49	0.075
781.68	0.075
781.87	0.075
782.06	0.075
782.25	0.075
782.44	0.075
782.62	0.075
782.81	0.076
783.00	0.075
783.19	0.076
783.38	0.075
783.57	0.075
783.75	0.075
783.94	0.075
784.13	0.075
784.32	0.075
784.51	0.075
784.70	0.075
784.88	0.075
785.07	0.074
785.26	0.074
785.45	0.074
785.64	0.074
785.83	0.075
786.01	0.074
786.20	0.075
786.39	0.075
786.58	0.074
786.77	0.074
786.95	0.074
787.14	0.075
787.33	0.075
787.52	0.075
787.71	0.075
787.90	0.074
788.08	0.074
788.27	0.074
788.46	0.074
788.65	0.074
788.84	0.075
789.02	0.075
789.21	0.074
789.40	0.074
789.59	0.074
789.77	0.075
789.96	0.074
790.15	0.075
790.34	0.074
790.53	0.074
790.71	0.074
790.90	0.074
791.09	0.074
791.28	0.074
791.46	0.074
791.65	0.074
791.84	0.074
792.03	0.074
792.22	0.074
792.40	0.074
792.59	0.074
792.78	0.074
792.97	0.074
793.15	0.073
793.34	0.073
793.53	0.073
793.72	0.073
793.90	0.073
794.09	0.073
794.28	0.073
794.47	0.073
794.65	0.073
794.84	0.072
795.03	0.073
795.22	0.073
795.40	0.073
795.59	0.073
795.78	0.072
795.97	0.073
796.15	0.073
796.34	0.073
796.53	0.073
796.71	0.073
796.90	0.073
797.09	0.073
797.28	0.073
797.46	0.073
797.65	0.073
797.84	0.073
798.02	0.073
798.21	0.072
798.40	0.072
798.59	0.072
798.77	0.072
798.96	0.072
799.15	0.072
799.33	0.072
799.52	0.072
799.71	0.072
799.90	0.072
800.08	0.072
800.27	0.072
800.46	0.071
800.64	0.071
800.83	0.072
801.02	0.072
801.20	0.072
801.39	0.072
801.58	0.072
801.76	0.072
801.95	0.072
802.14	0.072
802.32	0.072
802.51	0.072
802.70	0.072
802.88	0.072
803.07	0.072
803.26	0.071
803.44	0.071
803.63	0.071
803.82	0.071
804.00	0.071
804.19	0.071
804.38	0.071
804.56	0.071
804.75	0.071
804.94	0.071
805.12	0.072
805.31	0.071
805.50	0.072
805.68	0.072
805.87	0.072
806.06	0.072
806.24	0.072
806.43	0.072
806.62	0.072
806.80	0.072
806.99	0.072
807.17	0.072
807.36	0.072
807.55	0.072
807.73	0.072
807.92	0.072
808.11	0.072
808.29	0.071
808.48	0.071
808.66	0.071
808.85	0.071
809.04	0.071
809.22	0.070
809.41	0.070
809.59	0.070
809.78	0.070
809.97	0.070
810.15	0.070
810.34	0.070
810.53	0.070
810.71	0.070
810.90	0.070
811.08	0.070
811.27	0.070
811.45	0.070
811.64	0.070
811.83	0.070
812.01	0.070
812.20	0.071
812.38	0.071
812.57	0.071
812.76	0.071
812.94	0.071
813.13	0.071
813.31	0.071
813.50	0.071
813.68	0.071
813.87	0.071
814.06	0.071
814.24	0.071
814.43	0.071
814.61	0.071
814.80	0.070
814.98	0.070
815.17	0.070
815.36	0.070
815.54	0.070
815.73	0.070
815.91	0.070
816.10	0.070
816.28	0.070
816.47	0.070
816.65	0.070
816.84	0.070
817.03	0.071
817.21	0.071
817.40	0.071
817.58	0.071
817.77	0.071
817.95	0.070
818.14	0.070
818.32	0.070
818.51	0.071
818.69	0.070
818.88	0.071
819.06	0.071
819.25	0.070
819.43	0.071
819.62	0.071
819.80	0.071
819.99	0.071
820.18	0.071
820.36	0.071
820.55	0.071
820.73	0.071
820.92	0.071
821.10	0.071
821.29	0.071
821.47	0.071
821.66	0.071
821.84	0.071
822.03	0.071
822.21	0.071
822.40	0.071
822.58	0.071
822.77	0.071
822.95	0.071
823.14	0.071
823.32	0.071
823.50	0.071
823.69	0.071
823.87	0.071
824.06	0.071
824.24	0.071
824.43	0.072
824.61	0.072
824.80	0.072
824.98	0.072
825.17	0.072
825.35	0.072
825.54	0.073
825.72	0.073
825.91	0.073
826.09	0.073
826.28	0.072
826.46	0.073
826.64	0.073
826.83	0.073
827.01	0.073
827.20	0.073
827.38	0.073
827.57	0.073
827.75	0.073
827.94	0.073
828.12	0.073
828.31	0.073
828.49	0.073
828.67	0.074
828.86	0.074
829.04	0.074
829.23	0.074
829.41	0.075
829.60	0.075
829.78	0.075
829.96	0.076
830.15	0.076
830.33	0.076
830.52	0.076
830.70	0.076
830.88	0.075
831.07	0.076
831.25	0.076
831.44	0.075
831.62	0.076
831.81	0.076
831.99	0.075
832.17	0.076
832.36	0.076
832.54	0.076
832.73	0.076
832.91	0.076
833.09	0.076
833.28	0.076
833.46	0.076
833.65	0.076
833.83	0.077
834.01	0.077
834.20	0.077
834.38	0.077
834.56	0.077
834.75	0.077
834.93	0.077
835.12	0.077
835.30	0.077
835.48	0.077
835.67	0.077
835.85	0.077
836.03	0.077
836.22	0.077
836.40	0.077
836.59	0.077
836.77	0.077
836.95	0.077
837.14	0.077
837.32	0.077
837.50	0.077
837.69	0.077
837.87	0.077
838.05	0.077
838.24	0.077
838.42	0.077
838.60	0.077
838.79	0.078
838.97	0.077
839.15	0.077
839.34	0.077
839.52	0.077
839.70	0.077
839.89	0.077
840.07	0.078
840.25	0.078
840.44	0.078
840.62	0.078
840.80	0.078
840.99	0.078
841.17	0.078
841.35	0.078
841.54	0.078
841.72	0.078
841.90	0.078
842.09	0.078
842.27	0.078
842.45	0.078
842.64	0.078
842.82	0.078
843.00	0.078
843.19	0.078
843.37	0.078
843.55	0.079
843.73	0.079
843.92	0.078
844.10	0.079
844.28	0.079
844.47	0.079
844.65	0.078
844.83	0.079
845.01	0.079
845.20	0.079
845.38	0.079
845.56	0.079
845.75	0.079
845.93	0.079
846.11	0.079
846.29	0.079
846.48	0.079
846.66	0.079
846.84	0.079
847.02	0.079
847.21	0.078
847.39	0.078
847.57	0.078
847.76	0.079
847.94	0.079
848.12	0.079
848.30	0.079
848.49	0.079
848.67	0.079
848.85	0.079
849.03	0.079
849.22	0.079
849.40	0.080
849.58	0.080
849.76	0.080
849.95	0.080
850.13	0.080
850.31	0.079
850.49	0.080
850.67	0.080
850.86	0.080
851.04	0.080
851.22	0.079
851.40	0.080
851.59	0.080
851.77	0.080
851.95	0.080
852.13	0.080
852.31	0.080
852.50	0.080
852.68	0.080
852.86	0.080
853.04	0.080
853.23	0.080
853.41	0.079
853.59	0.080
853.77	0.080
853.95	0.080
854.14	0.080
854.32	0.080
854.50	0.079
854.68	0.079
854.86	0.080
855.04	0.079
855.23	0.080
855.41	0.080
855.59	0.080
855.77	0.080
855.95	0.081
856.14	0.080
856.32	0.080
856.50	0.080
856.68	0.080
856.86	0.080
857.04	0.080
857.23	0.080
857.41	0.079
857.59	0.079
857.77	0.079
857.95	0.079
858.13	0.079
858.32	0.079
858.50	0.079
858.68	0.079
858.86	0.079
859.04	0.079
859.22	0.079
859.41	0.079
859.59	0.080
859.77	0.080
859.95	0.079
860.13	0.080
860.31	0.080
860.49	0.080
860.68	0.080
860.86	0.080
861.04	0.080
861.22	0.080
861.40	0.080
861.58	0.079
861.76	0.079
861.94	0.080
862.13	0.080
862.31	0.080
862.49	0.080
862.67	0.080
862.85	0.080
863.03	0.080
863.21	0.081
863.39	0.081
863.57	0.081
863.76	0.082
863.94	0.082
864.12	0.082
864.30	0.082
864.48	0.081
864.66	0.082
864.84	0.082
865.02	0.082
865.20	0.082
865.38	0.082
865.57	0.082
865.75	0.082
865.93	0.082
866.11	0.082
866.29	0.082
866.47	0.082
866.65	0.082
866.83	0.082
867.01	0.082
867.19	0.081
867.37	0.081
867.55	0.081
867.73	0.081
867.92	0.081
868.10	0.081
868.28	0.081
868.46	0.081
868.64	0.081
868.82	0.081
869.00	0.081
869.18	0.082
869.36	0.082
869.54	0.082
869.72	0.082
869.90	0.082
870.08	0.082
870.26	0.082
870.44	0.083
870.62	0.083
870.80	0.082
870.98	0.083
871.16	0.083
871.34	0.082
871.53	0.082
871.71	0.082
871.89	0.082
872.07	0.082
872.25	0.082
872.43	0.082
872.61	0.082
872.79	0.082
872.97	0.082
873.15	0.082
873.33	0.083
873.51	0.083
873.69	0.083
873.87	0.083
874.05	0.083
874.23	0.082
874.41	0.082
874.59	0.083
874.77	0.082
874.95	0.083
875.13	0.083
875.31	0.083
875.49	0.083
875.67	0.083
875.85	0.083
876.03	0.083
876.21	0.083
876.39	0.083
876.57	0.083
876.75	0.084
876.93	0.084
877.11	0.083
877.29	0.083
877.47	0.083
877.65	0.084
877.82	0.084
878.00	0.084
878.18	0.084
878.36	0.084
878.54	0.084
878.72	0.084
878.90	0.084
879.08	0.084
879.26	0.084
879.44	0.085
879.62	0.085
879.80	0.084
879.98	0.085
880.16	0.084
880.34	0.084
880.52	0.084
880.70	0.084
880.88	0.084
881.06	0.084
881.24	0.084
881.42	0.084
881.59	0.084
881.77	0.083
881.95	0.083
882.13	0.084
882.31	0.084
882.49	0.084
882.67	0.084
882.85	0.084
883.03	0.084
883.21	0.084
883.39	0.084
883.57	0.084
883.75	0.084
883.92	0.084
884.10	0.084
884.28	0.084
884.46	0.085
884.64	0.085
884.82	0.085
885.00	0.085
885.18	0.085
885.36	0.085
885.54	0.085
885.71	0.085
885.89	0.086
886.07	0.086
886.25	0.086
886.43	0.086
886.61	0.086
886.79	0.086
886.97	0.086
887.15	0.086
887.32	0.086
887.50	0.086
887.68	0.086
887.86	0.086
888.04	0.086
888.22	0.086
888.40	0.086
888.57	0.086
888.75	0.087
888.93	0.087
889.11	0.087
889.29	0.087
889.47	0.087
889.65	0.087
889.82	0.087
890.00	0.087
890.18	0.087
890.36	0.087
890.54	0.087
890.72	0.087
890.90	0.087
891.07	0.087
891.25	0.087
891.43	0.086
891.61	0.086
891.79	0.086
891.97	0.086
892.14	0.086
892.32	0.086
892.50	0.086
892.68	0.087
892.86	0.087
893.03	0.087
893.21	0.087
893.39	0.088
893.57	0.088
893.75	0.088
893.93	0.088
894.10	0.088
894.28	0.088
894.46	0.088
894.64	0.088
894.82	0.088
894.99	0.087
895.17	0.088
895.35	0.088
895.53	0.088
895.71	0.087
895.88	0.088
896.06	0.088
896.24	0.088
896.42	0.088
896.59	0.088
896.77	0.088
896.95	0.088
897.13	0.088
897.31	0.088
897.48	0.088
897.66	0.088
897.84	0.088
898.02	0.088
898.19	0.088
898.37	0.088
898.55	0.088
898.73	0.088
898.91	0.089
899.08	0.089
899.26	0.088
899.44	0.089
899.62	0.089
899.79	0.089
899.97	0.089
900.15	0.089
900.33	0.089
900.50	0.089
900.68	0.088
900.86	0.089
901.04	0.089
901.21	0.089
901.39	0.089
901.57	0.089
901.74	0.089
901.92	0.089
902.10	0.089
902.28	0.089
902.45	0.089
902.63	0.089
902.81	0.089
902.99	0.089
903.16	0.089
903.34	0.089
903.52	0.090
903.69	0.089
903.87	0.089
904.05	0.090
904.22	0.090
904.40	0.090
904.58	0.090
904.76	0.091
904.93	0.090
905.11	0.091
905.29	0.091
905.46	0.091
905.64	0.091
905.82	0.091
905.99	0.091
906.17	0.091
906.35	0.091
906.53	0.091
906.70	0.091
906.88	0.091
907.06	0.091
907.23	0.091
907.41	0.091
907.59	0.091
907.76	0.091
907.94	0.091
908.12	0.091
908.29	0.091
908.47	0.092
908.65	0.092
908.82	0.092
909.00	0.092
909.18	0.092
909.35	0.092
909.53	0.092
909.71	0.092
909.88	0.092
910.06	0.093
910.23	0.092
910.41	0.092
910.59	0.092
910.76	0.092
910.94	0.092
911.12	0.092
911.29	0.092
911.47	0.092
911.65	0.092
911.82	0.093
912.00	0.093
912.17	0.093
912.35	0.093
912.53	0.094
912.70	0.093
912.88	0.094
913.06	0.094
913.23	0.094
913.41	0.094
913.58	0.095
913.76	0.094
913.94	0.095
914.11	0.095
914.29	0.095
914.46	0.095
914.64	0.095
914.82	0.095
914.99	0.096
915.17	0.095
915.34	0.095
915.52	0.095
915.70	0.096
915.87	0.096
916.05	0.096
916.22	0.096
916.40	0.096
916.57	0.096
916.75	0.096
916.93	0.096
917.10	0.096
917.28	0.096
917.45	0.096
917.63	0.096
917.80	0.096
917.98	0.097
918.16	0.096
918.33	0.097
918.51	0.097
918.68	0.097
918.86	0.097
919.03	0.097
919.21	0.098
919.39	0.098
919.56	0.099
919.74	0.099
919.91	0.099
920.09	0.099
920.26	0.099
920.44	0.099
920.61	0.100
920.79	0.100
920.96	0.100
921.14	0.100
921.31	0.100
921.49	0.100
921.67	0.100
921.84	0.101
922.02	0.101
922.19	0.101
922.37	0.102
922.54	0.102
922.72	0.103
922.89	0.103
923.07	0.103
923.24	0.103
923.42	0.103
923.59	0.104
923.77	0.104
923.94	0.105
924.12	0.105
924.29	0.105
924.47	0.105
924.64	0.106
924.82	0.106
924.99	0.106
925.17	0.107
925.34	0.107
925.52	0.107
925.69	0.107
925.87	0.108
926.04	0.108
926.22	0.108
926.39	0.108
926.57	0.108
926.74	0.108
926.91	0.108
927.09	0.109
927.26	0.109
927.44	0.110
927.61	0.110
927.79	0.110
927.96	0.111
928.14	0.111
928.31	0.111
928.49	0.111
928.66	0.112
928.84	0.113
929.01	0.113
929.18	0.114
929.36	0.114
929.53	0.115
929.71	0.115
929.88	0.115
930.06	0.116
930.23	0.116
930.41	0.116
930.58	0.117
930.75	0.117
930.93	0.117
931.10	0.117
931.28	0.118
931.45	0.118
931.63	0.119
931.80	0.119
931.97	0.120
932.15	0.120
932.32	0.121
932.50	0.121
932.67	0.121
932.84	0.122
933.02	0.123
933.19	0.123
933.37	0.123
933.54	0.124
933.71	0.125
933.89	0.125
934.06	0.125
934.24	0.126
934.41	0.126
934.58	0.127
934.76	0.127
934.93	0.128
935.11	0.128
935.28	0.129
935.45	0.129
935.63	0.130
935.80	0.130
935.98	0.131
936.15	0.131
936.32	0.132
936.50	0.132
936.67	0.133
936.84	0.133
937.02	0.134
937.19	0.135
937.36	0.135
937.54	0.135
937.71	0.136
937.89	0.137
938.06	0.137
938.23	0.138
938.41	0.139
938.58	0.139
938.75	0.139
938.93	0.139
939.10	0.140
939.27	0.139
939.45	0.140
939.62	0.141
939.79	0.141
939.97	0.142
940.14	0.143
940.31	0.143
940.49	0.143
940.66	0.144
940.83	0.145
941.01	0.145
941.18	0.146
941.35	0.147
941.53	0.148
941.70	0.148
941.87	0.149
942.05	0.149
942.22	0.150
942.39	0.151
942.57	0.152
942.74	0.153
942.91	0.153
943.08	0.154
943.26	0.154
943.43	0.154
943.60	0.155
943.78	0.156
943.95	0.157
944.12	0.157
944.29	0.158
944.47	0.158
944.64	0.159
944.81	0.160
944.99	0.161
945.16	0.161
945.33	0.162
945.50	0.163
945.68	0.164
945.85	0.164
946.02	0.166
946.20	0.167
946.37	0.168
946.54	0.168
946.71	0.169
946.89	0.170
947.06	0.170
947.23	0.171
947.40	0.173
947.58	0.173
947.75	0.174
947.92	0.175
948.09	0.175
948.27	0.176
948.44	0.178
948.61	0.179
948.78	0.179
948.96	0.181
949.13	0.182
949.30	0.183
949.47	0.184
949.65	0.185
949.82	0.187
949.99	0.187
950.16	0.189
950.33	0.190
950.51	0.191
950.68	0.192
950.85	0.194
951.02	0.195
951.20	0.196
951.37	0.197
951.54	0.197
951.71	0.198
951.88	0.199
952.06	0.201
952.23	0.201
952.40	0.203
952.57	0.204
952.74	0.205
952.92	0.206
953.09	0.208
953.26	0.209
953.43	0.209
953.60	0.211
953.77	0.212
953.95	0.213
954.12	0.214
954.29	0.215
954.46	0.218
954.63	0.219
954.81	0.220
954.98	0.220
955.15	0.223
955.32	0.224
955.49	0.224
955.66	0.226
955.84	0.227
956.01	0.227
956.18	0.230
956.35	0.231
956.52	0.231
956.69	0.232
956.87	0.233
957.04	0.234
957.21	0.236
957.38	0.236
957.55	0.237
957.72	0.238
957.89	0.239
958.07	0.239
958.24	0.242
958.41	0.243
958.58	0.243
958.75	0.244
958.92	0.245
959.09	0.245
959.26	0.245
959.44	0.246
959.61	0.247
959.78	0.248
959.95	0.249
960.12	0.249
960.29	0.251
960.46	0.251
960.63	0.252
960.81	0.251
960.98	0.253
961.15	0.253
961.32	0.254
961.49	0.254
961.66	0.255
961.83	0.255
962.00	0.255
962.17	0.256
962.34	0.256
962.52	0.256
962.69	0.258
962.86	0.257
963.03	0.257
963.20	0.258
963.37	0.257
963.54	0.258
963.71	0.258
963.88	0.258
964.05	0.260
964.22	0.261
964.39	0.260
964.56	0.260
964.74	0.261
964.91	0.261
965.08	0.262
965.25	0.262
965.42	0.263
965.59	0.263
965.76	0.264
965.93	0.264
966.10	0.263
966.27	0.263
966.44	0.263
966.61	0.264
966.78	0.263
966.95	0.262
967.12	0.263
967.29	0.265
967.46	0.264
967.63	0.263
967.80	0.264
967.97	0.264
968.14	0.264
968.32	0.264
968.49	0.265
968.66	0.264
968.83	0.265
969.00	0.265
969.17	0.265
969.34	0.266
969.51	0.267
969.68	0.265
969.85	0.266
970.02	0.266
970.19	0.266
970.36	0.267
970.53	0.267
970.70	0.266
970.87	0.266
971.04	0.266
971.21	0.266
971.38	0.266
971.55	0.267
971.72	0.266
971.89	0.268
972.06	0.267
972.23	0.267
972.40	0.266
972.57	0.266
972.74	0.266
972.91	0.267
973.07	0.267
973.24	0.267
973.41	0.267
973.58	0.266
973.75	0.278
973.92	0.266
974.09	0.266
974.26	0.266
974.43	0.265
974.60	0.267
974.77	0.267
974.94	0.265
975.11	0.266
975.28	0.266
975.45	0.264
975.62	0.265
975.79	0.267
975.96	0.265
976.13	0.265
976.30	0.266
976.47	0.264
976.64	0.265
976.80	0.266
976.97	0.266
977.14	0.265
977.31	0.266
977.48	0.266
977.65	0.265
977.82	0.265
977.99	0.266
978.16	0.266
978.33	0.266
978.50	0.265
978.67	0.265
978.83	0.265
979.00	0.266
979.17	0.265
979.34	0.265
979.51	0.264
979.68	0.265
979.85	0.263
980.02	0.264
980.19	0.262
980.36	0.263
980.52	0.265
980.69	0.262
980.86	0.262
981.03	0.262
981.20	0.260
981.37	0.261
981.54	0.261
981.71	0.260
981.88	0.261
982.04	0.260
982.21	0.259
982.38	0.260
982.55	0.259
982.72	0.259
982.89	0.260
983.06	0.258
983.22	0.258
983.39	0.258
983.56	0.258
983.73	0.258
983.90	0.257
984.07	0.259
984.24	0.257
984.40	0.257
984.57	0.255
984.74	0.257
984.91	0.258
985.08	0.256
985.25	0.254
985.41	0.255
985.58	0.255
985.75	0.256
985.92	0.255
986.09	0.254
986.26	0.254
986.42	0.254
986.59	0.253
986.76	0.254
986.93	0.254
987.10	0.254
987.27	0.252
987.43	0.250
987.60	0.252
987.77	0.252
987.94	0.250
988.11	0.252
988.27	0.251
988.44	0.250
988.61	0.249
988.78	0.247
988.95	0.248
989.11	0.249
989.28	0.247
989.45	0.246
989.62	0.246
989.79	0.246
989.95	0.246
990.12	0.247
990.29	0.247
990.46	0.245
990.62	0.244
990.79	0.244
990.96	0.244
991.13	0.245
991.30	0.244
991.46	0.243
991.63	0.241
991.80	0.240
991.97	0.240
992.13	0.240
992.30	0.241
992.47	0.240
992.64	0.240
992.80	0.241
992.97	0.241
993.14	0.239
993.31	0.236
993.47	0.239
993.64	0.237
993.81	0.236
993.98	0.237
994.14	0.235
994.31	0.235
994.48	0.236
994.64	0.236
994.81	0.235
994.98	0.235
995.15	0.233
995.31	0.233
995.48	0.232
995.65	0.235
995.82	0.232
995.98	0.232
996.15	0.232
996.32	0.234
996.48	0.232
996.65	0.231
996.82	0.229
996.99	0.229
997.15	0.229
997.32	0.230
997.49	0.228
997.65	0.229
997.82	0.228
997.99	0.226
998.15	0.226
998.32	0.227
998.49	0.226
998.65	0.226
998.82	0.225
998.99	0.224
999.15	0.224
999.32	0.223
999.49	0.223
999.65	0.223
999.82	0.221
999.99	0.221
1000.15	0.222
1000.32	0.222
1000.49	0.222
1000.65	0.221
1000.82	0.220
1000.99	0.221
1001.15	0.221
1001.32	0.220
1001.49	0.220
1001.65	0.220
1001.82	0.222
1001.99	0.219
1002.15	0.217
1002.32	0.217
1002.49	0.218
1002.65	0.216
1002.82	0.214
1002.99	0.214
1003.15	0.216
1003.32	0.215
1003.48	0.215
1003.65	0.215
1003.82	0.214
1003.98	0.212
1004.15	0.212
1004.32	0.212
1004.48	0.212
1004.65	0.213
1004.81	0.210
1004.98	0.209
1005.15	0.210
1005.31	0.210
1005.48	0.207
1005.64	0.208
1005.81	0.210
1005.98	0.207
1006.14	0.207
1006.31	0.207
1006.47	0.207
1006.64	0.205
1006.81	0.205
1006.97	0.204
1007.14	0.203
1007.30	0.205
1007.47	0.205
1007.63	0.202
1007.80	0.201
1007.97	0.200
1008.13	0.200
1008.30	0.200
1008.46	0.200
1008.63	0.198
1008.79	0.199
1008.96	0.200
1009.13	0.201
1009.29	0.198
1009.46	0.198
1009.62	0.197
1009.79	0.196
1009.95	0.196
1010.12	0.197
1010.28	0.198
1010.45	0.197
1010.62	0.197
1010.78	0.195
1010.95	0.193
1011.11	0.195
1011.28	0.195
1011.44	0.198
1011.61	0.196
1011.77	0.194
1011.94	0.193
1012.10	0.192
1012.27	0.192
1012.43	0.193
1012.60	0.191
1012.76	0.191
1012.93	0.190
1013.10	0.188
1013.26	0.185
1013.43	0.186
1013.59	0.194
1013.76	0.186
1013.92	0.186
1014.09	0.184
1014.25	0.185
1014.42	0.186
1014.58	0.185
1014.75	0.188
1014.91	0.186
1015.08	0.188
1015.24	0.184
1015.41	0.186
1015.57	0.186
1015.73	0.185
1015.90	0.184
1016.06	0.186
1016.23	0.185
1016.39	0.184
1016.56	0.184
1016.72	0.183
1016.89	0.183
1017.05	0.185
1017.22	0.181
1017.38	0.181
1017.55	0.179
1017.71	0.180
1017.88	0.179
1018.04	0.180
1018.21	0.177
1018.37	0.178
1018.53	0.177
1018.70	0.176
1018.86	0.175
1019.03	0.177
1019.19	0.175
1019.36	0.175
1019.52	0.177
1019.69	0.177
1019.85	0.176
1020.01	0.176
1020.18	0.174
1020.34	0.175
1020.51	0.175
1020.67	0.176
1020.84	0.174
1021.00	0.175
1021.16	0.172
1021.33	0.173
1021.49	0.171
1021.66	0.172
1021.82	0.170
1021.98	0.171
1022.15	0.170
1022.31	0.170
1022.48	0.169
1022.64	0.171
1022.80	0.169
1022.97	0.168
1023.13	0.168
1023.30	0.169
1023.46	0.170
1023.62	0.167
1023.79	0.168
1023.95	0.168
1024.12	0.167
1024.28	0.165
1024.44	0.165
1024.61	0.164
1024.77	0.164
1024.93	0.163
1025.10	0.164
1025.26	0.162
1025.43	0.163
1025.59	0.159
1025.75	0.163
1025.92	0.162
1026.08	0.162
1026.24	0.162
1026.41	0.163
1026.57	0.161
1026.73	0.159
1026.90	0.161
1027.06	0.158
1027.23	0.160
1027.39	0.160
1027.55	0.160
1027.72	0.158
1027.88	0.158
1028.04	0.158
1028.21	0.157
1028.37	0.151
1028.53	0.156
1028.70	0.153
1028.86	0.151
1029.02	0.152
1029.19	0.153
1029.35	0.150
1029.51	0.150
1029.67	0.149
1029.84	0.151
1030.00	0.146
1030.16	0.147
1030.33	0.150
1030.49	0.148
1030.65	0.146
1030.82	0.162
1030.98	0.148
1031.14	0.148
1031.31	0.149
1031.47	0.147
1031.63	0.150
1031.79	0.149
1031.96	0.150
1032.12	0.151
1032.28	0.148
1032.45	0.152
1032.61	0.150
1032.77	0.149
1032.93	0.147
1033.10	0.146
1033.26	0.148
1033.42	0.146
1033.58	0.147
1033.75	0.147
1033.91	0.145
1034.07	0.147
1034.24	0.146
1034.40	0.145
1034.56	0.146
1034.72	0.146
1034.89	0.147
1035.05	0.145
1035.21	0.145
1035.37	0.143
1035.54	0.146
1035.70	0.143
1035.86	0.142
1036.02	0.143
1036.19	0.140
1036.35	0.138
1036.51	0.141
1036.67	0.139
1036.83	0.138
1037.00	0.137
1037.16	0.138
1037.32	0.139
1037.48	0.140
1037.65	0.146
1037.81	0.141
1037.97	0.141
1038.13	0.141
1038.29	0.140
1038.46	0.138
1038.62	0.143
1038.78	0.140
1038.94	0.136
1039.10	0.141
1039.27	0.136
1039.43	0.136
1039.59	0.136
1039.75	0.135
1039.91	0.133
1040.08	0.133
1040.24	0.136
1040.40	0.137
1040.56	0.135
1040.72	0.129
1040.89	0.131
1041.05	0.134
1041.21	0.133
1041.37	0.132
1041.53	0.138
1041.69	0.136
1041.86	0.135
1042.02	0.130
1042.18	0.130
1042.34	0.131
1042.50	0.136
1042.66	0.132
1042.83	0.130
1042.99	0.133
1043.15	0.128
1043.31	0.129
1043.47	0.133
1043.63	0.130
1043.79	0.132
1043.96	0.133
1044.12	0.137
1044.28	0.132
1044.44	0.134
1044.60	0.129
1044.76	0.128
1044.92	0.130
1045.09	0.131
1045.25	0.127
1045.41	0.128
1045.57	0.122
1045.73	0.122
1045.89	0.122
1046.05	0.126
1046.21	0.132
1046.38	0.128
1046.54	0.124
1046.70	0.130
1046.86	0.133
>>>>>End Processed Spectral Data<<<<<
