SpectraSuite Data File
++++++++++++++++++++++++++++++++++++
Date: Mon May 20 12:11:06 CDT 2013
User: Students
Dark Spectrum Present: Yes
Reference Spectrum Present: Yes
Number of Sampled Component Spectra: 1
Spectrometers: USB4H00887
Integration Time (usec): 60000 (USB4H00887)
Spectra Averaged: 5 (USB4H00887)
Boxcar Smoothing: 5 (USB4H00887)
Correct for Electrical Dark: No (USB4H00887)
Strobe/Lamp Enabled: No (USB4H00887)
Correct for Detector Non-linearity: No (USB4H00887)
Correct for Stray Light: No (USB4H00887)
Number of Pixels in Processed Spectrum: 3648
>>>>>Begin Processed Spectral Data<<<<<
345.83	0.062
346.05	0.062
346.26	0.062
346.48	-0.000
346.70	-0.000
346.92	0.120
347.14	0.079
347.35	0.084
347.57	0.542
347.79	-0.274
348.01	-0.237
348.23	-0.369
348.44	-0.000
348.66	0.304
348.88	-0.350
349.10	-0.097
349.32	0.031
349.53	0.012
349.75	0.038
349.97	0.012
350.19	0.067
350.41	0.095
350.62	-0.272
350.84	0.029
351.06	0.034
351.28	0.010
351.50	-0.067
351.71	-0.028
351.93	-0.062
352.15	-0.017
352.37	-0.062
352.58	-0.011
352.80	-0.007
353.02	0.010
353.24	0.026
353.46	0.104
353.67	-0.052
353.89	0.018
354.11	0.022
354.33	0.046
354.54	0.084
354.76	0.141
354.98	0.248
355.20	0.234
355.41	0.112
355.63	0.262
355.85	0.100
356.07	-0.000
356.28	0.127
356.50	0.194
356.72	0.064
356.94	0.157
357.15	0.216
357.37	-0.000
357.59	0.097
357.81	0.037
358.02	0.072
358.24	0.067
358.46	0.132
358.68	0.099
358.89	0.049
359.11	-0.000
359.33	0.034
359.55	-0.408
359.76	0.090
359.98	0.082
360.20	0.102
360.42	0.083
360.63	0.115
360.85	0.067
361.07	0.263
361.29	0.074
361.50	0.215
361.72	0.105
361.94	0.408
362.15	0.183
362.37	0.100
362.59	0.099
362.81	0.141
363.02	0.196
363.24	0.354
363.46	0.212
363.68	0.265
363.89	0.165
364.11	0.230
364.33	0.219
364.54	0.126
364.76	0.162
364.98	0.166
365.20	0.221
365.41	0.143
365.63	0.176
365.85	0.110
366.06	0.318
366.28	0.403
366.50	0.246
366.71	0.113
366.93	0.147
367.15	0.125
367.37	0.115
367.58	0.134
367.80	0.156
368.02	0.328
368.23	0.133
368.45	0.133
368.67	0.102
368.88	0.095
369.10	-0.000
369.32	0.121
369.53	0.073
369.75	0.113
369.97	0.228
370.19	0.154
370.40	0.083
370.62	0.220
370.84	0.079
371.05	0.406
371.27	0.122
371.49	0.141
371.70	0.138
371.92	0.222
372.14	0.090
372.35	0.103
372.57	0.107
372.79	0.208
373.00	0.070
373.22	0.132
373.44	0.129
373.65	0.109
373.87	0.170
374.09	0.884
374.30	0.139
374.52	0.178
374.74	0.130
374.95	0.577
375.17	0.158
375.39	-0.000
375.60	0.151
375.82	0.262
376.04	0.107
376.25	0.108
376.47	0.056
376.68	0.118
376.90	0.064
377.12	0.128
377.33	0.084
377.55	0.170
377.77	0.086
377.98	0.148
378.20	0.093
378.42	0.106
378.63	0.152
378.85	-0.000
379.07	0.149
379.28	0.577
379.50	0.352
379.71	0.178
379.93	0.135
380.15	0.175
380.36	0.260
380.58	0.197
380.80	0.612
381.01	0.154
381.23	0.106
381.44	0.109
381.66	0.130
381.88	0.152
382.09	-0.073
382.31	0.101
382.53	0.118
382.74	0.539
382.96	0.154
383.17	0.139
383.39	0.199
383.61	0.288
383.82	0.210
384.04	0.270
384.25	0.334
384.47	0.332
384.69	0.329
384.90	0.283
385.12	0.735
385.33	0.431
385.55	0.297
385.77	0.459
385.98	0.206
386.20	0.275
386.41	0.221
386.63	0.263
386.85	0.224
387.06	0.281
387.28	0.429
387.49	0.255
387.71	0.171
387.93	0.166
388.14	0.501
388.36	0.204
388.57	0.191
388.79	0.211
389.01	1.176
389.22	0.252
389.44	0.221
389.65	0.180
389.87	0.184
390.08	0.221
390.30	0.169
390.52	0.351
390.73	0.378
390.95	0.256
391.16	0.261
391.38	-0.000
391.59	0.310
391.81	0.250
392.03	0.247
392.24	0.277
392.46	0.226
392.67	0.207
392.89	0.278
393.10	0.404
393.32	0.269
393.53	0.305
393.75	0.192
393.97	0.201
394.18	0.279
394.40	0.241
394.61	0.253
394.83	0.229
395.04	0.253
395.26	0.174
395.47	0.267
395.69	0.233
395.91	0.252
396.12	0.302
396.34	0.305
396.55	0.197
396.77	0.294
396.98	1.092
397.20	0.353
397.41	0.411
397.63	0.290
397.84	0.269
398.06	0.254
398.27	0.250
398.49	0.288
398.71	0.220
398.92	0.263
399.14	0.349
399.35	0.465
399.57	0.438
399.78	0.289
400.00	0.272
400.21	0.334
400.43	0.268
400.64	0.289
400.86	0.622
401.07	0.338
401.29	0.300
401.50	0.321
401.72	0.447
401.93	0.284
402.15	0.346
402.36	0.319
402.58	0.265
402.79	0.290
403.01	0.471
403.22	0.375
403.44	0.262
403.65	0.418
403.87	0.440
404.08	0.341
404.30	0.567
404.51	0.304
404.73	0.381
404.94	0.324
405.16	0.342
405.37	0.265
405.59	0.487
405.80	0.297
406.02	0.356
406.23	0.356
406.45	0.405
406.66	0.437
406.88	0.291
407.09	0.438
407.31	0.362
407.52	0.426
407.74	0.346
407.95	0.406
408.17	0.386
408.38	0.409
408.60	0.271
408.81	0.457
409.03	0.339
409.24	0.352
409.45	0.403
409.67	0.379
409.88	0.341
410.10	0.445
410.31	0.365
410.53	0.347
410.74	0.484
410.96	0.486
411.17	0.494
411.39	0.375
411.60	0.341
411.82	0.390
412.03	0.375
412.24	0.373
412.46	0.529
412.67	0.433
412.89	0.436
413.10	0.427
413.32	0.390
413.53	0.453
413.75	0.469
413.96	0.371
414.17	0.488
414.39	0.487
414.60	0.402
414.82	0.511
415.03	0.400
415.25	0.437
415.46	0.309
415.68	0.433
415.89	0.792
416.10	0.652
416.32	0.360
416.53	0.430
416.75	0.414
416.96	0.485
417.18	0.424
417.39	0.407
417.60	0.410
417.82	0.599
418.03	0.525
418.25	0.436
418.46	0.444
418.67	0.393
418.89	0.414
419.10	0.434
419.32	0.576
419.53	0.534
419.75	0.460
419.96	0.398
420.17	0.486
420.39	0.446
420.60	0.449
420.82	0.550
421.03	0.452
421.24	0.388
421.46	0.425
421.67	0.463
421.89	0.397
422.10	0.431
422.31	0.435
422.53	0.612
422.74	0.473
422.96	0.386
423.17	0.431
423.38	0.541
423.60	0.451
423.81	0.561
424.03	0.480
424.24	0.543
424.45	0.548
424.67	0.549
424.88	0.480
425.09	0.513
425.31	0.479
425.52	0.507
425.74	0.554
425.95	0.599
426.16	0.466
426.38	0.544
426.59	0.503
426.80	0.560
427.02	0.578
427.23	0.458
427.45	0.592
427.66	0.568
427.87	0.447
428.09	0.467
428.30	0.525
428.51	0.522
428.73	0.568
428.94	0.504
429.15	0.488
429.37	0.475
429.58	0.502
429.79	0.468
430.01	0.563
430.22	0.559
430.44	0.582
430.65	0.516
430.86	0.551
431.08	0.536
431.29	0.489
431.50	0.587
431.72	0.764
431.93	0.628
432.14	0.480
432.36	0.526
432.57	0.536
432.78	0.550
433.00	0.509
433.21	0.499
433.42	0.617
433.64	0.545
433.85	0.606
434.06	0.497
434.28	0.516
434.49	0.523
434.70	0.536
434.92	0.548
435.13	0.582
435.34	0.590
435.56	0.559
435.77	0.551
435.98	0.682
436.20	0.582
436.41	0.505
436.62	0.497
436.83	0.564
437.05	0.626
437.26	0.557
437.47	0.514
437.69	0.568
437.90	0.520
438.11	0.518
438.33	0.570
438.54	0.592
438.75	0.750
438.97	0.741
439.18	0.561
439.39	0.587
439.60	0.625
439.82	0.579
440.03	0.535
440.24	0.766
440.46	0.586
440.67	0.556
440.88	0.591
441.10	0.553
441.31	0.562
441.52	0.611
441.73	0.678
441.95	0.611
442.16	0.564
442.37	0.856
442.58	0.557
442.80	0.543
443.01	0.705
443.22	0.648
443.44	0.554
443.65	0.639
443.86	0.638
444.07	0.679
444.29	0.594
444.50	0.747
444.71	0.579
444.92	0.545
445.14	0.687
445.35	0.726
445.56	0.578
445.78	0.676
445.99	0.670
446.20	0.580
446.41	0.650
446.63	0.651
446.84	0.617
447.05	0.619
447.26	0.731
447.48	0.630
447.69	0.596
447.90	0.670
448.11	0.604
448.33	0.626
448.54	0.643
448.75	0.664
448.96	0.668
449.18	0.707
449.39	0.633
449.60	0.616
449.81	0.730
450.03	0.647
450.24	0.701
450.45	0.664
450.66	0.651
450.87	0.681
451.09	0.639
451.30	0.627
451.51	0.692
451.72	0.702
451.94	0.716
452.15	0.773
452.36	0.649
452.57	0.663
452.78	0.666
453.00	0.693
453.21	0.652
453.42	0.631
453.63	0.712
453.85	0.679
454.06	0.677
454.27	0.797
454.48	0.715
454.69	0.648
454.91	0.707
455.12	0.620
455.33	0.690
455.54	0.704
455.75	0.677
455.97	0.693
456.18	0.683
456.39	0.687
456.60	0.703
456.81	0.653
457.03	0.666
457.24	0.668
457.45	0.738
457.66	0.697
457.87	0.662
458.09	0.680
458.30	0.612
458.51	0.718
458.72	0.738
458.93	0.750
459.15	0.663
459.36	0.720
459.57	0.739
459.78	0.782
459.99	0.706
460.20	0.671
460.42	0.744
460.63	0.705
460.84	0.688
461.05	0.702
461.26	0.746
461.47	0.683
461.69	0.725
461.90	0.755
462.11	0.715
462.32	0.758
462.53	0.711
462.74	0.787
462.96	0.695
463.17	0.688
463.38	0.725
463.59	0.814
463.80	0.691
464.01	0.708
464.23	0.779
464.44	0.748
464.65	0.759
464.86	0.778
465.07	0.782
465.28	0.750
465.49	0.770
465.71	0.731
465.92	0.765
466.13	0.798
466.34	0.745
466.55	0.785
466.76	0.756
466.97	0.778
467.19	0.769
467.40	0.801
467.61	0.799
467.82	0.731
468.03	0.722
468.24	0.782
468.45	0.818
468.66	0.802
468.88	0.812
469.09	0.812
469.30	0.846
469.51	0.784
469.72	0.815
469.93	0.793
470.14	0.774
470.35	0.842
470.57	0.799
470.78	0.749
470.99	0.855
471.20	0.805
471.41	0.769
471.62	0.810
471.83	0.789
472.04	0.818
472.25	0.854
472.47	0.790
472.68	0.797
472.89	0.804
473.10	0.841
473.31	0.798
473.52	0.848
473.73	0.868
473.94	0.805
474.15	0.825
474.36	0.824
474.57	0.847
474.79	0.825
475.00	0.826
475.21	0.814
475.42	0.888
475.63	0.807
475.84	0.833
476.05	0.839
476.26	0.815
476.47	0.843
476.68	0.884
476.89	0.823
477.10	0.865
477.32	0.857
477.53	0.899
477.74	0.831
477.95	0.865
478.16	0.824
478.37	0.857
478.58	0.858
478.79	0.868
479.00	0.869
479.21	0.835
479.42	0.865
479.63	0.866
479.84	0.836
480.05	0.834
480.26	0.856
480.47	0.873
480.69	0.876
480.90	0.851
481.11	0.849
481.32	0.896
481.53	0.849
481.74	0.893
481.95	0.864
482.16	0.879
482.37	0.889
482.58	0.863
482.79	0.875
483.00	0.898
483.21	0.851
483.42	0.828
483.63	0.886
483.84	0.909
484.05	0.900
484.26	0.879
484.47	0.878
484.68	0.848
484.89	0.851
485.10	0.892
485.31	0.877
485.52	0.882
485.73	0.883
485.94	0.918
486.15	0.875
486.37	0.887
486.58	0.861
486.79	0.868
487.00	0.907
487.21	0.900
487.42	0.896
487.63	0.899
487.84	0.914
488.05	0.910
488.26	0.879
488.47	0.884
488.68	0.907
488.89	0.887
489.10	0.884
489.31	0.892
489.52	0.920
489.73	0.895
489.94	0.922
490.15	0.890
490.36	0.923
490.57	0.883
490.78	0.869
490.99	0.900
491.20	0.962
491.41	0.929
491.62	0.884
491.83	0.907
492.04	0.903
492.25	0.909
492.45	0.908
492.66	0.929
492.87	0.920
493.08	0.910
493.29	0.897
493.50	0.890
493.71	0.897
493.92	0.896
494.13	0.907
494.34	0.925
494.55	0.930
494.76	0.955
494.97	0.948
495.18	0.923
495.39	0.938
495.60	0.897
495.81	0.895
496.02	0.910
496.23	0.906
496.44	0.933
496.65	0.924
496.86	0.928
497.07	0.950
497.28	0.945
497.49	0.902
497.70	0.904
497.91	0.921
498.12	0.908
498.32	0.943
498.53	0.928
498.74	0.919
498.95	0.943
499.16	0.906
499.37	0.909
499.58	0.918
499.79	0.945
500.00	0.939
500.21	0.961
500.42	0.916
500.63	0.916
500.84	0.934
501.05	0.915
501.26	0.935
501.46	0.970
501.67	0.939
501.88	0.940
502.09	0.920
502.30	0.926
502.51	0.965
502.72	0.930
502.93	0.943
503.14	0.960
503.35	0.938
503.56	0.931
503.77	0.953
503.97	0.936
504.18	0.935
504.39	0.962
504.60	0.937
504.81	0.960
505.02	0.953
505.23	0.955
505.44	0.938
505.65	0.944
505.86	0.931
506.07	0.982
506.27	0.948
506.48	0.953
506.69	0.940
506.90	0.958
507.11	0.955
507.32	0.935
507.53	0.942
507.74	0.938
507.95	0.949
508.15	0.954
508.36	0.960
508.57	0.972
508.78	0.959
508.99	0.959
509.20	0.938
509.41	0.959
509.62	0.950
509.82	0.945
510.03	0.954
510.24	0.954
510.45	0.970
510.66	0.965
510.87	0.958
511.08	0.926
511.29	0.960
511.49	0.942
511.70	0.978
511.91	0.926
512.12	0.926
512.33	0.952
512.54	0.965
512.75	0.953
512.95	0.971
513.16	0.966
513.37	0.945
513.58	0.975
513.79	0.945
514.00	0.949
514.20	0.963
514.41	0.954
514.62	0.926
514.83	0.959
515.04	0.951
515.25	0.934
515.46	0.943
515.66	0.945
515.87	0.954
516.08	0.929
516.29	0.948
516.50	0.932
516.71	0.927
516.91	0.937
517.12	0.948
517.33	0.935
517.54	0.925
517.75	0.928
517.95	0.938
518.16	0.946
518.37	0.920
518.58	0.925
518.79	0.905
519.00	0.929
519.20	0.935
519.41	0.915
519.62	0.931
519.83	0.938
520.04	0.908
520.24	0.905
520.45	0.914
520.66	0.933
520.87	0.903
521.08	0.900
521.28	0.903
521.49	0.917
521.70	0.892
521.91	0.904
522.12	0.890
522.32	0.909
522.53	0.895
522.74	0.886
522.95	0.890
523.16	0.893
523.36	0.902
523.57	0.885
523.78	0.881
523.99	0.885
524.20	0.879
524.40	0.889
524.61	0.892
524.82	0.870
525.03	0.872
525.23	0.875
525.44	0.864
525.65	0.861
525.86	0.881
526.06	0.857
526.27	0.857
526.48	0.865
526.69	0.848
526.90	0.851
527.10	0.880
527.31	0.845
527.52	0.838
527.73	0.829
527.93	0.836
528.14	0.839
528.35	0.831
528.56	0.831
528.76	0.823
528.97	0.816
529.18	0.809
529.39	0.809
529.59	0.811
529.80	0.836
530.01	0.814
530.22	0.814
530.42	0.789
530.63	0.802
530.84	0.784
531.05	0.796
531.25	0.799
531.46	0.793
531.67	0.775
531.88	0.789
532.08	0.783
532.29	0.781
532.50	0.775
532.70	0.769
532.91	0.761
533.12	0.765
533.33	0.786
533.53	0.761
533.74	0.760
533.95	0.766
534.15	0.755
534.36	0.756
534.57	0.741
534.78	0.743
534.98	0.751
535.19	0.726
535.40	0.725
535.60	0.740
535.81	0.723
536.02	0.725
536.23	0.717
536.43	0.718
536.64	0.706
536.85	0.713
537.05	0.719
537.26	0.700
537.47	0.702
537.67	0.693
537.88	0.690
538.09	0.695
538.30	0.687
538.50	0.679
538.71	0.689
538.92	0.680
539.12	0.676
539.33	0.673
539.54	0.673
539.74	0.677
539.95	0.668
540.16	0.666
540.36	0.658
540.57	0.658
540.78	0.652
540.98	0.651
541.19	0.648
541.40	0.637
541.60	0.646
541.81	0.641
542.02	0.641
542.22	0.633
542.43	0.628
542.64	0.624
542.84	0.623
543.05	0.615
543.26	0.615
543.46	0.618
543.67	0.616
543.88	0.611
544.08	0.603
544.29	0.598
544.50	0.598
544.70	0.599
544.91	0.591
545.12	0.592
545.32	0.588
545.53	0.590
545.74	0.580
545.94	0.577
546.15	0.576
546.35	0.572
546.56	0.569
546.77	0.567
546.97	0.565
547.18	0.559
547.39	0.560
547.59	0.558
547.80	0.554
548.01	0.557
548.21	0.553
548.42	0.546
548.62	0.546
548.83	0.544
549.04	0.540
549.24	0.533
549.45	0.531
549.65	0.529
549.86	0.525
550.07	0.525
550.27	0.524
550.48	0.531
550.69	0.519
550.89	0.519
551.10	0.516
551.30	0.515
551.51	0.514
551.72	0.505
551.92	0.506
552.13	0.505
552.33	0.506
552.54	0.501
552.75	0.495
552.95	0.496
553.16	0.490
553.36	0.488
553.57	0.486
553.78	0.485
553.98	0.485
554.19	0.477
554.39	0.474
554.60	0.477
554.80	0.476
555.01	0.469
555.22	0.470
555.42	0.468
555.63	0.462
555.83	0.466
556.04	0.461
556.25	0.462
556.45	0.454
556.66	0.453
556.86	0.455
557.07	0.453
557.27	0.453
557.48	0.449
557.68	0.447
557.89	0.448
558.10	0.444
558.30	0.441
558.51	0.439
558.71	0.437
558.92	0.432
559.12	0.434
559.33	0.437
559.54	0.431
559.74	0.427
559.95	0.424
560.15	0.424
560.36	0.423
560.56	0.418
560.77	0.419
560.97	0.419
561.18	0.414
561.38	0.414
561.59	0.416
561.79	0.412
562.00	0.411
562.21	0.408
562.41	0.407
562.62	0.406
562.82	0.404
563.03	0.400
563.23	0.400
563.44	0.400
563.64	0.397
563.85	0.398
564.05	0.392
564.26	0.391
564.46	0.390
564.67	0.391
564.87	0.387
565.08	0.384
565.28	0.384
565.49	0.385
565.69	0.382
565.90	0.380
566.10	0.382
566.31	0.376
566.51	0.378
566.72	0.379
566.92	0.373
567.13	0.373
567.33	0.372
567.54	0.370
567.74	0.369
567.95	0.366
568.15	0.367
568.36	0.366
568.56	0.364
568.77	0.359
568.97	0.358
569.18	0.357
569.38	0.356
569.59	0.357
569.79	0.354
570.00	0.353
570.20	0.351
570.41	0.349
570.61	0.348
570.82	0.349
571.02	0.346
571.23	0.348
571.43	0.344
571.64	0.343
571.84	0.342
572.05	0.340
572.25	0.340
572.45	0.338
572.66	0.335
572.86	0.334
573.07	0.333
573.27	0.333
573.48	0.332
573.68	0.328
573.89	0.328
574.09	0.329
574.30	0.327
574.50	0.325
574.70	0.326
574.91	0.324
575.11	0.324
575.32	0.324
575.52	0.320
575.73	0.320
575.93	0.320
576.14	0.318
576.34	0.316
576.54	0.316
576.75	0.314
576.95	0.314
577.16	0.312
577.36	0.311
577.57	0.311
577.77	0.309
577.97	0.307
578.18	0.309
578.38	0.305
578.59	0.304
578.79	0.303
579.00	0.303
579.20	0.301
579.40	0.301
579.61	0.300
579.81	0.299
580.02	0.297
580.22	0.296
580.42	0.295
580.63	0.296
580.83	0.295
581.04	0.293
581.24	0.292
581.45	0.291
581.65	0.291
581.85	0.290
582.06	0.289
582.26	0.288
582.47	0.287
582.67	0.286
582.87	0.285
583.08	0.283
583.28	0.283
583.48	0.282
583.69	0.279
583.89	0.280
584.10	0.280
584.30	0.278
584.50	0.276
584.71	0.276
584.91	0.276
585.12	0.274
585.32	0.274
585.52	0.271
585.73	0.270
585.93	0.270
586.13	0.269
586.34	0.269
586.54	0.268
586.75	0.267
586.95	0.266
587.15	0.266
587.36	0.265
587.56	0.264
587.76	0.263
587.97	0.263
588.17	0.261
588.37	0.261
588.58	0.261
588.78	0.258
588.98	0.259
589.19	0.257
589.39	0.255
589.60	0.257
589.80	0.255
590.00	0.255
590.21	0.254
590.41	0.253
590.61	0.253
590.82	0.252
591.02	0.252
591.22	0.249
591.43	0.251
591.63	0.249
591.83	0.249
592.04	0.247
592.24	0.248
592.44	0.246
592.65	0.244
592.85	0.245
593.05	0.245
593.26	0.244
593.46	0.244
593.66	0.243
593.86	0.243
594.07	0.241
594.27	0.241
594.47	0.240
594.68	0.239
594.88	0.239
595.08	0.239
595.29	0.238
595.49	0.236
595.69	0.236
595.90	0.235
596.10	0.235
596.30	0.234
596.50	0.233
596.71	0.233
596.91	0.232
597.11	0.232
597.32	0.232
597.52	0.231
597.72	0.230
597.93	0.230
598.13	0.228
598.33	0.228
598.53	0.227
598.74	0.226
598.94	0.226
599.14	0.226
599.35	0.226
599.55	0.225
599.75	0.224
599.95	0.224
600.16	0.224
600.36	0.223
600.56	0.223
600.76	0.222
600.97	0.220
601.17	0.219
601.37	0.220
601.58	0.218
601.78	0.219
601.98	0.217
602.18	0.216
602.39	0.216
602.59	0.217
602.79	0.215
602.99	0.216
603.20	0.214
603.40	0.215
603.60	0.215
603.80	0.214
604.01	0.214
604.21	0.213
604.41	0.213
604.61	0.212
604.82	0.211
605.02	0.212
605.22	0.211
605.42	0.211
605.62	0.211
605.83	0.210
606.03	0.209
606.23	0.209
606.43	0.208
606.64	0.208
606.84	0.208
607.04	0.207
607.24	0.207
607.45	0.207
607.65	0.205
607.85	0.206
608.05	0.204
608.25	0.204
608.46	0.204
608.66	0.204
608.86	0.203
609.06	0.202
609.26	0.201
609.47	0.202
609.67	0.201
609.87	0.202
610.07	0.202
610.28	0.200
610.48	0.200
610.68	0.201
610.88	0.199
611.08	0.200
611.29	0.199
611.49	0.198
611.69	0.199
611.89	0.197
612.09	0.197
612.29	0.196
612.50	0.196
612.70	0.196
612.90	0.195
613.10	0.195
613.30	0.194
613.51	0.194
613.71	0.193
613.91	0.197
614.11	0.192
614.31	0.192
614.51	0.191
614.72	0.190
614.92	0.190
615.12	0.189
615.32	0.190
615.52	0.190
615.72	0.190
615.93	0.190
616.13	0.190
616.33	0.190
616.53	0.189
616.73	0.190
616.93	0.188
617.14	0.189
617.34	0.189
617.54	0.189
617.74	0.189
617.94	0.187
618.14	0.187
618.34	0.186
618.55	0.186
618.75	0.186
618.95	0.185
619.15	0.185
619.35	0.184
619.55	0.183
619.75	0.184
619.96	0.183
620.16	0.183
620.36	0.183
620.56	0.183
620.76	0.182
620.96	0.182
621.16	0.182
621.36	0.181
621.57	0.181
621.77	0.181
621.97	0.180
622.17	0.180
622.37	0.180
622.57	0.180
622.77	0.180
622.97	0.179
623.18	0.179
623.38	0.179
623.58	0.179
623.78	0.178
623.98	0.178
624.18	0.177
624.38	0.177
624.58	0.177
624.78	0.178
624.98	0.178
625.19	0.177
625.39	0.177
625.59	0.176
625.79	0.176
625.99	0.176
626.19	0.176
626.39	0.176
626.59	0.175
626.79	0.175
626.99	0.175
627.19	0.174
627.40	0.174
627.60	0.174
627.80	0.174
628.00	0.174
628.20	0.173
628.40	0.173
628.60	0.173
628.80	0.172
629.00	0.172
629.20	0.172
629.40	0.173
629.60	0.171
629.80	0.172
630.00	0.172
630.20	0.172
630.41	0.171
630.61	0.171
630.81	0.170
631.01	0.170
631.21	0.169
631.41	0.169
631.61	0.169
631.81	0.169
632.01	0.169
632.21	0.169
632.41	0.167
632.61	0.168
632.81	0.168
633.01	0.168
633.21	0.168
633.41	0.168
633.61	0.167
633.81	0.166
634.01	0.166
634.21	0.166
634.41	0.165
634.61	0.165
634.81	0.165
635.01	0.164
635.22	0.164
635.42	0.164
635.62	0.164
635.82	0.164
636.02	0.164
636.22	0.164
636.42	0.163
636.62	0.163
636.82	0.162
637.02	0.162
637.22	0.162
637.42	0.161
637.62	0.160
637.82	0.161
638.02	0.160
638.22	0.160
638.42	0.160
638.62	0.159
638.82	0.160
639.02	0.160
639.22	0.160
639.42	0.159
639.62	0.159
639.82	0.159
640.02	0.159
640.22	0.159
640.42	0.158
640.62	0.158
640.82	0.158
641.02	0.157
641.22	0.157
641.42	0.156
641.61	0.157
641.81	0.157
642.01	0.157
642.21	0.157
642.41	0.156
642.61	0.156
642.81	0.155
643.01	0.155
643.21	0.156
643.41	0.156
643.61	0.156
643.81	0.155
644.01	0.154
644.21	0.154
644.41	0.154
644.61	0.154
644.81	0.154
645.01	0.154
645.21	0.153
645.41	0.153
645.61	0.153
645.81	0.152
646.01	0.152
646.21	0.153
646.40	0.152
646.60	0.152
646.80	0.152
647.00	0.151
647.20	0.150
647.40	0.150
647.60	0.150
647.80	0.150
648.00	0.150
648.20	0.150
648.40	0.149
648.60	0.149
648.80	0.148
649.00	0.148
649.20	0.148
649.39	0.147
649.59	0.147
649.79	0.147
649.99	0.147
650.19	0.146
650.39	0.146
650.59	0.146
650.79	0.146
650.99	0.146
651.19	0.145
651.39	0.145
651.58	0.145
651.78	0.144
651.98	0.144
652.18	0.144
652.38	0.144
652.58	0.144
652.78	0.144
652.98	0.143
653.18	0.144
653.38	0.144
653.57	0.143
653.77	0.143
653.97	0.143
654.17	0.143
654.37	0.142
654.57	0.142
654.77	0.141
654.97	0.141
655.16	0.141
655.36	0.141
655.56	0.141
655.76	0.140
655.96	0.141
656.16	0.140
656.36	0.140
656.56	0.139
656.75	0.139
656.95	0.139
657.15	0.139
657.35	0.138
657.55	0.137
657.75	0.138
657.95	0.137
658.14	0.137
658.34	0.137
658.54	0.137
658.74	0.137
658.94	0.136
659.14	0.136
659.34	0.136
659.53	0.135
659.73	0.135
659.93	0.134
660.13	0.135
660.33	0.134
660.53	0.134
660.72	0.135
660.92	0.135
661.12	0.134
661.32	0.134
661.52	0.134
661.72	0.134
661.91	0.133
662.11	0.134
662.31	0.133
662.51	0.133
662.71	0.132
662.90	0.131
663.10	0.131
663.30	0.131
663.50	0.131
663.70	0.131
663.90	0.130
664.09	0.130
664.29	0.129
664.49	0.129
664.69	0.129
664.89	0.129
665.08	0.129
665.28	0.129
665.48	0.129
665.68	0.128
665.88	0.128
666.07	0.127
666.27	0.127
666.47	0.127
666.67	0.127
666.87	0.127
667.06	0.126
667.26	0.126
667.46	0.126
667.66	0.126
667.85	0.126
668.05	0.127
668.25	0.127
668.45	0.126
668.65	0.126
668.84	0.126
669.04	0.126
669.24	0.126
669.44	0.125
669.63	0.125
669.83	0.125
670.03	0.124
670.23	0.123
670.42	0.123
670.62	0.122
670.82	0.122
671.02	0.122
671.22	0.121
671.41	0.121
671.61	0.121
671.81	0.121
672.01	0.121
672.20	0.121
672.40	0.120
672.60	0.120
672.80	0.120
672.99	0.120
673.19	0.120
673.39	0.120
673.58	0.120
673.78	0.120
673.98	0.119
674.18	0.119
674.37	0.119
674.57	0.119
674.77	0.119
674.97	0.119
675.16	0.119
675.36	0.119
675.56	0.118
675.75	0.118
675.95	0.117
676.15	0.118
676.35	0.118
676.54	0.118
676.74	0.118
676.94	0.118
677.13	0.117
677.33	0.117
677.53	0.117
677.73	0.116
677.92	0.116
678.12	0.116
678.32	0.115
678.51	0.115
678.71	0.115
678.91	0.114
679.11	0.114
679.30	0.114
679.50	0.113
679.70	0.113
679.89	0.113
680.09	0.113
680.29	0.112
680.48	0.112
680.68	0.112
680.88	0.112
681.07	0.113
681.27	0.112
681.47	0.111
681.66	0.111
681.86	0.111
682.06	0.111
682.25	0.111
682.45	0.111
682.65	0.110
682.84	0.110
683.04	0.110
683.24	0.109
683.43	0.110
683.63	0.110
683.83	0.110
684.02	0.110
684.22	0.110
684.42	0.110
684.61	0.110
684.81	0.110
685.01	0.109
685.20	0.109
685.40	0.109
685.60	0.109
685.79	0.108
685.99	0.108
686.19	0.108
686.38	0.108
686.58	0.108
686.77	0.107
686.97	0.107
687.17	0.107
687.36	0.107
687.56	0.106
687.76	0.106
687.95	0.106
688.15	0.105
688.34	0.105
688.54	0.105
688.74	0.104
688.93	0.104
689.13	0.104
689.33	0.104
689.52	0.104
689.72	0.104
689.91	0.104
690.11	0.104
690.31	0.103
690.50	0.104
690.70	0.104
690.89	0.104
691.09	0.103
691.29	0.103
691.48	0.103
691.68	0.103
691.87	0.103
692.07	0.103
692.27	0.103
692.46	0.103
692.66	0.102
692.85	0.102
693.05	0.102
693.25	0.102
693.44	0.101
693.64	0.101
693.83	0.101
694.03	0.100
694.22	0.100
694.42	0.100
694.62	0.100
694.81	0.100
695.01	0.100
695.20	0.100
695.40	0.099
695.59	0.099
695.79	0.099
695.99	0.099
696.18	0.099
696.38	0.099
696.57	0.098
696.77	0.098
696.96	0.099
697.16	0.099
697.36	0.098
697.55	0.099
697.75	0.098
697.94	0.098
698.14	0.098
698.33	0.098
698.53	0.098
698.72	0.098
698.92	0.098
699.11	0.097
699.31	0.097
699.51	0.097
699.70	0.096
699.90	0.096
700.09	0.097
700.29	0.096
700.48	0.096
700.68	0.096
700.87	0.096
701.07	0.095
701.26	0.095
701.46	0.095
701.65	0.095
701.85	0.094
702.04	0.094
702.24	0.094
702.43	0.095
702.63	0.094
702.82	0.094
703.02	0.094
703.21	0.094
703.41	0.094
703.60	0.094
703.80	0.094
703.99	0.093
704.19	0.093
704.38	0.093
704.58	0.092
704.77	0.092
704.97	0.092
705.16	0.092
705.36	0.092
705.55	0.092
705.75	0.092
705.94	0.092
706.14	0.092
706.33	0.091
706.53	0.091
706.72	0.091
706.92	0.091
707.11	0.091
707.31	0.091
707.50	0.091
707.70	0.091
707.89	0.091
708.09	0.091
708.28	0.091
708.48	0.091
708.67	0.090
708.86	0.090
709.06	0.090
709.25	0.090
709.45	0.090
709.64	0.090
709.84	0.090
710.03	0.090
710.23	0.089
710.42	0.089
710.62	0.089
710.81	0.089
711.00	0.089
711.20	0.089
711.39	0.088
711.59	0.088
711.78	0.088
711.98	0.088
712.17	0.088
712.37	0.088
712.56	0.088
712.75	0.088
712.95	0.088
713.14	0.088
713.34	0.089
713.53	0.089
713.73	0.089
713.92	0.089
714.11	0.088
714.31	0.088
714.50	0.088
714.70	0.089
714.89	0.089
715.08	0.089
715.28	0.089
715.47	0.088
715.67	0.089
715.86	0.089
716.06	0.088
716.25	0.088
716.44	0.088
716.64	0.088
716.83	0.087
717.03	0.087
717.22	0.087
717.41	0.087
717.61	0.086
717.80	0.086
717.99	0.086
718.19	0.087
718.38	0.087
718.58	0.086
718.77	0.086
718.96	0.086
719.16	0.086
719.35	0.086
719.55	0.086
719.74	0.086
719.93	0.086
720.13	0.086
720.32	0.085
720.51	0.085
720.71	0.085
720.90	0.086
721.10	0.085
721.29	0.085
721.48	0.085
721.68	0.085
721.87	0.085
722.06	0.084
722.26	0.085
722.45	0.085
722.64	0.085
722.84	0.085
723.03	0.084
723.22	0.085
723.42	0.085
723.61	0.085
723.80	0.085
724.00	0.085
724.19	0.085
724.38	0.085
724.58	0.084
724.77	0.084
724.96	0.084
725.16	0.085
725.35	0.084
725.54	0.084
725.74	0.085
725.93	0.085
726.12	0.084
726.32	0.084
726.51	0.084
726.70	0.084
726.90	0.085
727.09	0.084
727.28	0.084
727.48	0.085
727.67	0.085
727.86	0.084
728.06	0.085
728.25	0.085
728.44	0.085
728.64	0.085
728.83	0.085
729.02	0.084
729.21	0.084
729.41	0.084
729.60	0.084
729.79	0.084
729.99	0.084
730.18	0.084
730.37	0.084
730.56	0.084
730.76	0.084
730.95	0.084
731.14	0.084
731.34	0.084
731.53	0.084
731.72	0.084
731.91	0.084
732.11	0.084
732.30	0.084
732.49	0.084
732.69	0.084
732.88	0.084
733.07	0.084
733.26	0.085
733.46	0.084
733.65	0.084
733.84	0.085
734.03	0.085
734.23	0.085
734.42	0.085
734.61	0.085
734.80	0.084
735.00	0.084
735.19	0.084
735.38	0.084
735.57	0.084
735.77	0.084
735.96	0.084
736.15	0.084
736.34	0.084
736.54	0.084
736.73	0.084
736.92	0.084
737.11	0.084
737.31	0.084
737.50	0.084
737.69	0.084
737.88	0.084
738.07	0.084
738.27	0.084
738.46	0.084
738.65	0.084
738.84	0.084
739.04	0.084
739.23	0.084
739.42	0.084
739.61	0.084
739.80	0.084
740.00	0.084
740.19	0.084
740.38	0.084
740.57	0.083
740.76	0.083
740.96	0.083
741.15	0.083
741.34	0.083
741.53	0.083
741.72	0.083
741.92	0.082
742.11	0.082
742.30	0.082
742.49	0.082
742.68	0.083
742.88	0.083
743.07	0.083
743.26	0.083
743.45	0.084
743.64	0.083
743.84	0.083
744.03	0.083
744.22	0.083
744.41	0.082
744.60	0.082
744.79	0.082
744.99	0.082
745.18	0.082
745.37	0.081
745.56	0.081
745.75	0.081
745.94	0.081
746.14	0.081
746.33	0.081
746.52	0.081
746.71	0.080
746.90	0.080
747.09	0.080
747.28	0.080
747.48	0.080
747.67	0.080
747.86	0.080
748.05	0.081
748.24	0.080
748.43	0.080
748.62	0.080
748.82	0.080
749.01	0.080
749.20	0.080
749.39	0.080
749.58	0.080
749.77	0.080
749.96	0.079
750.16	0.079
750.35	0.080
750.54	0.080
750.73	0.080
750.92	0.080
751.11	0.080
751.30	0.081
751.49	0.080
751.68	0.080
751.88	0.080
752.07	0.080
752.26	0.080
752.45	0.079
752.64	0.079
752.83	0.079
753.02	0.079
753.21	0.079
753.40	0.079
753.60	0.079
753.79	0.079
753.98	0.079
754.17	0.079
754.36	0.079
754.55	0.079
754.74	0.079
754.93	0.078
755.12	0.078
755.31	0.079
755.50	0.079
755.70	0.078
755.89	0.078
756.08	0.078
756.27	0.078
756.46	0.078
756.65	0.078
756.84	0.077
757.03	0.078
757.22	0.077
757.41	0.077
757.60	0.077
757.79	0.078
757.98	0.078
758.17	0.078
758.36	0.078
758.56	0.077
758.75	0.077
758.94	0.077
759.13	0.077
759.32	0.077
759.51	0.077
759.70	0.077
759.89	0.077
760.08	0.077
760.27	0.076
760.46	0.077
760.65	0.077
760.84	0.077
761.03	0.077
761.22	0.077
761.41	0.077
761.60	0.077
761.79	0.076
761.98	0.076
762.17	0.076
762.36	0.076
762.55	0.076
762.74	0.076
762.93	0.076
763.12	0.076
763.31	0.075
763.50	0.076
763.69	0.076
763.88	0.076
764.07	0.075
764.26	0.076
764.45	0.076
764.64	0.076
764.83	0.075
765.02	0.076
765.21	0.075
765.40	0.076
765.59	0.076
765.78	0.075
765.97	0.076
766.16	0.076
766.35	0.075
766.54	0.076
766.73	0.075
766.92	0.075
767.11	0.075
767.30	0.075
767.49	0.075
767.68	0.075
767.87	0.075
768.06	0.074
768.25	0.074
768.44	0.075
768.63	0.074
768.82	0.074
769.01	0.074
769.20	0.074
769.39	0.074
769.58	0.075
769.77	0.075
769.96	0.075
770.15	0.075
770.34	0.075
770.53	0.075
770.72	0.074
770.91	0.074
771.10	0.074
771.29	0.074
771.47	0.073
771.66	0.073
771.85	0.073
772.04	0.073
772.23	0.073
772.42	0.072
772.61	0.072
772.80	0.072
772.99	0.072
773.18	0.072
773.37	0.072
773.56	0.073
773.75	0.073
773.94	0.073
774.13	0.073
774.31	0.073
774.50	0.073
774.69	0.073
774.88	0.073
775.07	0.073
775.26	0.073
775.45	0.073
775.64	0.072
775.83	0.072
776.02	0.072
776.21	0.072
776.40	0.072
776.58	0.071
776.77	0.071
776.96	0.072
777.15	0.072
777.34	0.072
777.53	0.072
777.72	0.072
777.91	0.072
778.10	0.072
778.28	0.072
778.47	0.073
778.66	0.072
778.85	0.072
779.04	0.072
779.23	0.072
779.42	0.072
779.61	0.071
779.79	0.071
779.98	0.071
780.17	0.071
780.36	0.071
780.55	0.070
780.74	0.070
780.93	0.070
781.12	0.070
781.30	0.070
781.49	0.070
781.68	0.070
781.87	0.070
782.06	0.071
782.25	0.070
782.44	0.070
782.62	0.071
782.81	0.071
783.00	0.071
783.19	0.071
783.38	0.071
783.57	0.071
783.75	0.071
783.94	0.071
784.13	0.071
784.32	0.071
784.51	0.070
784.70	0.070
784.88	0.070
785.07	0.070
785.26	0.070
785.45	0.070
785.64	0.070
785.83	0.070
786.01	0.069
786.20	0.070
786.39	0.070
786.58	0.070
786.77	0.069
786.95	0.069
787.14	0.069
787.33	0.069
787.52	0.069
787.71	0.069
787.90	0.068
788.08	0.068
788.27	0.068
788.46	0.068
788.65	0.068
788.84	0.069
789.02	0.069
789.21	0.069
789.40	0.069
789.59	0.069
789.77	0.069
789.96	0.069
790.15	0.069
790.34	0.069
790.53	0.069
790.71	0.069
790.90	0.069
791.09	0.068
791.28	0.069
791.46	0.069
791.65	0.069
791.84	0.068
792.03	0.068
792.22	0.068
792.40	0.068
792.59	0.068
792.78	0.068
792.97	0.068
793.15	0.068
793.34	0.068
793.53	0.068
793.72	0.068
793.90	0.068
794.09	0.068
794.28	0.068
794.47	0.069
794.65	0.068
794.84	0.068
795.03	0.068
795.22	0.068
795.40	0.068
795.59	0.068
795.78	0.068
795.97	0.068
796.15	0.068
796.34	0.068
796.53	0.068
796.71	0.069
796.90	0.069
797.09	0.069
797.28	0.069
797.46	0.068
797.65	0.068
797.84	0.068
798.02	0.068
798.21	0.068
798.40	0.067
798.59	0.067
798.77	0.067
798.96	0.067
799.15	0.067
799.33	0.067
799.52	0.066
799.71	0.066
799.90	0.067
800.08	0.067
800.27	0.067
800.46	0.066
800.64	0.066
800.83	0.066
801.02	0.066
801.20	0.066
801.39	0.066
801.58	0.066
801.76	0.066
801.95	0.066
802.14	0.066
802.32	0.066
802.51	0.066
802.70	0.066
802.88	0.065
803.07	0.066
803.26	0.065
803.44	0.065
803.63	0.065
803.82	0.065
804.00	0.065
804.19	0.065
804.38	0.065
804.56	0.066
804.75	0.066
804.94	0.066
805.12	0.066
805.31	0.066
805.50	0.066
805.68	0.066
805.87	0.067
806.06	0.067
806.24	0.067
806.43	0.067
806.62	0.067
806.80	0.067
806.99	0.067
807.17	0.067
807.36	0.067
807.55	0.067
807.73	0.066
807.92	0.066
808.11	0.066
808.29	0.066
808.48	0.066
808.66	0.066
808.85	0.065
809.04	0.065
809.22	0.065
809.41	0.066
809.59	0.065
809.78	0.065
809.97	0.065
810.15	0.065
810.34	0.065
810.53	0.065
810.71	0.065
810.90	0.065
811.08	0.065
811.27	0.065
811.45	0.065
811.64	0.065
811.83	0.065
812.01	0.065
812.20	0.065
812.38	0.065
812.57	0.065
812.76	0.066
812.94	0.066
813.13	0.065
813.31	0.065
813.50	0.065
813.68	0.065
813.87	0.065
814.06	0.065
814.24	0.065
814.43	0.065
814.61	0.065
814.80	0.065
814.98	0.065
815.17	0.065
815.36	0.065
815.54	0.065
815.73	0.065
815.91	0.065
816.10	0.065
816.28	0.065
816.47	0.064
816.65	0.065
816.84	0.065
817.03	0.065
817.21	0.066
817.40	0.066
817.58	0.065
817.77	0.066
817.95	0.066
818.14	0.066
818.32	0.066
818.51	0.066
818.69	0.066
818.88	0.066
819.06	0.066
819.25	0.066
819.43	0.066
819.62	0.066
819.80	0.066
819.99	0.066
820.18	0.066
820.36	0.066
820.55	0.066
820.73	0.066
820.92	0.066
821.10	0.066
821.29	0.066
821.47	0.066
821.66	0.066
821.84	0.066
822.03	0.066
822.21	0.066
822.40	0.066
822.58	0.066
822.77	0.066
822.95	0.066
823.14	0.066
823.32	0.066
823.50	0.066
823.69	0.066
823.87	0.066
824.06	0.066
824.24	0.067
824.43	0.066
824.61	0.066
824.80	0.066
824.98	0.066
825.17	0.067
825.35	0.067
825.54	0.067
825.72	0.067
825.91	0.067
826.09	0.067
826.28	0.066
826.46	0.067
826.64	0.067
826.83	0.067
827.01	0.067
827.20	0.067
827.38	0.067
827.57	0.068
827.75	0.068
827.94	0.068
828.12	0.068
828.31	0.068
828.49	0.068
828.67	0.069
828.86	0.068
829.04	0.068
829.23	0.069
829.41	0.069
829.60	0.069
829.78	0.069
829.96	0.070
830.15	0.070
830.33	0.070
830.52	0.070
830.70	0.070
830.88	0.070
831.07	0.070
831.25	0.070
831.44	0.070
831.62	0.070
831.81	0.070
831.99	0.070
832.17	0.070
832.36	0.070
832.54	0.070
832.73	0.070
832.91	0.070
833.09	0.070
833.28	0.070
833.46	0.070
833.65	0.071
833.83	0.071
834.01	0.071
834.20	0.071
834.38	0.071
834.56	0.071
834.75	0.071
834.93	0.071
835.12	0.072
835.30	0.072
835.48	0.072
835.67	0.071
835.85	0.072
836.03	0.072
836.22	0.071
836.40	0.072
836.59	0.072
836.77	0.072
836.95	0.072
837.14	0.072
837.32	0.072
837.50	0.072
837.69	0.072
837.87	0.072
838.05	0.072
838.24	0.072
838.42	0.072
838.60	0.071
838.79	0.072
838.97	0.071
839.15	0.072
839.34	0.072
839.52	0.072
839.70	0.072
839.89	0.073
840.07	0.073
840.25	0.073
840.44	0.073
840.62	0.073
840.80	0.073
840.99	0.073
841.17	0.072
841.35	0.072
841.54	0.072
841.72	0.072
841.90	0.072
842.09	0.072
842.27	0.072
842.45	0.073
842.64	0.073
842.82	0.073
843.00	0.073
843.19	0.073
843.37	0.072
843.55	0.072
843.73	0.072
843.92	0.072
844.10	0.072
844.28	0.073
844.47	0.073
844.65	0.072
844.83	0.073
845.01	0.073
845.20	0.073
845.38	0.073
845.56	0.074
845.75	0.073
845.93	0.073
846.11	0.073
846.29	0.073
846.48	0.074
846.66	0.074
846.84	0.073
847.02	0.073
847.21	0.073
847.39	0.073
847.57	0.073
847.76	0.073
847.94	0.073
848.12	0.073
848.30	0.072
848.49	0.072
848.67	0.073
848.85	0.073
849.03	0.073
849.22	0.073
849.40	0.073
849.58	0.073
849.76	0.074
849.95	0.074
850.13	0.074
850.31	0.074
850.49	0.074
850.67	0.075
850.86	0.074
851.04	0.074
851.22	0.074
851.40	0.074
851.59	0.074
851.77	0.074
851.95	0.074
852.13	0.074
852.31	0.074
852.50	0.075
852.68	0.075
852.86	0.074
853.04	0.074
853.23	0.074
853.41	0.074
853.59	0.074
853.77	0.074
853.95	0.074
854.14	0.073
854.32	0.074
854.50	0.073
854.68	0.073
854.86	0.073
855.04	0.074
855.23	0.073
855.41	0.074
855.59	0.074
855.77	0.074
855.95	0.074
856.14	0.074
856.32	0.074
856.50	0.074
856.68	0.075
856.86	0.075
857.04	0.074
857.23	0.074
857.41	0.075
857.59	0.075
857.77	0.074
857.95	0.074
858.13	0.075
858.32	0.075
858.50	0.075
858.68	0.074
858.86	0.074
859.04	0.074
859.22	0.074
859.41	0.074
859.59	0.074
859.77	0.074
859.95	0.074
860.13	0.074
860.31	0.074
860.49	0.074
860.68	0.074
860.86	0.075
861.04	0.074
861.22	0.074
861.40	0.074
861.58	0.074
861.76	0.074
861.94	0.074
862.13	0.074
862.31	0.074
862.49	0.074
862.67	0.074
862.85	0.074
863.03	0.075
863.21	0.075
863.39	0.075
863.57	0.075
863.76	0.075
863.94	0.075
864.12	0.076
864.30	0.075
864.48	0.075
864.66	0.075
864.84	0.075
865.02	0.075
865.20	0.075
865.38	0.075
865.57	0.075
865.75	0.075
865.93	0.076
866.11	0.075
866.29	0.076
866.47	0.076
866.65	0.076
866.83	0.076
867.01	0.076
867.19	0.076
867.37	0.076
867.55	0.076
867.73	0.076
867.92	0.075
868.10	0.076
868.28	0.075
868.46	0.075
868.64	0.075
868.82	0.076
869.00	0.076
869.18	0.076
869.36	0.076
869.54	0.076
869.72	0.076
869.90	0.076
870.08	0.076
870.26	0.076
870.44	0.076
870.62	0.076
870.80	0.076
870.98	0.076
871.16	0.076
871.34	0.076
871.53	0.076
871.71	0.076
871.89	0.076
872.07	0.077
872.25	0.076
872.43	0.076
872.61	0.077
872.79	0.077
872.97	0.077
873.15	0.077
873.33	0.078
873.51	0.078
873.69	0.078
873.87	0.078
874.05	0.077
874.23	0.077
874.41	0.077
874.59	0.078
874.77	0.077
874.95	0.077
875.13	0.077
875.31	0.077
875.49	0.077
875.67	0.077
875.85	0.076
876.03	0.077
876.21	0.077
876.39	0.077
876.57	0.076
876.75	0.077
876.93	0.077
877.11	0.077
877.29	0.077
877.47	0.077
877.65	0.078
877.82	0.078
878.00	0.077
878.18	0.078
878.36	0.078
878.54	0.078
878.72	0.078
878.90	0.078
879.08	0.078
879.26	0.078
879.44	0.078
879.62	0.078
879.80	0.078
879.98	0.078
880.16	0.077
880.34	0.077
880.52	0.077
880.70	0.077
880.88	0.077
881.06	0.077
881.24	0.077
881.42	0.077
881.59	0.077
881.77	0.077
881.95	0.077
882.13	0.078
882.31	0.078
882.49	0.078
882.67	0.079
882.85	0.079
883.03	0.079
883.21	0.079
883.39	0.079
883.57	0.079
883.75	0.080
883.92	0.080
884.10	0.080
884.28	0.079
884.46	0.080
884.64	0.079
884.82	0.079
885.00	0.079
885.18	0.079
885.36	0.079
885.54	0.079
885.71	0.080
885.89	0.080
886.07	0.079
886.25	0.080
886.43	0.080
886.61	0.080
886.79	0.080
886.97	0.080
887.15	0.080
887.32	0.080
887.50	0.080
887.68	0.080
887.86	0.080
888.04	0.081
888.22	0.080
888.40	0.080
888.57	0.080
888.75	0.080
888.93	0.081
889.11	0.081
889.29	0.081
889.47	0.081
889.65	0.081
889.82	0.081
890.00	0.081
890.18	0.081
890.36	0.081
890.54	0.081
890.72	0.081
890.90	0.081
891.07	0.081
891.25	0.081
891.43	0.080
891.61	0.080
891.79	0.080
891.97	0.080
892.14	0.081
892.32	0.081
892.50	0.081
892.68	0.081
892.86	0.081
893.03	0.081
893.21	0.082
893.39	0.082
893.57	0.082
893.75	0.082
893.93	0.082
894.10	0.082
894.28	0.082
894.46	0.082
894.64	0.082
894.82	0.082
894.99	0.082
895.17	0.082
895.35	0.082
895.53	0.082
895.71	0.082
895.88	0.082
896.06	0.082
896.24	0.082
896.42	0.082
896.59	0.082
896.77	0.083
896.95	0.082
897.13	0.082
897.31	0.083
897.48	0.083
897.66	0.083
897.84	0.083
898.02	0.082
898.19	0.082
898.37	0.082
898.55	0.083
898.73	0.083
898.91	0.083
899.08	0.083
899.26	0.083
899.44	0.083
899.62	0.083
899.79	0.083
899.97	0.083
900.15	0.083
900.33	0.083
900.50	0.083
900.68	0.083
900.86	0.083
901.04	0.083
901.21	0.083
901.39	0.083
901.57	0.083
901.74	0.083
901.92	0.083
902.10	0.084
902.28	0.084
902.45	0.084
902.63	0.084
902.81	0.084
902.99	0.084
903.16	0.084
903.34	0.084
903.52	0.084
903.69	0.084
903.87	0.084
904.05	0.084
904.22	0.085
904.40	0.085
904.58	0.085
904.76	0.085
904.93	0.084
905.11	0.085
905.29	0.085
905.46	0.085
905.64	0.085
905.82	0.085
905.99	0.085
906.17	0.085
906.35	0.085
906.53	0.085
906.70	0.085
906.88	0.085
907.06	0.085
907.23	0.085
907.41	0.085
907.59	0.085
907.76	0.085
907.94	0.085
908.12	0.086
908.29	0.086
908.47	0.086
908.65	0.086
908.82	0.086
909.00	0.086
909.18	0.086
909.35	0.086
909.53	0.086
909.71	0.086
909.88	0.086
910.06	0.086
910.23	0.086
910.41	0.086
910.59	0.086
910.76	0.086
910.94	0.086
911.12	0.086
911.29	0.086
911.47	0.086
911.65	0.087
911.82	0.087
912.00	0.087
912.17	0.087
912.35	0.088
912.53	0.088
912.70	0.088
912.88	0.088
913.06	0.089
913.23	0.089
913.41	0.089
913.58	0.089
913.76	0.089
913.94	0.089
914.11	0.089
914.29	0.089
914.46	0.089
914.64	0.089
914.82	0.089
914.99	0.090
915.17	0.090
915.34	0.090
915.52	0.090
915.70	0.090
915.87	0.090
916.05	0.090
916.22	0.090
916.40	0.090
916.57	0.091
916.75	0.091
916.93	0.091
917.10	0.091
917.28	0.091
917.45	0.090
917.63	0.090
917.80	0.090
917.98	0.090
918.16	0.090
918.33	0.090
918.51	0.091
918.68	0.091
918.86	0.091
919.03	0.091
919.21	0.092
919.39	0.092
919.56	0.093
919.74	0.093
919.91	0.093
920.09	0.094
920.26	0.094
920.44	0.094
920.61	0.094
920.79	0.094
920.96	0.094
921.14	0.094
921.31	0.095
921.49	0.094
921.67	0.095
921.84	0.095
922.02	0.095
922.19	0.095
922.37	0.095
922.54	0.096
922.72	0.096
922.89	0.096
923.07	0.096
923.24	0.096
923.42	0.096
923.59	0.097
923.77	0.097
923.94	0.097
924.12	0.098
924.29	0.098
924.47	0.098
924.64	0.099
924.82	0.099
924.99	0.100
925.17	0.101
925.34	0.101
925.52	0.101
925.69	0.101
925.87	0.102
926.04	0.102
926.22	0.103
926.39	0.103
926.57	0.103
926.74	0.103
926.91	0.103
927.09	0.103
927.26	0.103
927.44	0.104
927.61	0.104
927.79	0.105
927.96	0.105
928.14	0.106
928.31	0.106
928.49	0.106
928.66	0.107
928.84	0.107
929.01	0.108
929.18	0.109
929.36	0.109
929.53	0.109
929.71	0.109
929.88	0.109
930.06	0.109
930.23	0.110
930.41	0.110
930.58	0.111
930.75	0.111
930.93	0.111
931.10	0.111
931.28	0.112
931.45	0.113
931.63	0.113
931.80	0.113
931.97	0.114
932.15	0.115
932.32	0.115
932.50	0.115
932.67	0.116
932.84	0.117
933.02	0.117
933.19	0.117
933.37	0.118
933.54	0.118
933.71	0.119
933.89	0.120
934.06	0.120
934.24	0.121
934.41	0.121
934.58	0.121
934.76	0.121
934.93	0.122
935.11	0.123
935.28	0.123
935.45	0.123
935.63	0.123
935.80	0.124
935.98	0.125
936.15	0.124
936.32	0.125
936.50	0.126
936.67	0.126
936.84	0.126
937.02	0.127
937.19	0.129
937.36	0.129
937.54	0.129
937.71	0.130
937.89	0.130
938.06	0.130
938.23	0.131
938.41	0.132
938.58	0.132
938.75	0.132
938.93	0.133
939.10	0.133
939.27	0.133
939.45	0.134
939.62	0.135
939.79	0.136
939.97	0.136
940.14	0.137
940.31	0.138
940.49	0.138
940.66	0.139
940.83	0.139
941.01	0.140
941.18	0.141
941.35	0.141
941.53	0.142
941.70	0.143
941.87	0.143
942.05	0.143
942.22	0.144
942.39	0.145
942.57	0.146
942.74	0.147
942.91	0.147
943.08	0.148
943.26	0.148
943.43	0.149
943.60	0.150
943.78	0.151
943.95	0.152
944.12	0.152
944.29	0.153
944.47	0.153
944.64	0.154
944.81	0.155
944.99	0.156
945.16	0.157
945.33	0.157
945.50	0.158
945.68	0.159
945.85	0.159
946.02	0.160
946.20	0.161
946.37	0.162
946.54	0.162
946.71	0.163
946.89	0.163
947.06	0.164
947.23	0.165
947.40	0.167
947.58	0.167
947.75	0.168
947.92	0.169
948.09	0.169
948.27	0.170
948.44	0.172
948.61	0.172
948.78	0.173
948.96	0.175
949.13	0.175
949.30	0.176
949.47	0.177
949.65	0.178
949.82	0.180
949.99	0.181
950.16	0.183
950.33	0.183
950.51	0.185
950.68	0.186
950.85	0.187
951.02	0.188
951.20	0.189
951.37	0.191
951.54	0.192
951.71	0.193
951.88	0.194
952.06	0.194
952.23	0.195
952.40	0.196
952.57	0.197
952.74	0.199
952.92	0.200
953.09	0.202
953.26	0.203
953.43	0.204
953.60	0.205
953.77	0.206
953.95	0.207
954.12	0.209
954.29	0.211
954.46	0.213
954.63	0.213
954.81	0.214
954.98	0.214
955.15	0.217
955.32	0.218
955.49	0.218
955.66	0.220
955.84	0.221
956.01	0.222
956.18	0.224
956.35	0.226
956.52	0.225
956.69	0.228
956.87	0.228
957.04	0.229
957.21	0.231
957.38	0.231
957.55	0.232
957.72	0.233
957.89	0.234
958.07	0.234
958.24	0.236
958.41	0.238
958.58	0.238
958.75	0.238
958.92	0.239
959.09	0.240
959.26	0.241
959.44	0.241
959.61	0.243
959.78	0.244
959.95	0.245
960.12	0.245
960.29	0.247
960.46	0.246
960.63	0.247
960.81	0.247
960.98	0.248
961.15	0.248
961.32	0.249
961.49	0.248
961.66	0.250
961.83	0.250
962.00	0.250
962.17	0.252
962.34	0.251
962.52	0.252
962.69	0.253
962.86	0.253
963.03	0.253
963.20	0.254
963.37	0.253
963.54	0.253
963.71	0.253
963.88	0.252
964.05	0.253
964.22	0.255
964.39	0.254
964.56	0.254
964.74	0.255
964.91	0.255
965.08	0.255
965.25	0.256
965.42	0.256
965.59	0.257
965.76	0.257
965.93	0.259
966.10	0.257
966.27	0.257
966.44	0.257
966.61	0.258
966.78	0.257
966.95	0.257
967.12	0.258
967.29	0.260
967.46	0.260
967.63	0.259
967.80	0.260
967.97	0.259
968.14	0.259
968.32	0.260
968.49	0.261
968.66	0.260
968.83	0.261
969.00	0.261
969.17	0.261
969.34	0.262
969.51	0.263
969.68	0.262
969.85	0.262
970.02	0.263
970.19	0.262
970.36	0.263
970.53	0.263
970.70	0.262
970.87	0.262
971.04	0.261
971.21	0.262
971.38	0.261
971.55	0.262
971.72	0.261
971.89	0.262
972.06	0.261
972.23	0.261
972.40	0.261
972.57	0.260
972.74	0.260
972.91	0.261
973.07	0.261
973.24	0.261
973.41	0.261
973.58	0.259
973.75	0.272
973.92	0.260
974.09	0.259
974.26	0.259
974.43	0.258
974.60	0.259
974.77	0.260
974.94	0.259
975.11	0.259
975.28	0.261
975.45	0.259
975.62	0.260
975.79	0.261
975.96	0.260
976.13	0.259
976.30	0.260
976.47	0.259
976.64	0.260
976.80	0.260
976.97	0.260
977.14	0.260
977.31	0.259
977.48	0.260
977.65	0.259
977.82	0.258
977.99	0.260
978.16	0.260
978.33	0.259
978.50	0.259
978.67	0.259
978.83	0.258
979.00	0.259
979.17	0.258
979.34	0.258
979.51	0.257
979.68	0.258
979.85	0.258
980.02	0.259
980.19	0.257
980.36	0.258
980.52	0.259
980.69	0.257
980.86	0.257
981.03	0.258
981.20	0.256
981.37	0.257
981.54	0.258
981.71	0.257
981.88	0.257
982.04	0.256
982.21	0.256
982.38	0.257
982.55	0.256
982.72	0.255
982.89	0.256
983.06	0.254
983.22	0.253
983.39	0.254
983.56	0.253
983.73	0.253
983.90	0.252
984.07	0.254
984.24	0.252
984.40	0.252
984.57	0.251
984.74	0.253
984.91	0.254
985.08	0.252
985.25	0.249
985.41	0.250
985.58	0.250
985.75	0.251
985.92	0.250
986.09	0.249
986.26	0.249
986.42	0.248
986.59	0.247
986.76	0.248
986.93	0.249
987.10	0.249
987.27	0.247
987.43	0.246
987.60	0.247
987.77	0.247
987.94	0.245
988.11	0.246
988.27	0.246
988.44	0.245
988.61	0.244
988.78	0.242
988.95	0.243
989.11	0.244
989.28	0.242
989.45	0.242
989.62	0.241
989.79	0.242
989.95	0.241
990.12	0.243
990.29	0.243
990.46	0.240
990.62	0.239
990.79	0.239
990.96	0.239
991.13	0.240
991.30	0.239
991.46	0.238
991.63	0.237
991.80	0.236
991.97	0.236
992.13	0.237
992.30	0.238
992.47	0.237
992.64	0.236
992.80	0.236
992.97	0.237
993.14	0.234
993.31	0.232
993.47	0.234
993.64	0.232
993.81	0.231
993.98	0.232
994.14	0.230
994.31	0.229
994.48	0.231
994.64	0.231
994.81	0.230
994.98	0.230
995.15	0.227
995.31	0.227
995.48	0.227
995.65	0.229
995.82	0.225
995.98	0.225
996.15	0.226
996.32	0.227
996.48	0.225
996.65	0.224
996.82	0.223
996.99	0.224
997.15	0.224
997.32	0.225
997.49	0.223
997.65	0.224
997.82	0.224
997.99	0.222
998.15	0.223
998.32	0.224
998.49	0.223
998.65	0.223
998.82	0.222
998.99	0.219
999.15	0.220
999.32	0.220
999.49	0.219
999.65	0.219
999.82	0.216
999.99	0.217
1000.15	0.216
1000.32	0.216
1000.49	0.216
1000.65	0.214
1000.82	0.213
1000.99	0.214
1001.15	0.214
1001.32	0.213
1001.49	0.213
1001.65	0.213
1001.82	0.215
1001.99	0.212
1002.15	0.211
1002.32	0.211
1002.49	0.213
1002.65	0.212
1002.82	0.211
1002.99	0.210
1003.15	0.212
1003.32	0.211
1003.48	0.211
1003.65	0.210
1003.82	0.209
1003.98	0.207
1004.15	0.207
1004.32	0.207
1004.48	0.207
1004.65	0.208
1004.81	0.206
1004.98	0.204
1005.15	0.205
1005.31	0.204
1005.48	0.203
1005.64	0.203
1005.81	0.205
1005.98	0.202
1006.14	0.201
1006.31	0.201
1006.47	0.199
1006.64	0.198
1006.81	0.198
1006.97	0.198
1007.14	0.198
1007.30	0.199
1007.47	0.199
1007.63	0.197
1007.80	0.195
1007.97	0.195
1008.13	0.195
1008.30	0.196
1008.46	0.195
1008.63	0.193
1008.79	0.194
1008.96	0.194
1009.13	0.196
1009.29	0.193
1009.46	0.192
1009.62	0.191
1009.79	0.190
1009.95	0.190
1010.12	0.191
1010.28	0.191
1010.45	0.190
1010.62	0.189
1010.78	0.187
1010.95	0.185
1011.11	0.187
1011.28	0.187
1011.44	0.189
1011.61	0.186
1011.77	0.185
1011.94	0.185
1012.10	0.185
1012.27	0.185
1012.43	0.185
1012.60	0.185
1012.76	0.185
1012.93	0.184
1013.10	0.182
1013.26	0.180
1013.43	0.182
1013.59	0.189
1013.76	0.182
1013.92	0.180
1014.09	0.179
1014.25	0.180
1014.42	0.180
1014.58	0.180
1014.75	0.182
1014.91	0.181
1015.08	0.182
1015.24	0.179
1015.41	0.179
1015.57	0.179
1015.73	0.178
1015.90	0.177
1016.06	0.179
1016.23	0.176
1016.39	0.176
1016.56	0.176
1016.72	0.177
1016.89	0.177
1017.05	0.179
1017.22	0.176
1017.38	0.176
1017.55	0.175
1017.71	0.176
1017.88	0.175
1018.04	0.176
1018.21	0.173
1018.37	0.173
1018.53	0.173
1018.70	0.171
1018.86	0.170
1019.03	0.172
1019.19	0.171
1019.36	0.170
1019.52	0.171
1019.69	0.172
1019.85	0.171
1020.01	0.170
1020.18	0.169
1020.34	0.169
1020.51	0.169
1020.67	0.170
1020.84	0.168
1021.00	0.168
1021.16	0.166
1021.33	0.166
1021.49	0.164
1021.66	0.166
1021.82	0.164
1021.98	0.164
1022.15	0.163
1022.31	0.163
1022.48	0.161
1022.64	0.163
1022.80	0.162
1022.97	0.161
1023.13	0.161
1023.30	0.162
1023.46	0.162
1023.62	0.159
1023.79	0.161
1023.95	0.161
1024.12	0.160
1024.28	0.159
1024.44	0.159
1024.61	0.158
1024.77	0.158
1024.93	0.157
1025.10	0.159
1025.26	0.157
1025.43	0.158
1025.59	0.153
1025.75	0.158
1025.92	0.157
1026.08	0.156
1026.24	0.156
1026.41	0.157
1026.57	0.156
1026.73	0.153
1026.90	0.155
1027.06	0.153
1027.23	0.154
1027.39	0.154
1027.55	0.154
1027.72	0.152
1027.88	0.152
1028.04	0.152
1028.21	0.153
1028.37	0.147
1028.53	0.152
1028.70	0.150
1028.86	0.148
1029.02	0.148
1029.19	0.149
1029.35	0.147
1029.51	0.148
1029.67	0.147
1029.84	0.148
1030.00	0.143
1030.16	0.143
1030.33	0.146
1030.49	0.144
1030.65	0.143
1030.82	0.159
1030.98	0.146
1031.14	0.147
1031.31	0.147
1031.47	0.145
1031.63	0.148
1031.79	0.147
1031.96	0.149
1032.12	0.149
1032.28	0.146
1032.45	0.149
1032.61	0.147
1032.77	0.147
1032.93	0.143
1033.10	0.144
1033.26	0.146
1033.42	0.144
1033.58	0.144
1033.75	0.145
1033.91	0.143
1034.07	0.145
1034.24	0.144
1034.40	0.141
1034.56	0.140
1034.72	0.141
1034.89	0.141
1035.05	0.138
1035.21	0.138
1035.37	0.135
1035.54	0.139
1035.70	0.136
1035.86	0.135
1036.02	0.137
1036.19	0.135
1036.35	0.133
1036.51	0.137
1036.67	0.135
1036.83	0.135
1037.00	0.135
1037.16	0.136
1037.32	0.135
1037.48	0.136
1037.65	0.140
1037.81	0.135
1037.97	0.136
1038.13	0.136
1038.29	0.133
1038.46	0.131
1038.62	0.135
1038.78	0.132
1038.94	0.129
1039.10	0.133
1039.27	0.129
1039.43	0.131
1039.59	0.131
1039.75	0.130
1039.91	0.129
1040.08	0.130
1040.24	0.132
1040.40	0.133
1040.56	0.132
1040.72	0.126
1040.89	0.128
1041.05	0.130
1041.21	0.129
1041.37	0.127
1041.53	0.132
1041.69	0.130
1041.86	0.130
1042.02	0.126
1042.18	0.126
1042.34	0.127
1042.50	0.132
1042.66	0.129
1042.83	0.128
1042.99	0.131
1043.15	0.127
1043.31	0.127
1043.47	0.131
1043.63	0.128
1043.79	0.128
1043.96	0.130
1044.12	0.134
1044.28	0.130
1044.44	0.132
1044.60	0.126
1044.76	0.124
1044.92	0.126
1045.09	0.128
1045.25	0.126
1045.41	0.126
1045.57	0.121
1045.73	0.122
1045.89	0.124
1046.05	0.126
1046.21	0.125
1046.38	0.129
1046.54	0.139
1046.70	0.133
1046.86	0.134
>>>>>End Processed Spectral Data<<<<<
