SpectraSuite Data File
++++++++++++++++++++++++++++++++++++
Date: Mon May 20 12:10:50 CDT 2013
User: Students
Dark Spectrum Present: Yes
Reference Spectrum Present: Yes
Number of Sampled Component Spectra: 1
Spectrometers: USB4H00887
Integration Time (usec): 60000 (USB4H00887)
Spectra Averaged: 5 (USB4H00887)
Boxcar Smoothing: 5 (USB4H00887)
Correct for Electrical Dark: No (USB4H00887)
Strobe/Lamp Enabled: No (USB4H00887)
Correct for Detector Non-linearity: No (USB4H00887)
Correct for Stray Light: No (USB4H00887)
Number of Pixels in Processed Spectrum: 3648
>>>>>Begin Processed Spectral Data<<<<<
345.83	-0.011
346.05	-0.011
346.26	-0.011
346.48	-0.000
346.70	0.342
346.92	0.066
347.14	0.045
347.35	0.047
347.57	0.348
347.79	-0.280
348.01	-0.184
348.23	-0.347
348.44	-0.000
348.66	0.388
348.88	-0.444
349.10	-0.174
349.32	0.084
349.53	-0.050
349.75	-0.057
349.97	-0.007
350.19	0.066
350.41	0.039
350.62	-0.137
350.84	0.017
351.06	0.019
351.28	0.015
351.50	-0.096
351.71	0.056
351.93	0.086
352.15	0.030
352.37	0.060
352.58	0.032
352.80	0.052
353.02	0.095
353.24	0.147
353.46	-0.000
353.67	-0.238
353.89	0.094
354.11	0.067
354.33	0.082
354.54	0.105
354.76	0.244
354.98	0.412
355.20	0.268
355.41	0.122
355.63	0.223
355.85	0.099
356.07	-0.000
356.28	0.114
356.50	0.193
356.72	0.077
356.94	0.180
357.15	0.200
357.37	-0.000
357.59	0.076
357.81	0.033
358.02	0.067
358.24	0.050
358.46	0.082
358.68	0.091
358.89	0.062
359.11	-0.000
359.33	0.069
359.55	-0.536
359.76	0.136
359.98	0.151
360.20	0.151
360.42	0.122
360.63	0.125
360.85	0.099
361.07	0.300
361.29	0.055
361.50	0.156
361.72	0.066
361.94	0.245
362.15	0.096
362.37	0.062
362.59	0.065
362.81	0.104
363.02	0.197
363.24	0.309
363.46	0.211
363.68	0.272
363.89	0.165
364.11	0.222
364.33	0.235
364.54	0.141
364.76	0.176
364.98	0.171
365.20	0.184
365.41	0.107
365.63	0.132
365.85	0.071
366.06	0.194
366.28	0.231
366.50	0.154
366.71	0.082
366.93	0.085
367.15	0.104
367.37	0.106
367.58	0.133
367.80	0.169
368.02	0.452
368.23	0.173
368.45	0.193
368.67	0.163
368.88	0.148
369.10	-0.000
369.32	0.176
369.53	0.100
369.75	0.184
369.97	0.598
370.19	0.264
370.40	0.104
370.62	0.284
370.84	0.107
371.05	0.661
371.27	0.164
371.49	0.174
371.70	0.182
371.92	0.257
372.14	0.107
372.35	0.133
372.57	0.168
372.79	0.447
373.00	0.120
373.22	0.180
373.44	0.165
373.65	0.120
373.87	0.183
374.09	1.523
374.30	0.162
374.52	0.164
374.74	0.100
374.95	0.316
375.17	0.107
375.39	-0.000
375.60	0.132
375.82	0.246
376.04	0.121
376.25	0.139
376.47	0.090
376.68	0.259
376.90	0.167
377.12	0.387
377.33	0.226
377.55	0.574
377.77	0.247
377.98	0.347
378.20	0.164
378.42	0.195
378.63	0.257
378.85	-0.000
379.07	0.159
379.28	0.496
379.50	0.330
379.71	0.152
379.93	0.110
380.15	0.142
380.36	0.235
380.58	0.171
380.80	0.521
381.01	0.146
381.23	0.108
381.44	0.121
381.66	0.164
381.88	0.197
382.09	-0.084
382.31	0.134
382.53	0.137
382.74	0.547
382.96	0.169
383.17	0.129
383.39	0.179
383.61	0.234
383.82	0.169
384.04	0.201
384.25	0.232
384.47	0.230
384.69	0.223
384.90	0.211
385.12	0.526
385.33	0.332
385.55	0.238
385.77	0.360
385.98	0.190
386.20	0.264
386.41	0.217
386.63	0.255
386.85	0.208
387.06	0.256
387.28	0.397
387.49	0.254
387.71	0.176
387.93	0.166
388.14	0.512
388.36	0.204
388.57	0.183
388.79	0.220
389.01	2.199
389.22	0.286
389.44	0.245
389.65	0.209
389.87	0.202
390.08	0.251
390.30	0.202
390.52	0.399
390.73	0.413
390.95	0.292
391.16	0.272
391.38	-0.000
391.59	0.312
391.81	0.250
392.03	0.232
392.24	0.271
392.46	0.231
392.67	0.203
392.89	0.301
393.10	0.461
393.32	0.282
393.53	0.318
393.75	0.208
393.97	0.229
394.18	0.336
394.40	0.287
394.61	0.302
394.83	0.250
395.04	0.302
395.26	0.189
395.47	0.298
395.69	0.251
395.91	0.281
396.12	0.337
396.34	0.351
396.55	0.226
396.77	0.354
396.98	-0.000
397.20	0.435
397.41	0.473
397.63	0.350
397.84	0.310
398.06	0.293
398.27	0.292
398.49	0.328
398.71	0.239
398.92	0.291
399.14	0.369
399.35	0.475
399.57	0.480
399.78	0.310
400.00	0.286
400.21	0.344
400.43	0.282
400.64	0.299
400.86	0.740
401.07	0.370
401.29	0.330
401.50	0.353
401.72	0.527
401.93	0.312
402.15	0.399
402.36	0.368
402.58	0.300
402.79	0.324
403.01	0.542
403.22	0.399
403.44	0.270
403.65	0.403
403.87	0.440
404.08	0.339
404.30	0.552
404.51	0.300
404.73	0.365
404.94	0.323
405.16	0.345
405.37	0.275
405.59	0.510
405.80	0.326
406.02	0.406
406.23	0.406
406.45	0.450
406.66	0.492
406.88	0.320
407.09	0.480
407.31	0.391
407.52	0.474
407.74	0.386
407.95	0.448
408.17	0.415
408.38	0.437
408.60	0.281
408.81	0.475
409.03	0.350
409.24	0.360
409.45	0.417
409.67	0.396
409.88	0.363
410.10	0.453
410.31	0.384
410.53	0.364
410.74	0.531
410.96	0.542
411.17	0.581
411.39	0.430
411.60	0.389
411.82	0.469
412.03	0.453
412.24	0.431
412.46	0.643
412.67	0.504
412.89	0.493
413.10	0.475
413.32	0.422
413.53	0.474
413.75	0.486
413.96	0.367
414.17	0.464
414.39	0.466
414.60	0.383
414.82	0.498
415.03	0.394
415.25	0.433
415.46	0.299
415.68	0.416
415.89	0.720
416.10	0.602
416.32	0.340
416.53	0.399
416.75	0.376
416.96	0.453
417.18	0.410
417.39	0.396
417.60	0.391
417.82	0.594
418.03	0.514
418.25	0.432
418.46	0.454
418.67	0.414
418.89	0.456
419.10	0.475
419.32	0.642
419.53	0.558
419.75	0.478
419.96	0.427
420.17	0.511
420.39	0.488
420.60	0.517
420.82	0.640
421.03	0.526
421.24	0.440
421.46	0.487
421.67	0.527
421.89	0.460
422.10	0.500
422.31	0.495
422.53	0.734
422.74	0.527
422.96	0.418
423.17	0.461
423.38	0.554
423.60	0.458
423.81	0.568
424.03	0.494
424.24	0.550
424.45	0.541
424.67	0.550
424.88	0.488
425.09	0.533
425.31	0.484
425.52	0.510
425.74	0.583
425.95	0.647
426.16	0.496
426.38	0.571
426.59	0.525
426.80	0.611
427.02	0.636
427.23	0.489
427.45	0.635
427.66	0.633
427.87	0.496
428.09	0.532
428.30	0.596
428.51	0.594
428.73	0.643
428.94	0.564
429.15	0.546
429.37	0.523
429.58	0.553
429.79	0.512
430.01	0.604
430.22	0.593
430.44	0.605
430.65	0.539
430.86	0.585
431.08	0.583
431.29	0.532
431.50	0.631
431.72	0.859
431.93	0.703
432.14	0.523
432.36	0.588
432.57	0.598
432.78	0.619
433.00	0.567
433.21	0.553
433.42	0.684
433.64	0.597
433.85	0.682
434.06	0.541
434.28	0.564
434.49	0.585
434.70	0.593
434.92	0.608
435.13	0.652
435.34	0.667
435.56	0.630
435.77	0.630
435.98	0.814
436.20	0.674
436.41	0.588
436.62	0.577
436.83	0.653
437.05	0.735
437.26	0.648
437.47	0.577
437.69	0.626
437.90	0.570
438.11	0.559
438.33	0.609
438.54	0.626
438.75	0.799
438.97	0.785
439.18	0.581
439.39	0.611
439.60	0.655
439.82	0.614
440.03	0.574
440.24	0.849
440.46	0.631
440.67	0.617
440.88	0.668
441.10	0.620
441.31	0.622
441.52	0.686
441.73	0.779
441.95	0.693
442.16	0.640
442.37	1.047
442.58	0.620
442.80	0.608
443.01	0.796
443.22	0.718
443.44	0.606
443.65	0.706
443.86	0.703
444.07	0.748
444.29	0.643
444.50	0.812
444.71	0.617
444.92	0.576
445.14	0.738
445.35	0.774
445.56	0.607
445.78	0.713
445.99	0.722
446.20	0.621
446.41	0.702
446.63	0.701
446.84	0.664
447.05	0.665
447.26	0.803
447.48	0.676
447.69	0.643
447.90	0.736
448.11	0.656
448.33	0.681
448.54	0.697
448.75	0.726
448.96	0.736
449.18	0.775
449.39	0.689
449.60	0.670
449.81	0.803
450.03	0.695
450.24	0.758
450.45	0.715
450.66	0.696
450.87	0.733
451.09	0.683
451.30	0.652
451.51	0.727
451.72	0.740
451.94	0.755
452.15	0.836
452.36	0.700
452.57	0.715
452.78	0.708
453.00	0.744
453.21	0.695
453.42	0.674
453.63	0.781
453.85	0.740
454.06	0.736
454.27	0.871
454.48	0.767
454.69	0.690
454.91	0.764
455.12	0.668
455.33	0.749
455.54	0.774
455.75	0.740
455.97	0.763
456.18	0.749
456.39	0.750
456.60	0.778
456.81	0.714
457.03	0.723
457.24	0.719
457.45	0.805
457.66	0.752
457.87	0.707
458.09	0.732
458.30	0.654
458.51	0.783
458.72	0.818
458.93	0.834
459.15	0.735
459.36	0.809
459.57	0.835
459.78	0.885
459.99	0.784
460.20	0.742
460.42	0.822
460.63	0.775
460.84	0.753
461.05	0.768
461.26	0.823
461.47	0.742
461.69	0.795
461.90	0.829
462.11	0.789
462.32	0.852
462.53	0.788
462.74	0.885
462.96	0.765
463.17	0.757
463.38	0.800
463.59	0.917
463.80	0.760
464.01	0.778
464.23	0.867
464.44	0.821
464.65	0.825
464.86	0.851
465.07	0.863
465.28	0.825
465.49	0.849
465.71	0.800
465.92	0.835
466.13	0.876
466.34	0.808
466.55	0.863
466.76	0.827
466.97	0.846
467.19	0.836
467.40	0.868
467.61	0.866
467.82	0.788
468.03	0.770
468.24	0.836
468.45	0.871
468.66	0.856
468.88	0.864
469.09	0.865
469.30	0.917
469.51	0.841
469.72	0.884
469.93	0.863
470.14	0.839
470.35	0.933
470.57	0.884
470.78	0.824
470.99	0.960
471.20	0.897
471.41	0.853
471.62	0.902
471.83	0.875
472.04	0.899
472.25	0.936
472.47	0.856
472.68	0.860
472.89	0.862
473.10	0.905
473.31	0.857
473.52	0.918
473.73	0.941
473.94	0.862
474.15	0.889
474.36	0.896
474.57	0.922
474.79	0.893
475.00	0.895
475.21	0.886
475.42	0.982
475.63	0.880
475.84	0.910
476.05	0.915
476.26	0.885
476.47	0.917
476.68	0.965
476.89	0.890
477.10	0.940
477.32	0.925
477.53	0.976
477.74	0.895
477.95	0.935
478.16	0.883
478.37	0.929
478.58	0.936
478.79	0.953
479.00	0.948
479.21	0.907
479.42	0.951
479.63	0.956
479.84	0.922
480.05	0.919
480.26	0.947
480.47	0.969
480.69	0.969
480.90	0.937
481.11	0.931
481.32	0.996
481.53	0.938
481.74	0.991
481.95	0.957
482.16	0.972
482.37	0.980
482.58	0.944
482.79	0.960
483.00	0.989
483.21	0.931
483.42	0.904
483.63	0.981
483.84	1.007
484.05	0.996
484.26	0.967
484.47	0.963
484.68	0.927
484.89	0.939
485.10	0.987
485.31	0.967
485.52	0.971
485.73	0.971
485.94	1.013
486.15	0.961
486.37	0.976
486.58	0.941
486.79	0.954
487.00	1.005
487.21	0.992
487.42	0.985
487.63	0.988
487.84	1.009
488.05	1.003
488.26	0.960
488.47	0.966
488.68	0.993
488.89	0.969
489.10	0.961
489.31	0.971
489.52	1.004
489.73	0.972
489.94	1.009
490.15	0.965
490.36	1.009
490.57	0.960
490.78	0.945
490.99	0.981
491.20	1.057
491.41	1.017
491.62	0.961
491.83	0.991
492.04	0.989
492.25	0.997
492.45	0.995
492.66	1.018
492.87	1.011
493.08	0.998
493.29	0.985
493.50	0.974
493.71	0.983
493.92	0.980
494.13	0.994
494.34	1.014
494.55	1.021
494.76	1.055
494.97	1.046
495.18	1.010
495.39	1.028
495.60	0.978
495.81	0.980
496.02	0.998
496.23	0.992
496.44	1.024
496.65	1.016
496.86	1.022
497.07	1.046
497.28	1.042
497.49	0.989
497.70	0.989
497.91	1.012
498.12	0.995
498.32	1.039
498.53	1.021
498.74	1.010
498.95	1.035
499.16	0.988
499.37	0.993
499.58	1.004
499.79	1.034
500.00	1.029
500.21	1.056
500.42	1.000
500.63	1.001
500.84	1.019
501.05	1.002
501.26	1.027
501.46	1.065
501.67	1.026
501.88	1.026
502.09	1.002
502.30	1.011
502.51	1.060
502.72	1.015
502.93	1.030
503.14	1.055
503.35	1.020
503.56	1.019
503.77	1.051
503.97	1.031
504.18	1.031
504.39	1.066
504.60	1.033
504.81	1.059
505.02	1.049
505.23	1.052
505.44	1.033
505.65	1.044
505.86	1.023
506.07	1.093
506.27	1.047
506.48	1.051
506.69	1.034
506.90	1.056
507.11	1.054
507.32	1.027
507.53	1.037
507.74	1.030
507.95	1.043
508.15	1.050
508.36	1.052
508.57	1.063
508.78	1.050
508.99	1.050
509.20	1.024
509.41	1.047
509.62	1.038
509.82	1.033
510.03	1.043
510.24	1.044
510.45	1.065
510.66	1.059
510.87	1.057
511.08	1.015
511.29	1.058
511.49	1.037
511.70	1.086
511.91	1.015
512.12	1.012
512.33	1.047
512.54	1.061
512.75	1.046
512.95	1.072
513.16	1.061
513.37	1.037
513.58	1.076
513.79	1.039
514.00	1.045
514.20	1.066
514.41	1.054
514.62	1.020
514.83	1.063
515.04	1.051
515.25	1.027
515.46	1.039
515.66	1.038
515.87	1.051
516.08	1.018
516.29	1.040
516.50	1.019
516.71	1.013
516.91	1.023
517.12	1.039
517.33	1.024
517.54	1.014
517.75	1.019
517.95	1.033
518.16	1.042
518.37	1.008
518.58	1.017
518.79	0.992
519.00	1.022
519.20	1.030
519.41	1.001
519.62	1.019
519.83	1.027
520.04	0.992
520.24	0.990
520.45	1.002
520.66	1.026
520.87	0.985
521.08	0.983
521.28	0.988
521.49	1.006
521.70	0.979
521.91	0.995
522.12	0.975
522.32	0.996
522.53	0.977
522.74	0.964
522.95	0.973
523.16	0.979
523.36	0.989
523.57	0.969
523.78	0.962
523.99	0.965
524.20	0.957
524.40	0.970
524.61	0.976
524.82	0.952
525.03	0.956
525.23	0.958
525.44	0.941
525.65	0.939
525.86	0.962
526.06	0.934
526.27	0.936
526.48	0.947
526.69	0.929
526.90	0.932
527.10	0.967
527.31	0.923
527.52	0.914
527.73	0.905
527.93	0.915
528.14	0.919
528.35	0.910
528.56	0.910
528.76	0.901
528.97	0.891
529.18	0.882
529.39	0.882
529.59	0.884
529.80	0.914
530.01	0.888
530.22	0.887
530.42	0.858
530.63	0.874
530.84	0.852
531.05	0.866
531.25	0.869
531.46	0.863
531.67	0.841
531.88	0.859
532.08	0.852
532.29	0.848
532.50	0.840
532.70	0.833
532.91	0.824
533.12	0.827
533.33	0.852
533.53	0.822
533.74	0.821
533.95	0.827
534.15	0.815
534.36	0.816
534.57	0.798
534.78	0.800
534.98	0.810
535.19	0.782
535.40	0.783
535.60	0.799
535.81	0.780
536.02	0.783
536.23	0.775
536.43	0.777
536.64	0.765
536.85	0.774
537.05	0.782
537.26	0.759
537.47	0.762
537.67	0.751
537.88	0.746
538.09	0.754
538.30	0.743
538.50	0.734
538.71	0.746
538.92	0.734
539.12	0.730
539.33	0.724
539.54	0.724
539.74	0.727
539.95	0.718
540.16	0.714
540.36	0.705
540.57	0.705
540.78	0.698
540.98	0.696
541.19	0.693
541.40	0.681
541.60	0.691
541.81	0.686
542.02	0.686
542.22	0.677
542.43	0.672
542.64	0.667
542.84	0.667
543.05	0.659
543.26	0.659
543.46	0.661
543.67	0.660
543.88	0.655
544.08	0.645
544.29	0.640
544.50	0.640
544.70	0.641
544.91	0.632
545.12	0.632
545.32	0.627
545.53	0.631
545.74	0.619
545.94	0.615
546.15	0.613
546.35	0.609
546.56	0.605
546.77	0.603
546.97	0.600
547.18	0.593
547.39	0.594
547.59	0.592
547.80	0.588
548.01	0.592
548.21	0.587
548.42	0.579
548.62	0.579
548.83	0.576
549.04	0.571
549.24	0.564
549.45	0.562
549.65	0.558
549.86	0.554
550.07	0.553
550.27	0.550
550.48	0.558
550.69	0.543
550.89	0.543
551.10	0.539
551.30	0.539
551.51	0.538
551.72	0.527
551.92	0.529
552.13	0.529
552.33	0.530
552.54	0.524
552.75	0.518
552.95	0.520
553.16	0.515
553.36	0.513
553.57	0.511
553.78	0.509
553.98	0.509
554.19	0.501
554.39	0.498
554.60	0.500
554.80	0.500
555.01	0.493
555.22	0.493
555.42	0.490
555.63	0.483
555.83	0.487
556.04	0.481
556.25	0.483
556.45	0.475
556.66	0.472
556.86	0.475
557.07	0.472
557.27	0.471
557.48	0.465
557.68	0.463
557.89	0.465
558.10	0.461
558.30	0.458
558.51	0.456
558.71	0.453
558.92	0.449
559.12	0.450
559.33	0.453
559.54	0.448
559.74	0.444
559.95	0.442
560.15	0.442
560.36	0.439
560.56	0.434
560.77	0.434
560.97	0.433
561.18	0.429
561.38	0.428
561.59	0.430
561.79	0.426
562.00	0.424
562.21	0.421
562.41	0.419
562.62	0.418
562.82	0.416
563.03	0.413
563.23	0.413
563.44	0.412
563.64	0.409
563.85	0.409
564.05	0.403
564.26	0.402
564.46	0.401
564.67	0.402
564.87	0.398
565.08	0.395
565.28	0.394
565.49	0.395
565.69	0.392
565.90	0.389
566.10	0.392
566.31	0.386
566.51	0.388
566.72	0.389
566.92	0.383
567.13	0.383
567.33	0.381
567.54	0.379
567.74	0.378
567.95	0.374
568.15	0.374
568.36	0.374
568.56	0.372
568.77	0.367
568.97	0.366
569.18	0.365
569.38	0.363
569.59	0.364
569.79	0.361
570.00	0.359
570.20	0.358
570.41	0.356
570.61	0.354
570.82	0.355
571.02	0.352
571.23	0.354
571.43	0.349
571.64	0.348
571.84	0.348
572.05	0.347
572.25	0.346
572.45	0.345
572.66	0.342
572.86	0.341
573.07	0.339
573.27	0.339
573.48	0.338
573.68	0.335
573.89	0.334
574.09	0.335
574.30	0.333
574.50	0.331
574.70	0.331
574.91	0.329
575.11	0.330
575.32	0.329
575.52	0.325
575.73	0.325
575.93	0.325
576.14	0.323
576.34	0.321
576.54	0.320
576.75	0.318
576.95	0.317
577.16	0.315
577.36	0.313
577.57	0.312
577.77	0.311
577.97	0.307
578.18	0.309
578.38	0.306
578.59	0.305
578.79	0.304
579.00	0.304
579.20	0.303
579.40	0.302
579.61	0.301
579.81	0.301
580.02	0.298
580.22	0.298
580.42	0.296
580.63	0.296
580.83	0.295
581.04	0.294
581.24	0.293
581.45	0.292
581.65	0.291
581.85	0.290
582.06	0.288
582.26	0.288
582.47	0.287
582.67	0.287
582.87	0.286
583.08	0.284
583.28	0.284
583.48	0.282
583.69	0.279
583.89	0.280
584.10	0.280
584.30	0.278
584.50	0.276
584.71	0.276
584.91	0.275
585.12	0.273
585.32	0.274
585.52	0.271
585.73	0.270
585.93	0.270
586.13	0.269
586.34	0.268
586.54	0.268
586.75	0.266
586.95	0.265
587.15	0.266
587.36	0.264
587.56	0.264
587.76	0.263
587.97	0.262
588.17	0.260
588.37	0.260
588.58	0.260
588.78	0.257
588.98	0.258
589.19	0.257
589.39	0.254
589.60	0.256
589.80	0.253
590.00	0.253
590.21	0.253
590.41	0.251
590.61	0.250
590.82	0.250
591.02	0.250
591.22	0.248
591.43	0.249
591.63	0.247
591.83	0.247
592.04	0.245
592.24	0.246
592.44	0.243
592.65	0.242
592.85	0.243
593.05	0.243
593.26	0.241
593.46	0.241
593.66	0.240
593.86	0.240
594.07	0.238
594.27	0.237
594.47	0.236
594.68	0.235
594.88	0.236
595.08	0.234
595.29	0.234
595.49	0.232
595.69	0.231
595.90	0.230
596.10	0.231
596.30	0.230
596.50	0.229
596.71	0.229
596.91	0.228
597.11	0.227
597.32	0.227
597.52	0.227
597.72	0.226
597.93	0.226
598.13	0.224
598.33	0.225
598.53	0.224
598.74	0.223
598.94	0.222
599.14	0.222
599.35	0.222
599.55	0.222
599.75	0.221
599.95	0.220
600.16	0.221
600.36	0.219
600.56	0.218
600.76	0.218
600.97	0.216
601.17	0.216
601.37	0.216
601.58	0.215
601.78	0.215
601.98	0.214
602.18	0.212
602.39	0.213
602.59	0.212
602.79	0.212
602.99	0.212
603.20	0.210
603.40	0.210
603.60	0.210
603.80	0.209
604.01	0.209
604.21	0.208
604.41	0.208
604.61	0.207
604.82	0.206
605.02	0.207
605.22	0.206
605.42	0.205
605.62	0.205
605.83	0.204
606.03	0.204
606.23	0.203
606.43	0.203
606.64	0.203
606.84	0.202
607.04	0.202
607.24	0.202
607.45	0.202
607.65	0.200
607.85	0.201
608.05	0.199
608.25	0.199
608.46	0.198
608.66	0.198
608.86	0.197
609.06	0.196
609.26	0.195
609.47	0.196
609.67	0.195
609.87	0.196
610.07	0.195
610.28	0.193
610.48	0.193
610.68	0.194
610.88	0.192
611.08	0.193
611.29	0.192
611.49	0.192
611.69	0.192
611.89	0.190
612.09	0.190
612.29	0.189
612.50	0.189
612.70	0.189
612.90	0.188
613.10	0.187
613.30	0.187
613.51	0.186
613.71	0.186
613.91	0.190
614.11	0.185
614.31	0.185
614.51	0.185
614.72	0.184
614.92	0.183
615.12	0.183
615.32	0.184
615.52	0.183
615.72	0.184
615.93	0.183
616.13	0.183
616.33	0.183
616.53	0.183
616.73	0.183
616.93	0.182
617.14	0.183
617.34	0.182
617.54	0.182
617.74	0.182
617.94	0.180
618.14	0.180
618.34	0.179
618.55	0.179
618.75	0.179
618.95	0.179
619.15	0.179
619.35	0.178
619.55	0.177
619.75	0.178
619.96	0.177
620.16	0.178
620.36	0.177
620.56	0.176
620.76	0.176
620.96	0.176
621.16	0.175
621.36	0.175
621.57	0.175
621.77	0.175
621.97	0.174
622.17	0.174
622.37	0.174
622.57	0.174
622.77	0.173
622.97	0.172
623.18	0.172
623.38	0.173
623.58	0.172
623.78	0.171
623.98	0.171
624.18	0.170
624.38	0.170
624.58	0.170
624.78	0.170
624.98	0.169
625.19	0.169
625.39	0.169
625.59	0.169
625.79	0.169
625.99	0.169
626.19	0.169
626.39	0.168
626.59	0.168
626.79	0.168
626.99	0.168
627.19	0.168
627.40	0.168
627.60	0.168
627.80	0.168
628.00	0.168
628.20	0.167
628.40	0.167
628.60	0.167
628.80	0.166
629.00	0.166
629.20	0.165
629.40	0.165
629.60	0.164
629.80	0.164
630.00	0.164
630.20	0.164
630.41	0.163
630.61	0.163
630.81	0.163
631.01	0.164
631.21	0.163
631.41	0.163
631.61	0.163
631.81	0.163
632.01	0.162
632.21	0.162
632.41	0.160
632.61	0.160
632.81	0.160
633.01	0.161
633.21	0.161
633.41	0.161
633.61	0.160
633.81	0.159
634.01	0.159
634.21	0.159
634.41	0.159
634.61	0.159
634.81	0.159
635.01	0.159
635.22	0.158
635.42	0.158
635.62	0.158
635.82	0.159
636.02	0.158
636.22	0.157
636.42	0.157
636.62	0.157
636.82	0.157
637.02	0.156
637.22	0.156
637.42	0.155
637.62	0.154
637.82	0.155
638.02	0.154
638.22	0.154
638.42	0.153
638.62	0.153
638.82	0.153
639.02	0.153
639.22	0.152
639.42	0.152
639.62	0.152
639.82	0.151
640.02	0.151
640.22	0.151
640.42	0.151
640.62	0.151
640.82	0.151
641.02	0.150
641.22	0.150
641.42	0.150
641.61	0.150
641.81	0.150
642.01	0.149
642.21	0.150
642.41	0.150
642.61	0.149
642.81	0.149
643.01	0.149
643.21	0.149
643.41	0.149
643.61	0.149
643.81	0.149
644.01	0.147
644.21	0.147
644.41	0.148
644.61	0.147
644.81	0.147
645.01	0.147
645.21	0.146
645.41	0.146
645.61	0.146
645.81	0.145
646.01	0.145
646.21	0.146
646.40	0.145
646.60	0.145
646.80	0.145
647.00	0.145
647.20	0.144
647.40	0.144
647.60	0.143
647.80	0.143
648.00	0.144
648.20	0.143
648.40	0.143
648.60	0.143
648.80	0.142
649.00	0.142
649.20	0.143
649.39	0.142
649.59	0.142
649.79	0.142
649.99	0.142
650.19	0.141
650.39	0.141
650.59	0.141
650.79	0.141
650.99	0.141
651.19	0.140
651.39	0.140
651.58	0.139
651.78	0.139
651.98	0.139
652.18	0.139
652.38	0.139
652.58	0.139
652.78	0.138
652.98	0.138
653.18	0.138
653.38	0.138
653.57	0.138
653.77	0.138
653.97	0.137
654.17	0.137
654.37	0.137
654.57	0.137
654.77	0.137
654.97	0.136
655.16	0.136
655.36	0.136
655.56	0.135
655.76	0.134
655.96	0.135
656.16	0.134
656.36	0.134
656.56	0.134
656.75	0.134
656.95	0.133
657.15	0.133
657.35	0.133
657.55	0.133
657.75	0.133
657.95	0.133
658.14	0.133
658.34	0.133
658.54	0.133
658.74	0.132
658.94	0.132
659.14	0.132
659.34	0.131
659.53	0.131
659.73	0.130
659.93	0.130
660.13	0.130
660.33	0.130
660.53	0.130
660.72	0.130
660.92	0.129
661.12	0.129
661.32	0.129
661.52	0.129
661.72	0.128
661.91	0.128
662.11	0.128
662.31	0.128
662.51	0.128
662.71	0.127
662.90	0.127
663.10	0.127
663.30	0.126
663.50	0.126
663.70	0.126
663.90	0.126
664.09	0.126
664.29	0.125
664.49	0.125
664.69	0.125
664.89	0.124
665.08	0.124
665.28	0.124
665.48	0.124
665.68	0.123
665.88	0.123
666.07	0.123
666.27	0.123
666.47	0.123
666.67	0.123
666.87	0.123
667.06	0.122
667.26	0.122
667.46	0.121
667.66	0.122
667.85	0.122
668.05	0.122
668.25	0.122
668.45	0.121
668.65	0.121
668.84	0.121
669.04	0.121
669.24	0.121
669.44	0.121
669.63	0.121
669.83	0.121
670.03	0.120
670.23	0.119
670.42	0.119
670.62	0.119
670.82	0.118
671.02	0.118
671.22	0.117
671.41	0.117
671.61	0.117
671.81	0.117
672.01	0.117
672.20	0.117
672.40	0.116
672.60	0.116
672.80	0.116
672.99	0.116
673.19	0.116
673.39	0.116
673.58	0.115
673.78	0.115
673.98	0.115
674.18	0.114
674.37	0.114
674.57	0.114
674.77	0.114
674.97	0.114
675.16	0.114
675.36	0.113
675.56	0.113
675.75	0.113
675.95	0.113
676.15	0.113
676.35	0.113
676.54	0.113
676.74	0.112
676.94	0.113
677.13	0.112
677.33	0.112
677.53	0.112
677.73	0.112
677.92	0.111
678.12	0.111
678.32	0.111
678.51	0.110
678.71	0.110
678.91	0.110
679.11	0.109
679.30	0.109
679.50	0.109
679.70	0.109
679.89	0.109
680.09	0.109
680.29	0.109
680.48	0.109
680.68	0.109
680.88	0.108
681.07	0.109
681.27	0.108
681.47	0.108
681.66	0.108
681.86	0.108
682.06	0.107
682.25	0.107
682.45	0.107
682.65	0.107
682.84	0.106
683.04	0.106
683.24	0.106
683.43	0.106
683.63	0.106
683.83	0.106
684.02	0.105
684.22	0.106
684.42	0.106
684.61	0.106
684.81	0.105
685.01	0.105
685.20	0.105
685.40	0.105
685.60	0.105
685.79	0.104
685.99	0.104
686.19	0.104
686.38	0.104
686.58	0.104
686.77	0.104
686.97	0.104
687.17	0.104
687.36	0.104
687.56	0.103
687.76	0.103
687.95	0.103
688.15	0.103
688.34	0.103
688.54	0.102
688.74	0.101
688.93	0.101
689.13	0.100
689.33	0.100
689.52	0.100
689.72	0.100
689.91	0.100
690.11	0.099
690.31	0.099
690.50	0.099
690.70	0.099
690.89	0.099
691.09	0.098
691.29	0.099
691.48	0.098
691.68	0.098
691.87	0.097
692.07	0.098
692.27	0.098
692.46	0.098
692.66	0.098
692.85	0.097
693.05	0.098
693.25	0.098
693.44	0.097
693.64	0.098
693.83	0.098
694.03	0.098
694.22	0.097
694.42	0.097
694.62	0.097
694.81	0.097
695.01	0.097
695.20	0.096
695.40	0.096
695.59	0.096
695.79	0.095
695.99	0.095
696.18	0.095
696.38	0.095
696.57	0.095
696.77	0.094
696.96	0.095
697.16	0.095
697.36	0.095
697.55	0.094
697.75	0.094
697.94	0.094
698.14	0.094
698.33	0.094
698.53	0.093
698.72	0.093
698.92	0.093
699.11	0.093
699.31	0.093
699.51	0.093
699.70	0.092
699.90	0.092
700.09	0.092
700.29	0.092
700.48	0.092
700.68	0.092
700.87	0.092
701.07	0.092
701.26	0.092
701.46	0.092
701.65	0.092
701.85	0.092
702.04	0.092
702.24	0.091
702.43	0.091
702.63	0.091
702.82	0.091
703.02	0.090
703.21	0.091
703.41	0.090
703.60	0.090
703.80	0.090
703.99	0.090
704.19	0.090
704.38	0.090
704.58	0.089
704.77	0.090
704.97	0.090
705.16	0.090
705.36	0.090
705.55	0.090
705.75	0.090
705.94	0.090
706.14	0.090
706.33	0.089
706.53	0.089
706.72	0.089
706.92	0.089
707.11	0.089
707.31	0.088
707.50	0.088
707.70	0.088
707.89	0.088
708.09	0.088
708.28	0.088
708.48	0.088
708.67	0.088
708.86	0.088
709.06	0.088
709.25	0.087
709.45	0.088
709.64	0.087
709.84	0.087
710.03	0.087
710.23	0.087
710.42	0.087
710.62	0.087
710.81	0.087
711.00	0.087
711.20	0.087
711.39	0.087
711.59	0.086
711.78	0.086
711.98	0.086
712.17	0.086
712.37	0.085
712.56	0.085
712.75	0.085
712.95	0.085
713.14	0.085
713.34	0.085
713.53	0.085
713.73	0.085
713.92	0.085
714.11	0.085
714.31	0.085
714.50	0.085
714.70	0.085
714.89	0.085
715.08	0.086
715.28	0.086
715.47	0.085
715.67	0.085
715.86	0.085
716.06	0.085
716.25	0.085
716.44	0.084
716.64	0.084
716.83	0.084
717.03	0.084
717.22	0.084
717.41	0.084
717.61	0.083
717.80	0.084
717.99	0.084
718.19	0.084
718.38	0.084
718.58	0.084
718.77	0.083
718.96	0.083
719.16	0.083
719.35	0.083
719.55	0.083
719.74	0.083
719.93	0.083
720.13	0.082
720.32	0.082
720.51	0.082
720.71	0.082
720.90	0.082
721.10	0.082
721.29	0.082
721.48	0.082
721.68	0.082
721.87	0.082
722.06	0.082
722.26	0.083
722.45	0.083
722.64	0.083
722.84	0.083
723.03	0.083
723.22	0.084
723.42	0.084
723.61	0.084
723.80	0.084
724.00	0.084
724.19	0.083
724.38	0.083
724.58	0.083
724.77	0.083
724.96	0.083
725.16	0.083
725.35	0.082
725.54	0.082
725.74	0.082
725.93	0.082
726.12	0.082
726.32	0.083
726.51	0.083
726.70	0.083
726.90	0.083
727.09	0.082
727.28	0.082
727.48	0.083
727.67	0.082
727.86	0.082
728.06	0.083
728.25	0.082
728.44	0.082
728.64	0.082
728.83	0.083
729.02	0.082
729.21	0.083
729.41	0.083
729.60	0.082
729.79	0.082
729.99	0.082
730.18	0.082
730.37	0.082
730.56	0.082
730.76	0.082
730.95	0.082
731.14	0.082
731.34	0.082
731.53	0.082
731.72	0.082
731.91	0.082
732.11	0.082
732.30	0.082
732.49	0.082
732.69	0.082
732.88	0.082
733.07	0.082
733.26	0.082
733.46	0.081
733.65	0.082
733.84	0.082
734.03	0.082
734.23	0.082
734.42	0.082
734.61	0.082
734.80	0.082
735.00	0.082
735.19	0.082
735.38	0.082
735.57	0.082
735.77	0.082
735.96	0.082
736.15	0.082
736.34	0.082
736.54	0.082
736.73	0.082
736.92	0.082
737.11	0.082
737.31	0.082
737.50	0.082
737.69	0.082
737.88	0.082
738.07	0.082
738.27	0.082
738.46	0.082
738.65	0.082
738.84	0.082
739.04	0.082
739.23	0.082
739.42	0.083
739.61	0.082
739.80	0.082
740.00	0.082
740.19	0.082
740.38	0.082
740.57	0.082
740.76	0.082
740.96	0.081
741.15	0.081
741.34	0.081
741.53	0.081
741.72	0.081
741.92	0.081
742.11	0.081
742.30	0.080
742.49	0.080
742.68	0.081
742.88	0.081
743.07	0.081
743.26	0.081
743.45	0.081
743.64	0.080
743.84	0.080
744.03	0.080
744.22	0.080
744.41	0.080
744.60	0.080
744.79	0.080
744.99	0.080
745.18	0.080
745.37	0.080
745.56	0.080
745.75	0.080
745.94	0.079
746.14	0.080
746.33	0.080
746.52	0.080
746.71	0.080
746.90	0.079
747.09	0.079
747.28	0.079
747.48	0.079
747.67	0.079
747.86	0.079
748.05	0.079
748.24	0.079
748.43	0.079
748.62	0.078
748.82	0.079
749.01	0.078
749.20	0.078
749.39	0.078
749.58	0.078
749.77	0.078
749.96	0.078
750.16	0.078
750.35	0.078
750.54	0.078
750.73	0.078
750.92	0.078
751.11	0.078
751.30	0.078
751.49	0.079
751.68	0.078
751.88	0.078
752.07	0.078
752.26	0.078
752.45	0.078
752.64	0.077
752.83	0.078
753.02	0.078
753.21	0.077
753.40	0.077
753.60	0.077
753.79	0.077
753.98	0.077
754.17	0.077
754.36	0.077
754.55	0.077
754.74	0.077
754.93	0.077
755.12	0.077
755.31	0.077
755.50	0.077
755.70	0.077
755.89	0.076
756.08	0.076
756.27	0.076
756.46	0.076
756.65	0.076
756.84	0.076
757.03	0.076
757.22	0.075
757.41	0.076
757.60	0.075
757.79	0.076
757.98	0.076
758.17	0.076
758.36	0.076
758.56	0.076
758.75	0.075
758.94	0.076
759.13	0.076
759.32	0.076
759.51	0.076
759.70	0.076
759.89	0.076
760.08	0.076
760.27	0.075
760.46	0.075
760.65	0.076
760.84	0.076
761.03	0.075
761.22	0.075
761.41	0.075
761.60	0.075
761.79	0.075
761.98	0.075
762.17	0.075
762.36	0.075
762.55	0.075
762.74	0.074
762.93	0.074
763.12	0.074
763.31	0.074
763.50	0.074
763.69	0.074
763.88	0.074
764.07	0.074
764.26	0.074
764.45	0.074
764.64	0.074
764.83	0.074
765.02	0.074
765.21	0.074
765.40	0.074
765.59	0.074
765.78	0.074
765.97	0.074
766.16	0.074
766.35	0.074
766.54	0.074
766.73	0.074
766.92	0.074
767.11	0.074
767.30	0.074
767.49	0.074
767.68	0.074
767.87	0.074
768.06	0.074
768.25	0.074
768.44	0.074
768.63	0.074
768.82	0.074
769.01	0.073
769.20	0.073
769.39	0.074
769.58	0.074
769.77	0.074
769.96	0.074
770.15	0.074
770.34	0.074
770.53	0.073
770.72	0.073
770.91	0.073
771.10	0.073
771.29	0.073
771.47	0.072
771.66	0.072
771.85	0.073
772.04	0.073
772.23	0.073
772.42	0.072
772.61	0.073
772.80	0.073
772.99	0.072
773.18	0.072
773.37	0.073
773.56	0.073
773.75	0.073
773.94	0.073
774.13	0.072
774.31	0.072
774.50	0.072
774.69	0.072
774.88	0.072
775.07	0.072
775.26	0.072
775.45	0.071
775.64	0.071
775.83	0.071
776.02	0.071
776.21	0.072
776.40	0.072
776.58	0.072
776.77	0.072
776.96	0.072
777.15	0.072
777.34	0.072
777.53	0.072
777.72	0.072
777.91	0.072
778.10	0.072
778.28	0.071
778.47	0.071
778.66	0.071
778.85	0.070
779.04	0.070
779.23	0.070
779.42	0.070
779.61	0.070
779.79	0.070
779.98	0.070
780.17	0.070
780.36	0.070
780.55	0.069
780.74	0.069
780.93	0.069
781.12	0.069
781.30	0.069
781.49	0.069
781.68	0.069
781.87	0.070
782.06	0.069
782.25	0.069
782.44	0.069
782.62	0.070
782.81	0.070
783.00	0.070
783.19	0.070
783.38	0.069
783.57	0.069
783.75	0.069
783.94	0.069
784.13	0.069
784.32	0.069
784.51	0.069
784.70	0.069
784.88	0.069
785.07	0.069
785.26	0.068
785.45	0.069
785.64	0.068
785.83	0.069
786.01	0.069
786.20	0.069
786.39	0.069
786.58	0.069
786.77	0.068
786.95	0.068
787.14	0.069
787.33	0.069
787.52	0.069
787.71	0.069
787.90	0.068
788.08	0.069
788.27	0.068
788.46	0.068
788.65	0.069
788.84	0.069
789.02	0.069
789.21	0.069
789.40	0.069
789.59	0.069
789.77	0.069
789.96	0.069
790.15	0.069
790.34	0.069
790.53	0.069
790.71	0.068
790.90	0.069
791.09	0.068
791.28	0.069
791.46	0.069
791.65	0.068
791.84	0.068
792.03	0.068
792.22	0.068
792.40	0.067
792.59	0.068
792.78	0.068
792.97	0.068
793.15	0.068
793.34	0.068
793.53	0.068
793.72	0.068
793.90	0.067
794.09	0.068
794.28	0.068
794.47	0.068
794.65	0.068
794.84	0.068
795.03	0.067
795.22	0.067
795.40	0.067
795.59	0.067
795.78	0.067
795.97	0.067
796.15	0.067
796.34	0.067
796.53	0.067
796.71	0.068
796.90	0.067
797.09	0.068
797.28	0.067
797.46	0.067
797.65	0.067
797.84	0.067
798.02	0.067
798.21	0.067
798.40	0.067
798.59	0.066
798.77	0.066
798.96	0.066
799.15	0.066
799.33	0.066
799.52	0.066
799.71	0.066
799.90	0.066
800.08	0.066
800.27	0.066
800.46	0.066
800.64	0.066
800.83	0.066
801.02	0.066
801.20	0.066
801.39	0.066
801.58	0.066
801.76	0.066
801.95	0.066
802.14	0.066
802.32	0.066
802.51	0.066
802.70	0.066
802.88	0.065
803.07	0.066
803.26	0.066
803.44	0.065
803.63	0.065
803.82	0.065
804.00	0.065
804.19	0.065
804.38	0.066
804.56	0.066
804.75	0.066
804.94	0.066
805.12	0.066
805.31	0.066
805.50	0.066
805.68	0.066
805.87	0.066
806.06	0.066
806.24	0.066
806.43	0.066
806.62	0.066
806.80	0.066
806.99	0.066
807.17	0.065
807.36	0.065
807.55	0.066
807.73	0.066
807.92	0.066
808.11	0.066
808.29	0.065
808.48	0.065
808.66	0.065
808.85	0.065
809.04	0.065
809.22	0.065
809.41	0.065
809.59	0.065
809.78	0.065
809.97	0.064
810.15	0.065
810.34	0.065
810.53	0.065
810.71	0.064
810.90	0.065
811.08	0.064
811.27	0.064
811.45	0.064
811.64	0.064
811.83	0.065
812.01	0.065
812.20	0.065
812.38	0.065
812.57	0.065
812.76	0.065
812.94	0.065
813.13	0.065
813.31	0.065
813.50	0.065
813.68	0.065
813.87	0.065
814.06	0.065
814.24	0.064
814.43	0.064
814.61	0.064
814.80	0.064
814.98	0.065
815.17	0.065
815.36	0.065
815.54	0.064
815.73	0.064
815.91	0.064
816.10	0.064
816.28	0.064
816.47	0.064
816.65	0.064
816.84	0.064
817.03	0.065
817.21	0.065
817.40	0.065
817.58	0.065
817.77	0.065
817.95	0.066
818.14	0.066
818.32	0.066
818.51	0.066
818.69	0.066
818.88	0.066
819.06	0.066
819.25	0.066
819.43	0.065
819.62	0.065
819.80	0.065
819.99	0.065
820.18	0.065
820.36	0.065
820.55	0.065
820.73	0.065
820.92	0.065
821.10	0.064
821.29	0.064
821.47	0.064
821.66	0.064
821.84	0.064
822.03	0.064
822.21	0.064
822.40	0.064
822.58	0.064
822.77	0.064
822.95	0.065
823.14	0.065
823.32	0.065
823.50	0.065
823.69	0.065
823.87	0.065
824.06	0.066
824.24	0.066
824.43	0.066
824.61	0.066
824.80	0.066
824.98	0.066
825.17	0.067
825.35	0.067
825.54	0.067
825.72	0.067
825.91	0.067
826.09	0.067
826.28	0.066
826.46	0.067
826.64	0.067
826.83	0.067
827.01	0.067
827.20	0.067
827.38	0.067
827.57	0.067
827.75	0.067
827.94	0.067
828.12	0.067
828.31	0.068
828.49	0.068
828.67	0.068
828.86	0.068
829.04	0.068
829.23	0.068
829.41	0.069
829.60	0.068
829.78	0.069
829.96	0.069
830.15	0.069
830.33	0.069
830.52	0.070
830.70	0.070
830.88	0.070
831.07	0.070
831.25	0.070
831.44	0.070
831.62	0.069
831.81	0.069
831.99	0.069
832.17	0.070
832.36	0.070
832.54	0.069
832.73	0.070
832.91	0.069
833.09	0.069
833.28	0.070
833.46	0.070
833.65	0.070
833.83	0.070
834.01	0.071
834.20	0.070
834.38	0.070
834.56	0.071
834.75	0.071
834.93	0.071
835.12	0.071
835.30	0.071
835.48	0.071
835.67	0.071
835.85	0.071
836.03	0.071
836.22	0.071
836.40	0.070
836.59	0.071
836.77	0.071
836.95	0.071
837.14	0.071
837.32	0.070
837.50	0.070
837.69	0.070
837.87	0.071
838.05	0.071
838.24	0.071
838.42	0.071
838.60	0.071
838.79	0.072
838.97	0.071
839.15	0.072
839.34	0.072
839.52	0.072
839.70	0.072
839.89	0.072
840.07	0.072
840.25	0.072
840.44	0.071
840.62	0.071
840.80	0.071
840.99	0.072
841.17	0.071
841.35	0.071
841.54	0.071
841.72	0.071
841.90	0.071
842.09	0.071
842.27	0.071
842.45	0.072
842.64	0.072
842.82	0.072
843.00	0.072
843.19	0.071
843.37	0.071
843.55	0.071
843.73	0.071
843.92	0.071
844.10	0.071
844.28	0.072
844.47	0.072
844.65	0.072
844.83	0.072
845.01	0.072
845.20	0.072
845.38	0.072
845.56	0.072
845.75	0.072
845.93	0.072
846.11	0.072
846.29	0.072
846.48	0.072
846.66	0.072
846.84	0.072
847.02	0.072
847.21	0.072
847.39	0.072
847.57	0.072
847.76	0.073
847.94	0.073
848.12	0.073
848.30	0.073
848.49	0.073
848.67	0.073
848.85	0.073
849.03	0.074
849.22	0.073
849.40	0.074
849.58	0.074
849.76	0.074
849.95	0.074
850.13	0.074
850.31	0.074
850.49	0.074
850.67	0.074
850.86	0.074
851.04	0.073
851.22	0.073
851.40	0.073
851.59	0.073
851.77	0.073
851.95	0.073
852.13	0.073
852.31	0.073
852.50	0.073
852.68	0.074
852.86	0.073
853.04	0.073
853.23	0.073
853.41	0.073
853.59	0.073
853.77	0.074
853.95	0.074
854.14	0.073
854.32	0.073
854.50	0.073
854.68	0.073
854.86	0.073
855.04	0.073
855.23	0.073
855.41	0.074
855.59	0.074
855.77	0.074
855.95	0.074
856.14	0.074
856.32	0.075
856.50	0.074
856.68	0.075
856.86	0.074
857.04	0.074
857.23	0.074
857.41	0.074
857.59	0.074
857.77	0.074
857.95	0.073
858.13	0.074
858.32	0.074
858.50	0.074
858.68	0.074
858.86	0.074
859.04	0.074
859.22	0.074
859.41	0.074
859.59	0.074
859.77	0.074
859.95	0.074
860.13	0.074
860.31	0.074
860.49	0.074
860.68	0.074
860.86	0.074
861.04	0.074
861.22	0.074
861.40	0.074
861.58	0.074
861.76	0.074
861.94	0.075
862.13	0.075
862.31	0.075
862.49	0.075
862.67	0.075
862.85	0.075
863.03	0.075
863.21	0.075
863.39	0.075
863.57	0.075
863.76	0.075
863.94	0.075
864.12	0.075
864.30	0.075
864.48	0.075
864.66	0.075
864.84	0.075
865.02	0.074
865.20	0.074
865.38	0.074
865.57	0.074
865.75	0.074
865.93	0.074
866.11	0.074
866.29	0.074
866.47	0.075
866.65	0.075
866.83	0.075
867.01	0.075
867.19	0.075
867.37	0.075
867.55	0.075
867.73	0.075
867.92	0.075
868.10	0.075
868.28	0.075
868.46	0.075
868.64	0.075
868.82	0.075
869.00	0.075
869.18	0.075
869.36	0.076
869.54	0.076
869.72	0.076
869.90	0.076
870.08	0.076
870.26	0.076
870.44	0.076
870.62	0.076
870.80	0.076
870.98	0.076
871.16	0.076
871.34	0.076
871.53	0.076
871.71	0.076
871.89	0.076
872.07	0.076
872.25	0.076
872.43	0.076
872.61	0.076
872.79	0.076
872.97	0.077
873.15	0.077
873.33	0.077
873.51	0.077
873.69	0.077
873.87	0.077
874.05	0.077
874.23	0.077
874.41	0.077
874.59	0.078
874.77	0.077
874.95	0.077
875.13	0.077
875.31	0.077
875.49	0.077
875.67	0.077
875.85	0.077
876.03	0.077
876.21	0.078
876.39	0.077
876.57	0.077
876.75	0.078
876.93	0.077
877.11	0.077
877.29	0.077
877.47	0.077
877.65	0.077
877.82	0.077
878.00	0.077
878.18	0.077
878.36	0.077
878.54	0.077
878.72	0.077
878.90	0.077
879.08	0.077
879.26	0.077
879.44	0.077
879.62	0.078
879.80	0.078
879.98	0.078
880.16	0.078
880.34	0.078
880.52	0.078
880.70	0.078
880.88	0.078
881.06	0.078
881.24	0.077
881.42	0.077
881.59	0.077
881.77	0.077
881.95	0.077
882.13	0.077
882.31	0.077
882.49	0.077
882.67	0.077
882.85	0.077
883.03	0.077
883.21	0.078
883.39	0.078
883.57	0.078
883.75	0.078
883.92	0.078
884.10	0.078
884.28	0.078
884.46	0.079
884.64	0.079
884.82	0.079
885.00	0.079
885.18	0.079
885.36	0.079
885.54	0.079
885.71	0.079
885.89	0.079
886.07	0.079
886.25	0.079
886.43	0.079
886.61	0.079
886.79	0.079
886.97	0.079
887.15	0.079
887.32	0.079
887.50	0.079
887.68	0.079
887.86	0.079
888.04	0.079
888.22	0.079
888.40	0.080
888.57	0.080
888.75	0.080
888.93	0.080
889.11	0.080
889.29	0.080
889.47	0.080
889.65	0.080
889.82	0.080
890.00	0.081
890.18	0.081
890.36	0.080
890.54	0.081
890.72	0.081
890.90	0.081
891.07	0.081
891.25	0.080
891.43	0.080
891.61	0.080
891.79	0.080
891.97	0.080
892.14	0.080
892.32	0.080
892.50	0.080
892.68	0.080
892.86	0.080
893.03	0.080
893.21	0.081
893.39	0.081
893.57	0.081
893.75	0.081
893.93	0.081
894.10	0.081
894.28	0.081
894.46	0.081
894.64	0.081
894.82	0.081
894.99	0.081
895.17	0.081
895.35	0.081
895.53	0.081
895.71	0.081
895.88	0.081
896.06	0.081
896.24	0.081
896.42	0.082
896.59	0.082
896.77	0.082
896.95	0.081
897.13	0.081
897.31	0.081
897.48	0.081
897.66	0.081
897.84	0.081
898.02	0.081
898.19	0.082
898.37	0.082
898.55	0.082
898.73	0.082
898.91	0.082
899.08	0.082
899.26	0.082
899.44	0.082
899.62	0.083
899.79	0.083
899.97	0.083
900.15	0.083
900.33	0.083
900.50	0.083
900.68	0.082
900.86	0.082
901.04	0.083
901.21	0.083
901.39	0.083
901.57	0.083
901.74	0.082
901.92	0.082
902.10	0.083
902.28	0.083
902.45	0.083
902.63	0.083
902.81	0.083
902.99	0.083
903.16	0.083
903.34	0.083
903.52	0.083
903.69	0.083
903.87	0.083
904.05	0.084
904.22	0.084
904.40	0.084
904.58	0.084
904.76	0.084
904.93	0.084
905.11	0.084
905.29	0.084
905.46	0.084
905.64	0.084
905.82	0.084
905.99	0.084
906.17	0.084
906.35	0.084
906.53	0.084
906.70	0.084
906.88	0.085
907.06	0.085
907.23	0.085
907.41	0.085
907.59	0.085
907.76	0.085
907.94	0.086
908.12	0.086
908.29	0.086
908.47	0.086
908.65	0.086
908.82	0.086
909.00	0.086
909.18	0.087
909.35	0.086
909.53	0.086
909.71	0.086
909.88	0.086
910.06	0.086
910.23	0.086
910.41	0.086
910.59	0.086
910.76	0.085
910.94	0.085
911.12	0.085
911.29	0.086
911.47	0.086
911.65	0.086
911.82	0.086
912.00	0.087
912.17	0.087
912.35	0.087
912.53	0.087
912.70	0.087
912.88	0.087
913.06	0.088
913.23	0.088
913.41	0.088
913.58	0.088
913.76	0.088
913.94	0.088
914.11	0.089
914.29	0.089
914.46	0.089
914.64	0.089
914.82	0.089
914.99	0.089
915.17	0.089
915.34	0.089
915.52	0.089
915.70	0.089
915.87	0.090
916.05	0.090
916.22	0.090
916.40	0.090
916.57	0.090
916.75	0.090
916.93	0.090
917.10	0.090
917.28	0.090
917.45	0.090
917.63	0.090
917.80	0.090
917.98	0.090
918.16	0.090
918.33	0.090
918.51	0.090
918.68	0.091
918.86	0.091
919.03	0.092
919.21	0.092
919.39	0.092
919.56	0.093
919.74	0.093
919.91	0.093
920.09	0.093
920.26	0.093
920.44	0.094
920.61	0.094
920.79	0.094
920.96	0.093
921.14	0.094
921.31	0.094
921.49	0.094
921.67	0.094
921.84	0.094
922.02	0.094
922.19	0.094
922.37	0.095
922.54	0.095
922.72	0.095
922.89	0.096
923.07	0.096
923.24	0.096
923.42	0.096
923.59	0.097
923.77	0.097
923.94	0.098
924.12	0.098
924.29	0.098
924.47	0.099
924.64	0.099
924.82	0.099
924.99	0.100
925.17	0.100
925.34	0.100
925.52	0.101
925.69	0.101
925.87	0.101
926.04	0.101
926.22	0.102
926.39	0.102
926.57	0.102
926.74	0.102
926.91	0.103
927.09	0.103
927.26	0.103
927.44	0.103
927.61	0.104
927.79	0.104
927.96	0.105
928.14	0.106
928.31	0.106
928.49	0.106
928.66	0.106
928.84	0.107
929.01	0.107
929.18	0.108
929.36	0.109
929.53	0.109
929.71	0.109
929.88	0.109
930.06	0.109
930.23	0.110
930.41	0.111
930.58	0.111
930.75	0.111
930.93	0.112
931.10	0.111
931.28	0.112
931.45	0.112
931.63	0.113
931.80	0.113
931.97	0.114
932.15	0.115
932.32	0.115
932.50	0.115
932.67	0.116
932.84	0.116
933.02	0.117
933.19	0.117
933.37	0.118
933.54	0.118
933.71	0.118
933.89	0.119
934.06	0.119
934.24	0.120
934.41	0.120
934.58	0.121
934.76	0.121
934.93	0.122
935.11	0.122
935.28	0.122
935.45	0.122
935.63	0.123
935.80	0.123
935.98	0.123
936.15	0.123
936.32	0.123
936.50	0.124
936.67	0.124
936.84	0.125
937.02	0.126
937.19	0.127
937.36	0.128
937.54	0.128
937.71	0.130
937.89	0.130
938.06	0.131
938.23	0.131
938.41	0.132
938.58	0.132
938.75	0.132
938.93	0.133
939.10	0.133
939.27	0.133
939.45	0.134
939.62	0.135
939.79	0.136
939.97	0.136
940.14	0.137
940.31	0.137
940.49	0.138
940.66	0.138
940.83	0.138
941.01	0.139
941.18	0.140
941.35	0.140
941.53	0.141
941.70	0.142
941.87	0.142
942.05	0.143
942.22	0.143
942.39	0.145
942.57	0.145
942.74	0.146
942.91	0.147
943.08	0.147
943.26	0.147
943.43	0.148
943.60	0.149
943.78	0.150
943.95	0.150
944.12	0.151
944.29	0.151
944.47	0.152
944.64	0.152
944.81	0.154
944.99	0.154
945.16	0.155
945.33	0.155
945.50	0.156
945.68	0.157
945.85	0.158
946.02	0.160
946.20	0.161
946.37	0.161
946.54	0.162
946.71	0.163
946.89	0.163
947.06	0.164
947.23	0.165
947.40	0.166
947.58	0.166
947.75	0.168
947.92	0.168
948.09	0.168
948.27	0.170
948.44	0.171
948.61	0.172
948.78	0.173
948.96	0.174
949.13	0.175
949.30	0.176
949.47	0.177
949.65	0.178
949.82	0.180
949.99	0.180
950.16	0.182
950.33	0.183
950.51	0.185
950.68	0.186
950.85	0.187
951.02	0.188
951.20	0.189
951.37	0.191
951.54	0.192
951.71	0.193
951.88	0.194
952.06	0.196
952.23	0.196
952.40	0.197
952.57	0.199
952.74	0.200
952.92	0.201
953.09	0.202
953.26	0.203
953.43	0.204
953.60	0.205
953.77	0.206
953.95	0.207
954.12	0.209
954.29	0.210
954.46	0.212
954.63	0.213
954.81	0.214
954.98	0.215
955.15	0.217
955.32	0.218
955.49	0.219
955.66	0.220
955.84	0.221
956.01	0.221
956.18	0.224
956.35	0.225
956.52	0.225
956.69	0.227
956.87	0.227
957.04	0.228
957.21	0.230
957.38	0.230
957.55	0.232
957.72	0.233
957.89	0.234
958.07	0.234
958.24	0.236
958.41	0.238
958.58	0.237
958.75	0.238
958.92	0.239
959.09	0.240
959.26	0.241
959.44	0.241
959.61	0.243
959.78	0.243
959.95	0.245
960.12	0.245
960.29	0.247
960.46	0.247
960.63	0.247
960.81	0.247
960.98	0.248
961.15	0.248
961.32	0.249
961.49	0.248
961.66	0.250
961.83	0.250
962.00	0.250
962.17	0.251
962.34	0.251
962.52	0.252
962.69	0.253
962.86	0.252
963.03	0.253
963.20	0.254
963.37	0.252
963.54	0.253
963.71	0.253
963.88	0.253
964.05	0.254
964.22	0.255
964.39	0.254
964.56	0.254
964.74	0.255
964.91	0.255
965.08	0.256
965.25	0.256
965.42	0.256
965.59	0.257
965.76	0.256
965.93	0.257
966.10	0.255
966.27	0.257
966.44	0.256
966.61	0.257
966.78	0.257
966.95	0.256
967.12	0.258
967.29	0.260
967.46	0.260
967.63	0.259
967.80	0.259
967.97	0.259
968.14	0.258
968.32	0.259
968.49	0.259
968.66	0.259
968.83	0.259
969.00	0.259
969.17	0.259
969.34	0.259
969.51	0.260
969.68	0.260
969.85	0.261
970.02	0.261
970.19	0.260
970.36	0.261
970.53	0.261
970.70	0.259
970.87	0.260
971.04	0.259
971.21	0.260
971.38	0.260
971.55	0.260
971.72	0.260
971.89	0.261
972.06	0.261
972.23	0.261
972.40	0.261
972.57	0.260
972.74	0.260
972.91	0.262
973.07	0.262
973.24	0.261
973.41	0.261
973.58	0.259
973.75	0.271
973.92	0.260
974.09	0.259
974.26	0.259
974.43	0.259
974.60	0.260
974.77	0.261
974.94	0.260
975.11	0.261
975.28	0.263
975.45	0.260
975.62	0.262
975.79	0.263
975.96	0.261
976.13	0.261
976.30	0.262
976.47	0.259
976.64	0.260
976.80	0.260
976.97	0.260
977.14	0.259
977.31	0.259
977.48	0.260
977.65	0.259
977.82	0.258
977.99	0.259
978.16	0.259
978.33	0.259
978.50	0.258
978.67	0.258
978.83	0.258
979.00	0.258
979.17	0.257
979.34	0.257
979.51	0.256
979.68	0.257
979.85	0.256
980.02	0.258
980.19	0.256
980.36	0.258
980.52	0.259
980.69	0.258
980.86	0.258
981.03	0.258
981.20	0.256
981.37	0.257
981.54	0.257
981.71	0.255
981.88	0.256
982.04	0.255
982.21	0.254
982.38	0.255
982.55	0.253
982.72	0.253
982.89	0.254
983.06	0.253
983.22	0.252
983.39	0.253
983.56	0.252
983.73	0.252
983.90	0.251
984.07	0.253
984.24	0.252
984.40	0.252
984.57	0.251
984.74	0.253
984.91	0.254
985.08	0.252
985.25	0.250
985.41	0.251
985.58	0.251
985.75	0.252
985.92	0.251
986.09	0.250
986.26	0.250
986.42	0.249
986.59	0.248
986.76	0.249
986.93	0.249
987.10	0.249
987.27	0.247
987.43	0.245
987.60	0.247
987.77	0.247
987.94	0.245
988.11	0.246
988.27	0.246
988.44	0.245
988.61	0.244
988.78	0.243
988.95	0.244
989.11	0.245
989.28	0.243
989.45	0.242
989.62	0.242
989.79	0.242
989.95	0.241
990.12	0.242
990.29	0.242
990.46	0.240
990.62	0.238
990.79	0.238
990.96	0.238
991.13	0.238
991.30	0.237
991.46	0.236
991.63	0.235
991.80	0.233
991.97	0.234
992.13	0.235
992.30	0.236
992.47	0.235
992.64	0.235
992.80	0.235
992.97	0.236
993.14	0.233
993.31	0.230
993.47	0.233
993.64	0.232
993.81	0.230
993.98	0.230
994.14	0.229
994.31	0.228
994.48	0.229
994.64	0.229
994.81	0.227
994.98	0.228
995.15	0.225
995.31	0.225
995.48	0.225
995.65	0.227
995.82	0.224
995.98	0.224
996.15	0.225
996.32	0.227
996.48	0.226
996.65	0.225
996.82	0.224
996.99	0.225
997.15	0.224
997.32	0.226
997.49	0.224
997.65	0.225
997.82	0.224
997.99	0.222
998.15	0.222
998.32	0.223
998.49	0.221
998.65	0.221
998.82	0.221
998.99	0.219
999.15	0.219
999.32	0.218
999.49	0.219
999.65	0.219
999.82	0.216
999.99	0.216
1000.15	0.217
1000.32	0.216
1000.49	0.216
1000.65	0.215
1000.82	0.215
1000.99	0.215
1001.15	0.215
1001.32	0.215
1001.49	0.215
1001.65	0.216
1001.82	0.218
1001.99	0.215
1002.15	0.215
1002.32	0.215
1002.49	0.215
1002.65	0.213
1002.82	0.211
1002.99	0.210
1003.15	0.212
1003.32	0.210
1003.48	0.210
1003.65	0.210
1003.82	0.208
1003.98	0.205
1004.15	0.204
1004.32	0.205
1004.48	0.206
1004.65	0.207
1004.81	0.204
1004.98	0.203
1005.15	0.204
1005.31	0.203
1005.48	0.202
1005.64	0.202
1005.81	0.205
1005.98	0.201
1006.14	0.200
1006.31	0.200
1006.47	0.199
1006.64	0.198
1006.81	0.198
1006.97	0.198
1007.14	0.197
1007.30	0.199
1007.47	0.199
1007.63	0.196
1007.80	0.196
1007.97	0.196
1008.13	0.197
1008.30	0.197
1008.46	0.197
1008.63	0.195
1008.79	0.195
1008.96	0.196
1009.13	0.197
1009.29	0.194
1009.46	0.194
1009.62	0.194
1009.79	0.192
1009.95	0.192
1010.12	0.193
1010.28	0.193
1010.45	0.192
1010.62	0.192
1010.78	0.190
1010.95	0.190
1011.11	0.191
1011.28	0.189
1011.44	0.192
1011.61	0.190
1011.77	0.189
1011.94	0.189
1012.10	0.188
1012.27	0.189
1012.43	0.189
1012.60	0.187
1012.76	0.187
1012.93	0.186
1013.10	0.185
1013.26	0.181
1013.43	0.183
1013.59	0.190
1013.76	0.181
1013.92	0.180
1014.09	0.178
1014.25	0.180
1014.42	0.181
1014.58	0.180
1014.75	0.183
1014.91	0.181
1015.08	0.183
1015.24	0.180
1015.41	0.181
1015.57	0.181
1015.73	0.180
1015.90	0.178
1016.06	0.180
1016.23	0.177
1016.39	0.178
1016.56	0.178
1016.72	0.177
1016.89	0.177
1017.05	0.179
1017.22	0.175
1017.38	0.176
1017.55	0.175
1017.71	0.175
1017.88	0.174
1018.04	0.176
1018.21	0.173
1018.37	0.172
1018.53	0.172
1018.70	0.170
1018.86	0.169
1019.03	0.171
1019.19	0.169
1019.36	0.168
1019.52	0.170
1019.69	0.170
1019.85	0.169
1020.01	0.169
1020.18	0.168
1020.34	0.169
1020.51	0.168
1020.67	0.170
1020.84	0.168
1021.00	0.169
1021.16	0.168
1021.33	0.169
1021.49	0.168
1021.66	0.169
1021.82	0.167
1021.98	0.168
1022.15	0.167
1022.31	0.166
1022.48	0.164
1022.64	0.166
1022.80	0.165
1022.97	0.163
1023.13	0.161
1023.30	0.161
1023.46	0.162
1023.62	0.160
1023.79	0.161
1023.95	0.162
1024.12	0.161
1024.28	0.160
1024.44	0.160
1024.61	0.159
1024.77	0.159
1024.93	0.158
1025.10	0.160
1025.26	0.157
1025.43	0.157
1025.59	0.153
1025.75	0.156
1025.92	0.154
1026.08	0.154
1026.24	0.154
1026.41	0.155
1026.57	0.153
1026.73	0.151
1026.90	0.153
1027.06	0.151
1027.23	0.152
1027.39	0.152
1027.55	0.152
1027.72	0.151
1027.88	0.150
1028.04	0.151
1028.21	0.151
1028.37	0.146
1028.53	0.151
1028.70	0.150
1028.86	0.149
1029.02	0.150
1029.19	0.151
1029.35	0.150
1029.51	0.149
1029.67	0.148
1029.84	0.150
1030.00	0.144
1030.16	0.145
1030.33	0.147
1030.49	0.143
1030.65	0.141
1030.82	0.154
1030.98	0.141
1031.14	0.140
1031.31	0.141
1031.47	0.139
1031.63	0.142
1031.79	0.140
1031.96	0.141
1032.12	0.144
1032.28	0.142
1032.45	0.145
1032.61	0.146
1032.77	0.145
1032.93	0.143
1033.10	0.144
1033.26	0.146
1033.42	0.143
1033.58	0.144
1033.75	0.145
1033.91	0.143
1034.07	0.145
1034.24	0.143
1034.40	0.141
1034.56	0.141
1034.72	0.141
1034.89	0.141
1035.05	0.138
1035.21	0.138
1035.37	0.137
1035.54	0.139
1035.70	0.137
1035.86	0.137
1036.02	0.138
1036.19	0.136
1036.35	0.133
1036.51	0.138
1036.67	0.135
1036.83	0.135
1037.00	0.134
1037.16	0.134
1037.32	0.135
1037.48	0.134
1037.65	0.138
1037.81	0.134
1037.97	0.134
1038.13	0.134
1038.29	0.132
1038.46	0.130
1038.62	0.134
1038.78	0.132
1038.94	0.129
1039.10	0.133
1039.27	0.129
1039.43	0.131
1039.59	0.130
1039.75	0.129
1039.91	0.128
1040.08	0.127
1040.24	0.130
1040.40	0.132
1040.56	0.130
1040.72	0.124
1040.89	0.128
1041.05	0.131
1041.21	0.128
1041.37	0.127
1041.53	0.133
1041.69	0.130
1041.86	0.130
1042.02	0.127
1042.18	0.128
1042.34	0.129
1042.50	0.134
1042.66	0.129
1042.83	0.128
1042.99	0.130
1043.15	0.126
1043.31	0.127
1043.47	0.130
1043.63	0.127
1043.79	0.127
1043.96	0.127
1044.12	0.131
1044.28	0.127
1044.44	0.130
1044.60	0.123
1044.76	0.121
1044.92	0.125
1045.09	0.126
1045.25	0.124
1045.41	0.125
1045.57	0.120
1045.73	0.121
1045.89	0.122
1046.05	0.123
1046.21	0.129
1046.38	0.126
1046.54	0.130
1046.70	0.123
1046.86	0.118
>>>>>End Processed Spectral Data<<<<<
