SpectraSuite Data File
++++++++++++++++++++++++++++++++++++
Date: Mon May 20 12:13:52 CDT 2013
User: Students
Dark Spectrum Present: Yes
Reference Spectrum Present: Yes
Number of Sampled Component Spectra: 1
Spectrometers: USB4H00887
Integration Time (usec): 60000 (USB4H00887)
Spectra Averaged: 5 (USB4H00887)
Boxcar Smoothing: 5 (USB4H00887)
Correct for Electrical Dark: No (USB4H00887)
Strobe/Lamp Enabled: No (USB4H00887)
Correct for Detector Non-linearity: No (USB4H00887)
Correct for Stray Light: No (USB4H00887)
Number of Pixels in Processed Spectrum: 3648
>>>>>Begin Processed Spectral Data<<<<<
345.83	0.222
346.05	0.222
346.26	0.222
346.48	-0.000
346.70	0.357
346.92	0.026
347.14	0.039
347.35	0.043
347.57	0.304
347.79	-0.189
348.01	-0.198
348.23	-0.318
348.44	-0.000
348.66	0.272
348.88	-0.393
349.10	-0.201
349.32	0.078
349.53	-0.029
349.75	-0.068
349.97	-0.044
350.19	-0.021
350.41	0.047
350.62	-0.228
350.84	0.015
351.06	0.012
351.28	-0.021
351.50	-0.137
351.71	-0.113
351.93	-0.092
352.15	-0.017
352.37	-0.079
352.58	-0.027
352.80	-0.008
353.02	-0.029
353.24	-0.021
353.46	-0.052
353.67	0.017
353.89	0.005
354.11	0.027
354.33	0.031
354.54	0.084
354.76	0.143
354.98	0.325
355.20	0.253
355.41	0.129
355.63	0.258
355.85	0.112
356.07	-0.000
356.28	0.114
356.50	0.163
356.72	0.082
356.94	0.154
357.15	0.303
357.37	-0.000
357.59	0.127
357.81	0.069
358.02	0.103
358.24	0.078
358.46	0.151
358.68	0.127
358.89	0.078
359.11	-0.000
359.33	0.042
359.55	-0.248
359.76	0.045
359.98	0.048
360.20	0.064
360.42	0.056
360.63	0.051
360.85	0.009
361.07	0.057
361.29	0.026
361.50	0.148
361.72	0.066
361.94	0.237
362.15	0.086
362.37	0.055
362.59	0.063
362.81	0.115
363.02	0.190
363.24	0.289
363.46	0.187
363.68	0.224
363.89	0.147
364.11	0.198
364.33	0.244
364.54	0.159
364.76	0.167
364.98	0.176
365.20	0.214
365.41	0.145
365.63	0.181
365.85	0.111
366.06	0.305
366.28	0.318
366.50	0.226
366.71	0.096
366.93	0.152
367.15	0.182
367.37	0.156
367.58	0.181
367.80	0.191
368.02	0.609
368.23	0.173
368.45	0.185
368.67	0.169
368.88	0.148
369.10	-0.000
369.32	0.139
369.53	0.067
369.75	0.111
369.97	0.204
370.19	0.148
370.40	0.069
370.62	0.213
370.84	0.089
371.05	0.472
371.27	0.142
371.49	0.165
371.70	0.182
371.92	0.277
372.14	0.120
372.35	0.149
372.57	0.148
372.79	0.407
373.00	0.088
373.22	0.116
373.44	0.110
373.65	0.080
373.87	0.096
374.09	0.357
374.30	0.086
374.52	0.097
374.74	0.061
374.95	0.300
375.17	0.104
375.39	-0.000
375.60	0.146
375.82	0.242
376.04	0.118
376.25	0.135
376.47	0.083
376.68	0.213
376.90	0.126
377.12	0.236
377.33	0.123
377.55	0.238
377.77	0.119
377.98	0.188
378.20	0.122
378.42	0.136
378.63	0.177
378.85	-0.000
379.07	0.134
379.28	0.417
379.50	0.293
379.71	0.157
379.93	0.116
380.15	0.153
380.36	0.237
380.58	0.165
380.80	0.419
381.01	0.151
381.23	0.126
381.44	0.141
381.66	0.189
381.88	0.235
382.09	-0.095
382.31	0.149
382.53	0.154
382.74	0.958
382.96	0.191
383.17	0.174
383.39	0.198
383.61	0.242
383.82	0.180
384.04	0.190
384.25	0.248
384.47	0.226
384.69	0.219
384.90	0.201
385.12	0.411
385.33	0.270
385.55	0.201
385.77	0.353
385.98	0.197
386.20	0.246
386.41	0.212
386.63	0.224
386.85	0.197
387.06	0.243
387.28	0.422
387.49	0.275
387.71	0.212
387.93	0.186
388.14	0.502
388.36	0.193
388.57	0.183
388.79	0.199
389.01	-0.000
389.22	0.289
389.44	0.260
389.65	0.195
389.87	0.195
390.08	0.235
390.30	0.179
390.52	0.383
390.73	0.394
390.95	0.268
391.16	0.276
391.38	-0.000
391.59	0.287
391.81	0.231
392.03	0.223
392.24	0.256
392.46	0.209
392.67	0.190
392.89	0.247
393.10	0.374
393.32	0.259
393.53	0.304
393.75	0.178
393.97	0.209
394.18	0.284
394.40	0.238
394.61	0.266
394.83	0.232
395.04	0.285
395.26	0.199
395.47	0.314
395.69	0.256
395.91	0.273
396.12	0.359
396.34	0.356
396.55	0.226
396.77	0.345
396.98	-0.000
397.20	0.405
397.41	0.446
397.63	0.312
397.84	0.278
398.06	0.270
398.27	0.269
398.49	0.299
398.71	0.221
398.92	0.278
399.14	0.376
399.35	0.463
399.57	0.426
399.78	0.282
400.00	0.272
400.21	0.322
400.43	0.261
400.64	0.271
400.86	0.589
401.07	0.333
401.29	0.284
401.50	0.283
401.72	0.405
401.93	0.274
402.15	0.333
402.36	0.297
402.58	0.249
402.79	0.273
403.01	0.452
403.22	0.343
403.44	0.236
403.65	0.353
403.87	0.398
404.08	0.308
404.30	0.475
404.51	0.279
404.73	0.334
404.94	0.289
405.16	0.312
405.37	0.243
405.59	0.436
405.80	0.279
406.02	0.348
406.23	0.356
406.45	0.409
406.66	0.442
406.88	0.280
407.09	0.427
407.31	0.344
407.52	0.399
407.74	0.323
407.95	0.383
408.17	0.357
408.38	0.374
408.60	0.243
408.81	0.390
409.03	0.296
409.24	0.307
409.45	0.355
409.67	0.343
409.88	0.312
410.10	0.385
410.31	0.324
410.53	0.310
410.74	0.423
410.96	0.427
411.17	0.441
411.39	0.339
411.60	0.310
411.82	0.362
412.03	0.349
412.24	0.337
412.46	0.483
412.67	0.409
412.89	0.407
413.10	0.412
413.32	0.380
413.53	0.436
413.75	0.460
413.96	0.362
414.17	0.472
414.39	0.478
414.60	0.395
414.82	0.525
415.03	0.398
415.25	0.440
415.46	0.310
415.68	0.426
415.89	0.768
416.10	0.624
416.32	0.346
416.53	0.400
416.75	0.381
416.96	0.452
417.18	0.395
417.39	0.381
417.60	0.383
417.82	0.545
418.03	0.485
418.25	0.409
418.46	0.427
418.67	0.390
418.89	0.427
419.10	0.445
419.32	0.587
419.53	0.534
419.75	0.460
419.96	0.403
420.17	0.485
420.39	0.450
420.60	0.464
420.82	0.562
421.03	0.468
421.24	0.391
421.46	0.433
421.67	0.469
421.89	0.408
422.10	0.442
422.31	0.443
422.53	0.616
422.74	0.468
422.96	0.372
423.17	0.403
423.38	0.487
423.60	0.423
423.81	0.518
424.03	0.459
424.24	0.504
424.45	0.498
424.67	0.492
424.88	0.446
425.09	0.475
425.31	0.444
425.52	0.467
425.74	0.506
425.95	0.526
426.16	0.419
426.38	0.479
426.59	0.446
426.80	0.502
427.02	0.532
427.23	0.420
427.45	0.549
427.66	0.542
427.87	0.438
428.09	0.467
428.30	0.532
428.51	0.513
428.73	0.554
428.94	0.495
429.15	0.488
429.37	0.461
429.58	0.490
429.79	0.446
430.01	0.522
430.22	0.523
430.44	0.538
430.65	0.485
430.86	0.526
431.08	0.511
431.29	0.471
431.50	0.544
431.72	0.690
431.93	0.568
432.14	0.442
432.36	0.482
432.57	0.490
432.78	0.503
433.00	0.468
433.21	0.460
433.42	0.562
433.64	0.497
433.85	0.547
434.06	0.462
434.28	0.493
434.49	0.507
434.70	0.518
434.92	0.526
435.13	0.563
435.34	0.567
435.56	0.541
435.77	0.544
435.98	0.675
436.20	0.582
436.41	0.506
436.62	0.494
436.83	0.554
437.05	0.622
437.26	0.556
437.47	0.498
437.69	0.534
437.90	0.490
438.11	0.480
438.33	0.526
438.54	0.538
438.75	0.668
438.97	0.660
439.18	0.512
439.39	0.534
439.60	0.567
439.82	0.541
440.03	0.510
440.24	0.710
440.46	0.551
440.67	0.526
440.88	0.559
441.10	0.527
441.31	0.521
441.52	0.559
441.73	0.619
441.95	0.557
442.16	0.519
442.37	0.753
442.58	0.513
442.80	0.506
443.01	0.642
443.22	0.604
443.44	0.524
443.65	0.615
443.86	0.615
444.07	0.640
444.29	0.564
444.50	0.692
444.71	0.541
444.92	0.511
445.14	0.627
445.35	0.654
445.56	0.524
445.78	0.601
445.99	0.597
446.20	0.525
446.41	0.589
446.63	0.589
446.84	0.560
447.05	0.563
447.26	0.652
447.48	0.567
447.69	0.544
447.90	0.612
448.11	0.554
448.33	0.573
448.54	0.590
448.75	0.614
448.96	0.615
449.18	0.649
449.39	0.592
449.60	0.581
449.81	0.685
450.03	0.611
450.24	0.659
450.45	0.624
450.66	0.615
450.87	0.645
451.09	0.600
451.30	0.587
451.51	0.639
451.72	0.640
451.94	0.652
452.15	0.706
452.36	0.601
452.57	0.612
452.78	0.608
453.00	0.625
453.21	0.588
453.42	0.571
453.63	0.640
453.85	0.619
454.06	0.622
454.27	0.712
454.48	0.642
454.69	0.588
454.91	0.640
455.12	0.576
455.33	0.639
455.54	0.656
455.75	0.634
455.97	0.658
456.18	0.651
456.39	0.655
456.60	0.676
456.81	0.636
457.03	0.644
457.24	0.645
457.45	0.706
457.66	0.665
457.87	0.631
458.09	0.651
458.30	0.586
458.51	0.681
458.72	0.698
458.93	0.702
459.15	0.628
459.36	0.674
459.57	0.691
459.78	0.727
459.99	0.660
460.20	0.631
460.42	0.685
460.63	0.652
460.84	0.639
461.05	0.650
461.26	0.693
461.47	0.636
461.69	0.676
461.90	0.702
462.11	0.674
462.32	0.720
462.53	0.676
462.74	0.750
462.96	0.666
463.17	0.659
463.38	0.694
463.59	0.772
463.80	0.654
464.01	0.671
464.23	0.733
464.44	0.704
464.65	0.706
464.86	0.721
465.07	0.725
465.28	0.695
465.49	0.707
465.71	0.673
465.92	0.704
466.13	0.741
466.34	0.698
466.55	0.743
466.76	0.713
466.97	0.730
467.19	0.721
467.40	0.744
467.61	0.745
467.82	0.691
468.03	0.677
468.24	0.730
468.45	0.751
468.66	0.738
468.88	0.738
469.09	0.738
469.30	0.774
469.51	0.722
469.72	0.754
469.93	0.735
470.14	0.719
470.35	0.787
470.57	0.748
470.78	0.707
470.99	0.799
471.20	0.756
471.41	0.729
471.62	0.763
471.83	0.745
472.04	0.766
472.25	0.794
472.47	0.733
472.68	0.737
472.89	0.743
473.10	0.773
473.31	0.738
473.52	0.777
473.73	0.789
473.94	0.737
474.15	0.754
474.36	0.753
474.57	0.771
474.79	0.758
475.00	0.758
475.21	0.749
475.42	0.815
475.63	0.748
475.84	0.771
476.05	0.777
476.26	0.753
476.47	0.777
476.68	0.811
476.89	0.760
477.10	0.793
477.32	0.784
477.53	0.820
477.74	0.765
477.95	0.793
478.16	0.759
478.37	0.789
478.58	0.791
478.79	0.802
479.00	0.804
479.21	0.776
479.42	0.805
479.63	0.809
479.84	0.785
480.05	0.784
480.26	0.808
480.47	0.819
480.69	0.821
480.90	0.800
481.11	0.799
481.32	0.840
481.53	0.799
481.74	0.835
481.95	0.811
482.16	0.821
482.37	0.828
482.58	0.803
482.79	0.816
483.00	0.837
483.21	0.800
483.42	0.780
483.63	0.837
483.84	0.856
484.05	0.852
484.26	0.835
484.47	0.832
484.68	0.803
484.89	0.805
485.10	0.840
485.31	0.824
485.52	0.828
485.73	0.829
485.94	0.856
486.15	0.820
486.37	0.830
486.58	0.804
486.79	0.812
487.00	0.846
487.21	0.842
487.42	0.838
487.63	0.840
487.84	0.854
488.05	0.850
488.26	0.822
488.47	0.826
488.68	0.844
488.89	0.828
489.10	0.825
489.31	0.832
489.52	0.856
489.73	0.833
489.94	0.858
490.15	0.827
490.36	0.856
490.57	0.822
490.78	0.811
490.99	0.838
491.20	0.890
491.41	0.861
491.62	0.823
491.83	0.841
492.04	0.838
492.25	0.844
492.45	0.845
492.66	0.861
492.87	0.855
493.08	0.847
493.29	0.836
493.50	0.830
493.71	0.835
493.92	0.832
494.13	0.844
494.34	0.859
494.55	0.864
494.76	0.883
494.97	0.876
495.18	0.852
495.39	0.862
495.60	0.829
495.81	0.831
496.02	0.844
496.23	0.838
496.44	0.859
496.65	0.854
496.86	0.858
497.07	0.877
497.28	0.874
497.49	0.842
497.70	0.841
497.91	0.854
498.12	0.842
498.32	0.871
498.53	0.863
498.74	0.857
498.95	0.872
499.16	0.840
499.37	0.842
499.58	0.847
499.79	0.865
500.00	0.863
500.21	0.883
500.42	0.847
500.63	0.848
500.84	0.860
501.05	0.845
501.26	0.862
501.46	0.888
501.67	0.865
501.88	0.867
502.09	0.852
502.30	0.858
502.51	0.890
502.72	0.860
502.93	0.870
503.14	0.884
503.35	0.864
503.56	0.862
503.77	0.884
503.97	0.867
504.18	0.866
504.39	0.890
504.60	0.870
504.81	0.888
505.02	0.881
505.23	0.882
505.44	0.870
505.65	0.875
505.86	0.862
506.07	0.905
506.27	0.879
506.48	0.881
506.69	0.870
506.90	0.881
507.11	0.880
507.32	0.864
507.53	0.870
507.74	0.865
507.95	0.874
508.15	0.879
508.36	0.881
508.57	0.889
508.78	0.881
508.99	0.882
509.20	0.867
509.41	0.884
509.62	0.877
509.82	0.876
510.03	0.886
510.24	0.885
510.45	0.900
510.66	0.895
510.87	0.892
511.08	0.864
511.29	0.891
511.49	0.876
511.70	0.905
511.91	0.862
512.12	0.860
512.33	0.878
512.54	0.890
512.75	0.879
512.95	0.894
513.16	0.888
513.37	0.873
513.58	0.898
513.79	0.872
514.00	0.875
514.20	0.886
514.41	0.878
514.62	0.859
514.83	0.884
515.04	0.878
515.25	0.865
515.46	0.873
515.66	0.874
515.87	0.883
516.08	0.862
516.29	0.879
516.50	0.865
516.71	0.861
516.91	0.866
517.12	0.879
517.33	0.869
517.54	0.860
517.75	0.861
517.95	0.870
518.16	0.876
518.37	0.855
518.58	0.859
518.79	0.841
519.00	0.862
519.20	0.867
519.41	0.848
519.62	0.859
519.83	0.866
520.04	0.843
520.24	0.840
520.45	0.847
520.66	0.862
520.87	0.836
521.08	0.836
521.28	0.839
521.49	0.850
521.70	0.830
521.91	0.840
522.12	0.827
522.32	0.842
522.53	0.829
522.74	0.821
522.95	0.828
523.16	0.830
523.36	0.835
523.57	0.822
523.78	0.820
523.99	0.822
524.20	0.817
524.40	0.825
524.61	0.829
524.82	0.812
525.03	0.816
525.23	0.817
525.44	0.805
525.65	0.802
525.86	0.819
526.06	0.797
526.27	0.798
526.48	0.804
526.69	0.791
526.90	0.794
527.10	0.818
527.31	0.787
527.52	0.781
527.73	0.775
527.93	0.782
528.14	0.784
528.35	0.778
528.56	0.779
528.76	0.774
528.97	0.767
529.18	0.760
529.39	0.760
529.59	0.762
529.80	0.785
530.01	0.766
530.22	0.766
530.42	0.744
530.63	0.756
530.84	0.739
531.05	0.749
531.25	0.751
531.46	0.745
531.67	0.729
531.88	0.742
532.08	0.737
532.29	0.733
532.50	0.728
532.70	0.723
532.91	0.716
533.12	0.718
533.33	0.736
533.53	0.714
533.74	0.714
533.95	0.718
534.15	0.709
534.36	0.709
534.57	0.697
534.78	0.698
534.98	0.706
535.19	0.683
535.40	0.684
535.60	0.697
535.81	0.682
536.02	0.684
536.23	0.678
536.43	0.679
536.64	0.669
536.85	0.675
537.05	0.682
537.26	0.664
537.47	0.667
537.67	0.660
537.88	0.657
538.09	0.664
538.30	0.655
538.50	0.648
538.71	0.656
538.92	0.647
539.12	0.643
539.33	0.639
539.54	0.639
539.74	0.643
539.95	0.636
540.16	0.633
540.36	0.626
540.57	0.627
540.78	0.622
540.98	0.622
541.19	0.620
541.40	0.611
541.60	0.619
541.81	0.616
542.02	0.615
542.22	0.606
542.43	0.603
542.64	0.598
542.84	0.597
543.05	0.591
543.26	0.591
543.46	0.593
543.67	0.592
543.88	0.588
544.08	0.580
544.29	0.576
544.50	0.577
544.70	0.578
544.91	0.570
545.12	0.571
545.32	0.567
545.53	0.571
545.74	0.563
545.94	0.560
546.15	0.558
546.35	0.556
546.56	0.554
546.77	0.551
546.97	0.549
547.18	0.543
547.39	0.544
547.59	0.544
547.80	0.540
548.01	0.543
548.21	0.540
548.42	0.533
548.62	0.534
548.83	0.531
549.04	0.528
549.24	0.522
549.45	0.522
549.65	0.519
549.86	0.515
550.07	0.514
550.27	0.512
550.48	0.518
550.69	0.506
550.89	0.506
551.10	0.503
551.30	0.502
551.51	0.501
551.72	0.492
551.92	0.494
552.13	0.494
552.33	0.494
552.54	0.490
552.75	0.484
552.95	0.486
553.16	0.482
553.36	0.481
553.57	0.480
553.78	0.479
553.98	0.479
554.19	0.472
554.39	0.470
554.60	0.472
554.80	0.472
555.01	0.466
555.22	0.468
555.42	0.465
555.63	0.459
555.83	0.462
556.04	0.457
556.25	0.460
556.45	0.452
556.66	0.450
556.86	0.453
557.07	0.451
557.27	0.450
557.48	0.445
557.68	0.443
557.89	0.443
558.10	0.441
558.30	0.438
558.51	0.436
558.71	0.434
558.92	0.430
559.12	0.432
559.33	0.435
559.54	0.431
559.74	0.427
559.95	0.425
560.15	0.426
560.36	0.423
560.56	0.418
560.77	0.419
560.97	0.419
561.18	0.414
561.38	0.413
561.59	0.415
561.79	0.411
562.00	0.409
562.21	0.406
562.41	0.405
562.62	0.404
562.82	0.402
563.03	0.400
563.23	0.400
563.44	0.400
563.64	0.397
563.85	0.399
564.05	0.393
564.26	0.393
564.46	0.393
564.67	0.393
564.87	0.390
565.08	0.387
565.28	0.388
565.49	0.388
565.69	0.385
565.90	0.382
566.10	0.385
566.31	0.379
566.51	0.381
566.72	0.382
566.92	0.376
567.13	0.375
567.33	0.375
567.54	0.373
567.74	0.372
567.95	0.368
568.15	0.370
568.36	0.369
568.56	0.368
568.77	0.364
568.97	0.362
569.18	0.362
569.38	0.361
569.59	0.362
569.79	0.360
570.00	0.357
570.20	0.355
570.41	0.354
570.61	0.353
570.82	0.354
571.02	0.350
571.23	0.352
571.43	0.348
571.64	0.347
571.84	0.345
572.05	0.344
572.25	0.344
572.45	0.343
572.66	0.340
572.86	0.339
573.07	0.338
573.27	0.338
573.48	0.337
573.68	0.333
573.89	0.333
574.09	0.334
574.30	0.332
574.50	0.330
574.70	0.331
574.91	0.328
575.11	0.328
575.32	0.328
575.52	0.325
575.73	0.325
575.93	0.324
576.14	0.323
576.34	0.321
576.54	0.321
576.75	0.320
576.95	0.319
577.16	0.318
577.36	0.317
577.57	0.317
577.77	0.315
577.97	0.312
578.18	0.315
578.38	0.312
578.59	0.310
578.79	0.309
579.00	0.309
579.20	0.307
579.40	0.307
579.61	0.306
579.81	0.305
580.02	0.303
580.22	0.302
580.42	0.301
580.63	0.301
580.83	0.300
581.04	0.298
581.24	0.298
581.45	0.297
581.65	0.297
581.85	0.296
582.06	0.294
582.26	0.294
582.47	0.293
582.67	0.293
582.87	0.292
583.08	0.290
583.28	0.290
583.48	0.288
583.69	0.286
583.89	0.286
584.10	0.287
584.30	0.285
584.50	0.283
584.71	0.283
584.91	0.283
585.12	0.280
585.32	0.281
585.52	0.279
585.73	0.279
585.93	0.278
586.13	0.277
586.34	0.276
586.54	0.276
586.75	0.274
586.95	0.273
587.15	0.273
587.36	0.272
587.56	0.271
587.76	0.270
587.97	0.269
588.17	0.268
588.37	0.267
588.58	0.268
588.78	0.265
588.98	0.266
589.19	0.265
589.39	0.263
589.60	0.265
589.80	0.262
590.00	0.262
590.21	0.262
590.41	0.260
590.61	0.260
590.82	0.259
591.02	0.259
591.22	0.257
591.43	0.258
591.63	0.256
591.83	0.256
592.04	0.254
592.24	0.255
592.44	0.253
592.65	0.251
592.85	0.252
593.05	0.252
593.26	0.251
593.46	0.250
593.66	0.250
593.86	0.250
594.07	0.248
594.27	0.248
594.47	0.247
594.68	0.246
594.88	0.247
595.08	0.246
595.29	0.246
595.49	0.244
595.69	0.243
595.90	0.242
596.10	0.243
596.30	0.242
596.50	0.241
596.71	0.241
596.91	0.240
597.11	0.239
597.32	0.239
597.52	0.238
597.72	0.238
597.93	0.237
598.13	0.236
598.33	0.236
598.53	0.235
598.74	0.235
598.94	0.234
599.14	0.233
599.35	0.233
599.55	0.233
599.75	0.232
599.95	0.231
600.16	0.232
600.36	0.230
600.56	0.231
600.76	0.229
600.97	0.228
601.17	0.228
601.37	0.228
601.58	0.227
601.78	0.227
601.98	0.226
602.18	0.224
602.39	0.225
602.59	0.225
602.79	0.224
602.99	0.224
603.20	0.222
603.40	0.222
603.60	0.222
603.80	0.222
604.01	0.221
604.21	0.221
604.41	0.221
604.61	0.220
604.82	0.219
605.02	0.220
605.22	0.219
605.42	0.219
605.62	0.219
605.83	0.218
606.03	0.217
606.23	0.217
606.43	0.217
606.64	0.217
606.84	0.216
607.04	0.215
607.24	0.215
607.45	0.215
607.65	0.214
607.85	0.215
608.05	0.213
608.25	0.213
608.46	0.212
608.66	0.212
608.86	0.211
609.06	0.210
609.26	0.209
609.47	0.210
609.67	0.209
609.87	0.210
610.07	0.209
610.28	0.207
610.48	0.208
610.68	0.208
610.88	0.207
611.08	0.208
611.29	0.207
611.49	0.206
611.69	0.207
611.89	0.205
612.09	0.205
612.29	0.204
612.50	0.204
612.70	0.204
612.90	0.203
613.10	0.202
613.30	0.201
613.51	0.201
613.71	0.201
613.91	0.205
614.11	0.200
614.31	0.200
614.51	0.200
614.72	0.199
614.92	0.198
615.12	0.198
615.32	0.199
615.52	0.198
615.72	0.198
615.93	0.198
616.13	0.197
616.33	0.197
616.53	0.196
616.73	0.196
616.93	0.195
617.14	0.196
617.34	0.196
617.54	0.196
617.74	0.195
617.94	0.195
618.14	0.194
618.34	0.194
618.55	0.193
618.75	0.193
618.95	0.193
619.15	0.193
619.35	0.192
619.55	0.191
619.75	0.192
619.96	0.191
620.16	0.191
620.36	0.191
620.56	0.191
620.76	0.190
620.96	0.190
621.16	0.190
621.36	0.190
621.57	0.191
621.77	0.191
621.97	0.190
622.17	0.189
622.37	0.189
622.57	0.190
622.77	0.189
622.97	0.188
623.18	0.188
623.38	0.188
623.58	0.188
623.78	0.187
623.98	0.187
624.18	0.186
624.38	0.186
624.58	0.186
624.78	0.186
624.98	0.187
625.19	0.186
625.39	0.186
625.59	0.186
625.79	0.186
625.99	0.185
626.19	0.185
626.39	0.185
626.59	0.185
626.79	0.185
626.99	0.184
627.19	0.184
627.40	0.184
627.60	0.183
627.80	0.183
628.00	0.182
628.20	0.182
628.40	0.182
628.60	0.181
628.80	0.180
629.00	0.180
629.20	0.179
629.40	0.179
629.60	0.178
629.80	0.178
630.00	0.178
630.20	0.178
630.41	0.177
630.61	0.177
630.81	0.177
631.01	0.177
631.21	0.176
631.41	0.176
631.61	0.177
631.81	0.176
632.01	0.176
632.21	0.176
632.41	0.175
632.61	0.175
632.81	0.175
633.01	0.176
633.21	0.175
633.41	0.176
633.61	0.174
633.81	0.174
634.01	0.174
634.21	0.173
634.41	0.173
634.61	0.173
634.81	0.172
635.01	0.172
635.22	0.172
635.42	0.172
635.62	0.172
635.82	0.172
636.02	0.172
636.22	0.171
636.42	0.171
636.62	0.171
636.82	0.171
637.02	0.170
637.22	0.170
637.42	0.170
637.62	0.169
637.82	0.169
638.02	0.169
638.22	0.168
638.42	0.168
638.62	0.168
638.82	0.168
639.02	0.168
639.22	0.167
639.42	0.167
639.62	0.167
639.82	0.166
640.02	0.166
640.22	0.166
640.42	0.165
640.62	0.165
640.82	0.165
641.02	0.164
641.22	0.165
641.42	0.164
641.61	0.164
641.81	0.164
642.01	0.164
642.21	0.164
642.41	0.164
642.61	0.164
642.81	0.163
643.01	0.163
643.21	0.163
643.41	0.163
643.61	0.163
643.81	0.163
644.01	0.162
644.21	0.161
644.41	0.162
644.61	0.162
644.81	0.162
645.01	0.162
645.21	0.161
645.41	0.161
645.61	0.161
645.81	0.160
646.01	0.159
646.21	0.160
646.40	0.159
646.60	0.159
646.80	0.159
647.00	0.158
647.20	0.157
647.40	0.158
647.60	0.157
647.80	0.157
648.00	0.157
648.20	0.157
648.40	0.157
648.60	0.156
648.80	0.156
649.00	0.156
649.20	0.156
649.39	0.155
649.59	0.155
649.79	0.155
649.99	0.155
650.19	0.154
650.39	0.154
650.59	0.154
650.79	0.153
650.99	0.153
651.19	0.153
651.39	0.153
651.58	0.153
651.78	0.153
651.98	0.152
652.18	0.152
652.38	0.152
652.58	0.153
652.78	0.152
652.98	0.152
653.18	0.152
653.38	0.152
653.57	0.152
653.77	0.152
653.97	0.151
654.17	0.151
654.37	0.151
654.57	0.150
654.77	0.150
654.97	0.149
655.16	0.149
655.36	0.149
655.56	0.148
655.76	0.147
655.96	0.148
656.16	0.147
656.36	0.147
656.56	0.147
656.75	0.147
656.95	0.147
657.15	0.147
657.35	0.146
657.55	0.146
657.75	0.147
657.95	0.147
658.14	0.146
658.34	0.146
658.54	0.146
658.74	0.146
658.94	0.146
659.14	0.145
659.34	0.145
659.53	0.144
659.73	0.144
659.93	0.143
660.13	0.143
660.33	0.143
660.53	0.142
660.72	0.143
660.92	0.142
661.12	0.142
661.32	0.142
661.52	0.141
661.72	0.141
661.91	0.141
662.11	0.141
662.31	0.141
662.51	0.141
662.71	0.140
662.90	0.140
663.10	0.139
663.30	0.139
663.50	0.139
663.70	0.138
663.90	0.139
664.09	0.139
664.29	0.138
664.49	0.138
664.69	0.137
664.89	0.137
665.08	0.137
665.28	0.137
665.48	0.136
665.68	0.136
665.88	0.136
666.07	0.135
666.27	0.136
666.47	0.135
666.67	0.136
666.87	0.135
667.06	0.135
667.26	0.135
667.46	0.134
667.66	0.135
667.85	0.135
668.05	0.135
668.25	0.134
668.45	0.134
668.65	0.134
668.84	0.134
669.04	0.134
669.24	0.134
669.44	0.133
669.63	0.133
669.83	0.132
670.03	0.131
670.23	0.131
670.42	0.131
670.62	0.131
670.82	0.130
671.02	0.129
671.22	0.129
671.41	0.129
671.61	0.129
671.81	0.129
672.01	0.129
672.20	0.129
672.40	0.129
672.60	0.129
672.80	0.129
672.99	0.129
673.19	0.129
673.39	0.129
673.58	0.128
673.78	0.128
673.98	0.128
674.18	0.127
674.37	0.127
674.57	0.126
674.77	0.127
674.97	0.126
675.16	0.126
675.36	0.125
675.56	0.125
675.75	0.125
675.95	0.124
676.15	0.124
676.35	0.124
676.54	0.124
676.74	0.124
676.94	0.124
677.13	0.123
677.33	0.123
677.53	0.123
677.73	0.123
677.92	0.122
678.12	0.123
678.32	0.122
678.51	0.122
678.71	0.123
678.91	0.122
679.11	0.122
679.30	0.122
679.50	0.121
679.70	0.121
679.89	0.121
680.09	0.122
680.29	0.121
680.48	0.120
680.68	0.120
680.88	0.119
681.07	0.119
681.27	0.119
681.47	0.119
681.66	0.119
681.86	0.119
682.06	0.119
682.25	0.118
682.45	0.118
682.65	0.118
682.84	0.117
683.04	0.117
683.24	0.117
683.43	0.117
683.63	0.117
683.83	0.117
684.02	0.117
684.22	0.117
684.42	0.116
684.61	0.116
684.81	0.116
685.01	0.116
685.20	0.115
685.40	0.115
685.60	0.115
685.79	0.115
685.99	0.115
686.19	0.115
686.38	0.115
686.58	0.115
686.77	0.115
686.97	0.114
687.17	0.114
687.36	0.114
687.56	0.114
687.76	0.113
687.95	0.113
688.15	0.113
688.34	0.112
688.54	0.112
688.74	0.111
688.93	0.111
689.13	0.111
689.33	0.111
689.52	0.111
689.72	0.111
689.91	0.111
690.11	0.111
690.31	0.110
690.50	0.110
690.70	0.111
690.89	0.110
691.09	0.109
691.29	0.110
691.48	0.109
691.68	0.109
691.87	0.109
692.07	0.109
692.27	0.109
692.46	0.109
692.66	0.108
692.85	0.108
693.05	0.108
693.25	0.109
693.44	0.108
693.64	0.108
693.83	0.108
694.03	0.107
694.22	0.107
694.42	0.107
694.62	0.107
694.81	0.107
695.01	0.107
695.20	0.107
695.40	0.106
695.59	0.106
695.79	0.106
695.99	0.106
696.18	0.106
696.38	0.106
696.57	0.106
696.77	0.106
696.96	0.106
697.16	0.105
697.36	0.105
697.55	0.105
697.75	0.105
697.94	0.105
698.14	0.105
698.33	0.105
698.53	0.104
698.72	0.104
698.92	0.104
699.11	0.104
699.31	0.104
699.51	0.104
699.70	0.103
699.90	0.103
700.09	0.103
700.29	0.103
700.48	0.103
700.68	0.103
700.87	0.103
701.07	0.102
701.26	0.102
701.46	0.102
701.65	0.102
701.85	0.102
702.04	0.101
702.24	0.101
702.43	0.101
702.63	0.101
702.82	0.101
703.02	0.100
703.21	0.101
703.41	0.100
703.60	0.100
703.80	0.100
703.99	0.100
704.19	0.100
704.38	0.100
704.58	0.099
704.77	0.099
704.97	0.099
705.16	0.099
705.36	0.099
705.55	0.100
705.75	0.099
705.94	0.099
706.14	0.100
706.33	0.099
706.53	0.100
706.72	0.100
706.92	0.099
707.11	0.099
707.31	0.098
707.50	0.098
707.70	0.098
707.89	0.098
708.09	0.098
708.28	0.098
708.48	0.098
708.67	0.097
708.86	0.097
709.06	0.097
709.25	0.097
709.45	0.097
709.64	0.097
709.84	0.097
710.03	0.096
710.23	0.096
710.42	0.096
710.62	0.096
710.81	0.096
711.00	0.095
711.20	0.095
711.39	0.095
711.59	0.095
711.78	0.095
711.98	0.095
712.17	0.096
712.37	0.095
712.56	0.095
712.75	0.096
712.95	0.095
713.14	0.096
713.34	0.096
713.53	0.096
713.73	0.096
713.92	0.096
714.11	0.096
714.31	0.096
714.50	0.096
714.70	0.096
714.89	0.096
715.08	0.096
715.28	0.096
715.47	0.095
715.67	0.095
715.86	0.095
716.06	0.095
716.25	0.095
716.44	0.095
716.64	0.095
716.83	0.094
717.03	0.094
717.22	0.093
717.41	0.093
717.61	0.093
717.80	0.093
717.99	0.093
718.19	0.093
718.38	0.093
718.58	0.092
718.77	0.092
718.96	0.092
719.16	0.092
719.35	0.092
719.55	0.092
719.74	0.091
719.93	0.091
720.13	0.091
720.32	0.091
720.51	0.091
720.71	0.091
720.90	0.091
721.10	0.091
721.29	0.091
721.48	0.091
721.68	0.091
721.87	0.091
722.06	0.091
722.26	0.092
722.45	0.091
722.64	0.091
722.84	0.091
723.03	0.091
723.22	0.092
723.42	0.092
723.61	0.092
723.80	0.092
724.00	0.092
724.19	0.092
724.38	0.092
724.58	0.092
724.77	0.092
724.96	0.091
725.16	0.091
725.35	0.091
725.54	0.092
725.74	0.092
725.93	0.091
726.12	0.091
726.32	0.091
726.51	0.091
726.70	0.091
726.90	0.092
727.09	0.091
727.28	0.091
727.48	0.091
727.67	0.091
727.86	0.091
728.06	0.091
728.25	0.091
728.44	0.092
728.64	0.091
728.83	0.092
729.02	0.091
729.21	0.091
729.41	0.091
729.60	0.091
729.79	0.092
729.99	0.092
730.18	0.091
730.37	0.091
730.56	0.091
730.76	0.091
730.95	0.091
731.14	0.091
731.34	0.091
731.53	0.091
731.72	0.091
731.91	0.090
732.11	0.090
732.30	0.091
732.49	0.091
732.69	0.092
732.88	0.092
733.07	0.092
733.26	0.092
733.46	0.092
733.65	0.092
733.84	0.092
734.03	0.092
734.23	0.091
734.42	0.091
734.61	0.091
734.80	0.091
735.00	0.091
735.19	0.091
735.38	0.090
735.57	0.090
735.77	0.090
735.96	0.090
736.15	0.090
736.34	0.090
736.54	0.090
736.73	0.090
736.92	0.090
737.11	0.090
737.31	0.090
737.50	0.090
737.69	0.090
737.88	0.090
738.07	0.090
738.27	0.090
738.46	0.090
738.65	0.090
738.84	0.090
739.04	0.090
739.23	0.090
739.42	0.090
739.61	0.090
739.80	0.090
740.00	0.090
740.19	0.090
740.38	0.090
740.57	0.090
740.76	0.090
740.96	0.090
741.15	0.090
741.34	0.090
741.53	0.090
741.72	0.090
741.92	0.090
742.11	0.090
742.30	0.090
742.49	0.090
742.68	0.090
742.88	0.090
743.07	0.089
743.26	0.089
743.45	0.090
743.64	0.089
743.84	0.089
744.03	0.089
744.22	0.089
744.41	0.089
744.60	0.088
744.79	0.089
744.99	0.088
745.18	0.088
745.37	0.088
745.56	0.088
745.75	0.088
745.94	0.088
746.14	0.088
746.33	0.088
746.52	0.088
746.71	0.088
746.90	0.088
747.09	0.088
747.28	0.087
747.48	0.088
747.67	0.087
747.86	0.088
748.05	0.088
748.24	0.087
748.43	0.088
748.62	0.087
748.82	0.087
749.01	0.087
749.20	0.087
749.39	0.087
749.58	0.087
749.77	0.087
749.96	0.087
750.16	0.087
750.35	0.087
750.54	0.087
750.73	0.087
750.92	0.087
751.11	0.087
751.30	0.087
751.49	0.087
751.68	0.086
751.88	0.086
752.07	0.086
752.26	0.087
752.45	0.086
752.64	0.086
752.83	0.086
753.02	0.086
753.21	0.086
753.40	0.086
753.60	0.086
753.79	0.086
753.98	0.085
754.17	0.085
754.36	0.085
754.55	0.085
754.74	0.085
754.93	0.084
755.12	0.084
755.31	0.085
755.50	0.085
755.70	0.084
755.89	0.084
756.08	0.084
756.27	0.084
756.46	0.084
756.65	0.084
756.84	0.084
757.03	0.084
757.22	0.083
757.41	0.084
757.60	0.083
757.79	0.084
757.98	0.084
758.17	0.084
758.36	0.084
758.56	0.084
758.75	0.084
758.94	0.084
759.13	0.083
759.32	0.083
759.51	0.083
759.70	0.083
759.89	0.083
760.08	0.083
760.27	0.083
760.46	0.083
760.65	0.083
760.84	0.082
761.03	0.082
761.22	0.083
761.41	0.083
761.60	0.083
761.79	0.082
761.98	0.083
762.17	0.083
762.36	0.082
762.55	0.082
762.74	0.082
762.93	0.082
763.12	0.082
763.31	0.081
763.50	0.081
763.69	0.081
763.88	0.081
764.07	0.081
764.26	0.081
764.45	0.081
764.64	0.082
764.83	0.081
765.02	0.082
765.21	0.082
765.40	0.082
765.59	0.082
765.78	0.082
765.97	0.082
766.16	0.082
766.35	0.082
766.54	0.082
766.73	0.082
766.92	0.082
767.11	0.081
767.30	0.081
767.49	0.081
767.68	0.081
767.87	0.081
768.06	0.081
768.25	0.081
768.44	0.081
768.63	0.081
768.82	0.081
769.01	0.080
769.20	0.080
769.39	0.081
769.58	0.081
769.77	0.081
769.96	0.080
770.15	0.080
770.34	0.080
770.53	0.080
770.72	0.080
770.91	0.080
771.10	0.080
771.29	0.080
771.47	0.079
771.66	0.079
771.85	0.079
772.04	0.079
772.23	0.079
772.42	0.079
772.61	0.079
772.80	0.079
772.99	0.079
773.18	0.079
773.37	0.080
773.56	0.079
773.75	0.080
773.94	0.080
774.13	0.079
774.31	0.079
774.50	0.079
774.69	0.079
774.88	0.079
775.07	0.080
775.26	0.080
775.45	0.079
775.64	0.079
775.83	0.079
776.02	0.078
776.21	0.078
776.40	0.079
776.58	0.078
776.77	0.079
776.96	0.079
777.15	0.079
777.34	0.079
777.53	0.079
777.72	0.079
777.91	0.079
778.10	0.079
778.28	0.079
778.47	0.079
778.66	0.078
778.85	0.078
779.04	0.078
779.23	0.078
779.42	0.077
779.61	0.077
779.79	0.077
779.98	0.077
780.17	0.077
780.36	0.077
780.55	0.077
780.74	0.077
780.93	0.077
781.12	0.077
781.30	0.077
781.49	0.077
781.68	0.077
781.87	0.077
782.06	0.077
782.25	0.076
782.44	0.077
782.62	0.077
782.81	0.077
783.00	0.077
783.19	0.077
783.38	0.076
783.57	0.076
783.75	0.077
783.94	0.077
784.13	0.077
784.32	0.077
784.51	0.077
784.70	0.077
784.88	0.077
785.07	0.077
785.26	0.077
785.45	0.077
785.64	0.077
785.83	0.077
786.01	0.076
786.20	0.076
786.39	0.076
786.58	0.076
786.77	0.076
786.95	0.076
787.14	0.076
787.33	0.076
787.52	0.076
787.71	0.076
787.90	0.076
788.08	0.076
788.27	0.076
788.46	0.076
788.65	0.076
788.84	0.076
789.02	0.076
789.21	0.075
789.40	0.075
789.59	0.075
789.77	0.075
789.96	0.075
790.15	0.075
790.34	0.075
790.53	0.075
790.71	0.074
790.90	0.074
791.09	0.074
791.28	0.075
791.46	0.075
791.65	0.075
791.84	0.074
792.03	0.074
792.22	0.074
792.40	0.074
792.59	0.074
792.78	0.074
792.97	0.075
793.15	0.074
793.34	0.074
793.53	0.074
793.72	0.074
793.90	0.074
794.09	0.075
794.28	0.075
794.47	0.075
794.65	0.075
794.84	0.075
795.03	0.074
795.22	0.075
795.40	0.075
795.59	0.074
795.78	0.074
795.97	0.075
796.15	0.075
796.34	0.075
796.53	0.075
796.71	0.075
796.90	0.075
797.09	0.075
797.28	0.075
797.46	0.075
797.65	0.075
797.84	0.075
798.02	0.074
798.21	0.073
798.40	0.073
798.59	0.073
798.77	0.073
798.96	0.072
799.15	0.072
799.33	0.072
799.52	0.072
799.71	0.072
799.90	0.073
800.08	0.073
800.27	0.073
800.46	0.073
800.64	0.073
800.83	0.073
801.02	0.073
801.20	0.073
801.39	0.073
801.58	0.073
801.76	0.073
801.95	0.073
802.14	0.073
802.32	0.072
802.51	0.073
802.70	0.072
802.88	0.072
803.07	0.072
803.26	0.072
803.44	0.072
803.63	0.072
803.82	0.072
804.00	0.072
804.19	0.072
804.38	0.072
804.56	0.072
804.75	0.072
804.94	0.072
805.12	0.072
805.31	0.072
805.50	0.072
805.68	0.072
805.87	0.073
806.06	0.072
806.24	0.072
806.43	0.072
806.62	0.073
806.80	0.073
806.99	0.072
807.17	0.072
807.36	0.072
807.55	0.072
807.73	0.072
807.92	0.072
808.11	0.073
808.29	0.072
808.48	0.072
808.66	0.072
808.85	0.072
809.04	0.072
809.22	0.072
809.41	0.072
809.59	0.071
809.78	0.072
809.97	0.071
810.15	0.071
810.34	0.071
810.53	0.072
810.71	0.071
810.90	0.072
811.08	0.072
811.27	0.072
811.45	0.071
811.64	0.071
811.83	0.071
812.01	0.071
812.20	0.071
812.38	0.071
812.57	0.071
812.76	0.071
812.94	0.071
813.13	0.071
813.31	0.071
813.50	0.072
813.68	0.072
813.87	0.071
814.06	0.072
814.24	0.071
814.43	0.072
814.61	0.072
814.80	0.071
814.98	0.072
815.17	0.071
815.36	0.071
815.54	0.071
815.73	0.071
815.91	0.071
816.10	0.071
816.28	0.071
816.47	0.071
816.65	0.071
816.84	0.072
817.03	0.072
817.21	0.072
817.40	0.072
817.58	0.072
817.77	0.072
817.95	0.072
818.14	0.072
818.32	0.072
818.51	0.072
818.69	0.071
818.88	0.071
819.06	0.071
819.25	0.071
819.43	0.071
819.62	0.071
819.80	0.071
819.99	0.071
820.18	0.072
820.36	0.072
820.55	0.072
820.73	0.072
820.92	0.072
821.10	0.072
821.29	0.072
821.47	0.072
821.66	0.072
821.84	0.072
822.03	0.072
822.21	0.071
822.40	0.071
822.58	0.071
822.77	0.071
822.95	0.072
823.14	0.072
823.32	0.072
823.50	0.072
823.69	0.073
823.87	0.073
824.06	0.073
824.24	0.073
824.43	0.073
824.61	0.073
824.80	0.073
824.98	0.074
825.17	0.074
825.35	0.074
825.54	0.074
825.72	0.074
825.91	0.074
826.09	0.074
826.28	0.074
826.46	0.074
826.64	0.074
826.83	0.074
827.01	0.074
827.20	0.074
827.38	0.074
827.57	0.074
827.75	0.074
827.94	0.074
828.12	0.074
828.31	0.074
828.49	0.074
828.67	0.074
828.86	0.074
829.04	0.074
829.23	0.074
829.41	0.075
829.60	0.075
829.78	0.075
829.96	0.075
830.15	0.076
830.33	0.076
830.52	0.076
830.70	0.077
830.88	0.077
831.07	0.077
831.25	0.077
831.44	0.077
831.62	0.077
831.81	0.077
831.99	0.077
832.17	0.077
832.36	0.077
832.54	0.077
832.73	0.077
832.91	0.077
833.09	0.077
833.28	0.077
833.46	0.078
833.65	0.078
833.83	0.078
834.01	0.078
834.20	0.078
834.38	0.078
834.56	0.078
834.75	0.078
834.93	0.078
835.12	0.078
835.30	0.078
835.48	0.078
835.67	0.077
835.85	0.077
836.03	0.077
836.22	0.077
836.40	0.077
836.59	0.078
836.77	0.077
836.95	0.078
837.14	0.078
837.32	0.078
837.50	0.078
837.69	0.078
837.87	0.078
838.05	0.078
838.24	0.078
838.42	0.078
838.60	0.078
838.79	0.079
838.97	0.078
839.15	0.078
839.34	0.079
839.52	0.079
839.70	0.078
839.89	0.079
840.07	0.079
840.25	0.079
840.44	0.079
840.62	0.079
840.80	0.078
840.99	0.079
841.17	0.078
841.35	0.078
841.54	0.078
841.72	0.079
841.90	0.079
842.09	0.078
842.27	0.079
842.45	0.079
842.64	0.079
842.82	0.079
843.00	0.079
843.19	0.079
843.37	0.079
843.55	0.079
843.73	0.079
843.92	0.078
844.10	0.078
844.28	0.078
844.47	0.078
844.65	0.078
844.83	0.078
845.01	0.079
845.20	0.079
845.38	0.079
845.56	0.079
845.75	0.080
845.93	0.079
846.11	0.079
846.29	0.080
846.48	0.080
846.66	0.080
846.84	0.080
847.02	0.079
847.21	0.079
847.39	0.079
847.57	0.079
847.76	0.080
847.94	0.080
848.12	0.080
848.30	0.080
848.49	0.080
848.67	0.080
848.85	0.080
849.03	0.080
849.22	0.080
849.40	0.080
849.58	0.080
849.76	0.080
849.95	0.080
850.13	0.080
850.31	0.080
850.49	0.081
850.67	0.081
850.86	0.080
851.04	0.080
851.22	0.080
851.40	0.080
851.59	0.079
851.77	0.079
851.95	0.079
852.13	0.079
852.31	0.079
852.50	0.079
852.68	0.079
852.86	0.079
853.04	0.080
853.23	0.080
853.41	0.080
853.59	0.080
853.77	0.080
853.95	0.080
854.14	0.080
854.32	0.080
854.50	0.080
854.68	0.080
854.86	0.080
855.04	0.080
855.23	0.080
855.41	0.080
855.59	0.081
855.77	0.081
855.95	0.081
856.14	0.081
856.32	0.081
856.50	0.080
856.68	0.080
856.86	0.080
857.04	0.080
857.23	0.079
857.41	0.079
857.59	0.080
857.77	0.080
857.95	0.080
858.13	0.080
858.32	0.080
858.50	0.080
858.68	0.080
858.86	0.080
859.04	0.081
859.22	0.080
859.41	0.081
859.59	0.080
859.77	0.080
859.95	0.080
860.13	0.080
860.31	0.080
860.49	0.081
860.68	0.080
860.86	0.081
861.04	0.081
861.22	0.081
861.40	0.081
861.58	0.081
861.76	0.081
861.94	0.081
862.13	0.081
862.31	0.081
862.49	0.081
862.67	0.081
862.85	0.081
863.03	0.082
863.21	0.082
863.39	0.082
863.57	0.082
863.76	0.082
863.94	0.082
864.12	0.082
864.30	0.082
864.48	0.081
864.66	0.082
864.84	0.082
865.02	0.082
865.20	0.081
865.38	0.081
865.57	0.082
865.75	0.082
865.93	0.082
866.11	0.081
866.29	0.082
866.47	0.082
866.65	0.082
866.83	0.082
867.01	0.081
867.19	0.081
867.37	0.081
867.55	0.081
867.73	0.081
867.92	0.081
868.10	0.081
868.28	0.081
868.46	0.081
868.64	0.081
868.82	0.082
869.00	0.082
869.18	0.083
869.36	0.083
869.54	0.083
869.72	0.083
869.90	0.083
870.08	0.083
870.26	0.083
870.44	0.083
870.62	0.083
870.80	0.083
870.98	0.082
871.16	0.082
871.34	0.082
871.53	0.082
871.71	0.082
871.89	0.083
872.07	0.083
872.25	0.083
872.43	0.083
872.61	0.083
872.79	0.083
872.97	0.084
873.15	0.083
873.33	0.084
873.51	0.084
873.69	0.084
873.87	0.084
874.05	0.084
874.23	0.084
874.41	0.084
874.59	0.084
874.77	0.084
874.95	0.083
875.13	0.084
875.31	0.083
875.49	0.084
875.67	0.083
875.85	0.083
876.03	0.084
876.21	0.084
876.39	0.084
876.57	0.084
876.75	0.084
876.93	0.084
877.11	0.084
877.29	0.084
877.47	0.084
877.65	0.084
877.82	0.085
878.00	0.084
878.18	0.084
878.36	0.084
878.54	0.084
878.72	0.084
878.90	0.084
879.08	0.084
879.26	0.084
879.44	0.085
879.62	0.084
879.80	0.084
879.98	0.084
880.16	0.084
880.34	0.084
880.52	0.084
880.70	0.084
880.88	0.084
881.06	0.084
881.24	0.084
881.42	0.084
881.59	0.084
881.77	0.084
881.95	0.084
882.13	0.084
882.31	0.084
882.49	0.084
882.67	0.085
882.85	0.084
883.03	0.085
883.21	0.085
883.39	0.085
883.57	0.085
883.75	0.085
883.92	0.085
884.10	0.085
884.28	0.085
884.46	0.085
884.64	0.085
884.82	0.085
885.00	0.085
885.18	0.086
885.36	0.086
885.54	0.086
885.71	0.086
885.89	0.086
886.07	0.086
886.25	0.086
886.43	0.086
886.61	0.086
886.79	0.086
886.97	0.086
887.15	0.086
887.32	0.086
887.50	0.086
887.68	0.086
887.86	0.086
888.04	0.086
888.22	0.086
888.40	0.086
888.57	0.086
888.75	0.086
888.93	0.086
889.11	0.086
889.29	0.087
889.47	0.087
889.65	0.087
889.82	0.087
890.00	0.087
890.18	0.087
890.36	0.087
890.54	0.088
890.72	0.088
890.90	0.088
891.07	0.087
891.25	0.087
891.43	0.087
891.61	0.087
891.79	0.087
891.97	0.087
892.14	0.087
892.32	0.087
892.50	0.086
892.68	0.087
892.86	0.087
893.03	0.087
893.21	0.087
893.39	0.088
893.57	0.088
893.75	0.088
893.93	0.088
894.10	0.088
894.28	0.088
894.46	0.088
894.64	0.088
894.82	0.088
894.99	0.088
895.17	0.088
895.35	0.088
895.53	0.088
895.71	0.087
895.88	0.088
896.06	0.088
896.24	0.088
896.42	0.088
896.59	0.088
896.77	0.088
896.95	0.088
897.13	0.089
897.31	0.089
897.48	0.089
897.66	0.089
897.84	0.089
898.02	0.089
898.19	0.089
898.37	0.089
898.55	0.089
898.73	0.089
898.91	0.089
899.08	0.089
899.26	0.089
899.44	0.089
899.62	0.089
899.79	0.090
899.97	0.090
900.15	0.089
900.33	0.089
900.50	0.089
900.68	0.089
900.86	0.089
901.04	0.089
901.21	0.089
901.39	0.089
901.57	0.089
901.74	0.089
901.92	0.089
902.10	0.089
902.28	0.089
902.45	0.090
902.63	0.089
902.81	0.089
902.99	0.090
903.16	0.090
903.34	0.090
903.52	0.090
903.69	0.090
903.87	0.090
904.05	0.091
904.22	0.091
904.40	0.091
904.58	0.091
904.76	0.091
904.93	0.091
905.11	0.091
905.29	0.091
905.46	0.091
905.64	0.092
905.82	0.092
905.99	0.091
906.17	0.091
906.35	0.092
906.53	0.092
906.70	0.092
906.88	0.092
907.06	0.092
907.23	0.091
907.41	0.092
907.59	0.091
907.76	0.092
907.94	0.092
908.12	0.092
908.29	0.092
908.47	0.092
908.65	0.092
908.82	0.092
909.00	0.092
909.18	0.093
909.35	0.093
909.53	0.093
909.71	0.093
909.88	0.092
910.06	0.092
910.23	0.092
910.41	0.092
910.59	0.092
910.76	0.092
910.94	0.092
911.12	0.092
911.29	0.093
911.47	0.093
911.65	0.093
911.82	0.093
912.00	0.093
912.17	0.093
912.35	0.094
912.53	0.094
912.70	0.094
912.88	0.094
913.06	0.095
913.23	0.095
913.41	0.095
913.58	0.095
913.76	0.095
913.94	0.095
914.11	0.095
914.29	0.095
914.46	0.095
914.64	0.095
914.82	0.095
914.99	0.096
915.17	0.095
915.34	0.095
915.52	0.096
915.70	0.096
915.87	0.096
916.05	0.096
916.22	0.096
916.40	0.096
916.57	0.097
916.75	0.097
916.93	0.097
917.10	0.096
917.28	0.097
917.45	0.096
917.63	0.096
917.80	0.096
917.98	0.096
918.16	0.097
918.33	0.097
918.51	0.097
918.68	0.097
918.86	0.098
919.03	0.098
919.21	0.098
919.39	0.099
919.56	0.099
919.74	0.099
919.91	0.099
920.09	0.099
920.26	0.099
920.44	0.099
920.61	0.100
920.79	0.100
920.96	0.100
921.14	0.101
921.31	0.101
921.49	0.101
921.67	0.101
921.84	0.101
922.02	0.101
922.19	0.102
922.37	0.102
922.54	0.102
922.72	0.102
922.89	0.103
923.07	0.103
923.24	0.103
923.42	0.103
923.59	0.104
923.77	0.104
923.94	0.105
924.12	0.105
924.29	0.105
924.47	0.105
924.64	0.106
924.82	0.105
924.99	0.106
925.17	0.106
925.34	0.107
925.52	0.107
925.69	0.107
925.87	0.107
926.04	0.107
926.22	0.108
926.39	0.108
926.57	0.109
926.74	0.109
926.91	0.109
927.09	0.110
927.26	0.109
927.44	0.110
927.61	0.110
927.79	0.110
927.96	0.111
928.14	0.111
928.31	0.112
928.49	0.112
928.66	0.112
928.84	0.113
929.01	0.114
929.18	0.115
929.36	0.115
929.53	0.116
929.71	0.116
929.88	0.116
930.06	0.116
930.23	0.117
930.41	0.117
930.58	0.118
930.75	0.118
930.93	0.118
931.10	0.118
931.28	0.119
931.45	0.119
931.63	0.119
931.80	0.120
931.97	0.120
932.15	0.121
932.32	0.121
932.50	0.121
932.67	0.122
932.84	0.123
933.02	0.123
933.19	0.123
933.37	0.124
933.54	0.125
933.71	0.125
933.89	0.127
934.06	0.126
934.24	0.127
934.41	0.128
934.58	0.128
934.76	0.128
934.93	0.129
935.11	0.129
935.28	0.129
935.45	0.130
935.63	0.130
935.80	0.130
935.98	0.131
936.15	0.131
936.32	0.131
936.50	0.131
936.67	0.132
936.84	0.132
937.02	0.133
937.19	0.134
937.36	0.135
937.54	0.135
937.71	0.136
937.89	0.137
938.06	0.137
938.23	0.138
938.41	0.139
938.58	0.139
938.75	0.139
938.93	0.140
939.10	0.140
939.27	0.141
939.45	0.141
939.62	0.142
939.79	0.142
939.97	0.143
940.14	0.144
940.31	0.145
940.49	0.145
940.66	0.145
940.83	0.146
941.01	0.146
941.18	0.147
941.35	0.147
941.53	0.148
941.70	0.149
941.87	0.149
942.05	0.150
942.22	0.151
942.39	0.152
942.57	0.152
942.74	0.153
942.91	0.153
943.08	0.154
943.26	0.155
943.43	0.155
943.60	0.156
943.78	0.157
943.95	0.157
944.12	0.158
944.29	0.158
944.47	0.159
944.64	0.160
944.81	0.161
944.99	0.162
945.16	0.162
945.33	0.162
945.50	0.163
945.68	0.164
945.85	0.165
946.02	0.166
946.20	0.167
946.37	0.169
946.54	0.169
946.71	0.170
946.89	0.170
947.06	0.171
947.23	0.172
947.40	0.173
947.58	0.173
947.75	0.175
947.92	0.175
948.09	0.176
948.27	0.177
948.44	0.178
948.61	0.179
948.78	0.179
948.96	0.181
949.13	0.182
949.30	0.182
949.47	0.183
949.65	0.185
949.82	0.186
949.99	0.186
950.16	0.188
950.33	0.189
950.51	0.190
950.68	0.192
950.85	0.193
951.02	0.194
951.20	0.195
951.37	0.197
951.54	0.197
951.71	0.199
951.88	0.200
952.06	0.201
952.23	0.202
952.40	0.203
952.57	0.205
952.74	0.207
952.92	0.208
953.09	0.209
953.26	0.210
953.43	0.211
953.60	0.212
953.77	0.213
953.95	0.214
954.12	0.216
954.29	0.217
954.46	0.218
954.63	0.219
954.81	0.220
954.98	0.220
955.15	0.223
955.32	0.224
955.49	0.224
955.66	0.226
955.84	0.228
956.01	0.228
956.18	0.230
956.35	0.232
956.52	0.232
956.69	0.234
956.87	0.234
957.04	0.235
957.21	0.237
957.38	0.237
957.55	0.239
957.72	0.240
957.89	0.241
958.07	0.240
958.24	0.243
958.41	0.244
958.58	0.244
958.75	0.245
958.92	0.247
959.09	0.246
959.26	0.247
959.44	0.247
959.61	0.249
959.78	0.249
959.95	0.251
960.12	0.251
960.29	0.253
960.46	0.252
960.63	0.253
960.81	0.253
960.98	0.254
961.15	0.255
961.32	0.255
961.49	0.255
961.66	0.256
961.83	0.256
962.00	0.256
962.17	0.257
962.34	0.257
962.52	0.258
962.69	0.259
962.86	0.258
963.03	0.259
963.20	0.259
963.37	0.259
963.54	0.260
963.71	0.260
963.88	0.260
964.05	0.261
964.22	0.263
964.39	0.261
964.56	0.261
964.74	0.262
964.91	0.262
965.08	0.262
965.25	0.263
965.42	0.263
965.59	0.264
965.76	0.263
965.93	0.264
966.10	0.263
966.27	0.264
966.44	0.263
966.61	0.265
966.78	0.264
966.95	0.264
967.12	0.265
967.29	0.267
967.46	0.266
967.63	0.266
967.80	0.266
967.97	0.266
968.14	0.266
968.32	0.267
968.49	0.267
968.66	0.266
968.83	0.267
969.00	0.266
969.17	0.266
969.34	0.267
969.51	0.268
969.68	0.267
969.85	0.267
970.02	0.268
970.19	0.267
970.36	0.268
970.53	0.268
970.70	0.266
970.87	0.266
971.04	0.266
971.21	0.267
971.38	0.266
971.55	0.266
971.72	0.266
971.89	0.267
972.06	0.267
972.23	0.267
972.40	0.267
972.57	0.267
972.74	0.267
972.91	0.268
973.07	0.267
973.24	0.267
973.41	0.267
973.58	0.265
973.75	0.278
973.92	0.265
974.09	0.265
974.26	0.264
974.43	0.263
974.60	0.265
974.77	0.265
974.94	0.264
975.11	0.266
975.28	0.266
975.45	0.265
975.62	0.266
975.79	0.267
975.96	0.265
976.13	0.264
976.30	0.266
976.47	0.264
976.64	0.265
976.80	0.265
976.97	0.265
977.14	0.265
977.31	0.266
977.48	0.266
977.65	0.265
977.82	0.265
977.99	0.266
978.16	0.266
978.33	0.266
978.50	0.265
978.67	0.266
978.83	0.265
979.00	0.265
979.17	0.264
979.34	0.264
979.51	0.263
979.68	0.264
979.85	0.263
980.02	0.263
980.19	0.261
980.36	0.263
980.52	0.264
980.69	0.263
980.86	0.263
981.03	0.262
981.20	0.261
981.37	0.262
981.54	0.263
981.71	0.261
981.88	0.262
982.04	0.261
982.21	0.260
982.38	0.261
982.55	0.260
982.72	0.258
982.89	0.260
983.06	0.258
983.22	0.259
983.39	0.259
983.56	0.259
983.73	0.258
983.90	0.258
984.07	0.260
984.24	0.258
984.40	0.258
984.57	0.257
984.74	0.259
984.91	0.259
985.08	0.257
985.25	0.255
985.41	0.256
985.58	0.256
985.75	0.258
985.92	0.257
986.09	0.256
986.26	0.256
986.42	0.256
986.59	0.254
986.76	0.256
986.93	0.256
987.10	0.256
987.27	0.254
987.43	0.252
987.60	0.254
987.77	0.254
987.94	0.252
988.11	0.253
988.27	0.252
988.44	0.252
988.61	0.250
988.78	0.249
988.95	0.250
989.11	0.252
989.28	0.250
989.45	0.249
989.62	0.249
989.79	0.249
989.95	0.248
990.12	0.250
990.29	0.249
990.46	0.247
990.62	0.246
990.79	0.246
990.96	0.246
991.13	0.246
991.30	0.245
991.46	0.244
991.63	0.242
991.80	0.241
991.97	0.241
992.13	0.242
992.30	0.243
992.47	0.242
992.64	0.242
992.80	0.242
992.97	0.243
993.14	0.240
993.31	0.238
993.47	0.241
993.64	0.239
993.81	0.239
993.98	0.239
994.14	0.237
994.31	0.236
994.48	0.236
994.64	0.237
994.81	0.235
994.98	0.236
995.15	0.234
995.31	0.233
995.48	0.232
995.65	0.234
995.82	0.231
995.98	0.230
996.15	0.232
996.32	0.233
996.48	0.231
996.65	0.230
996.82	0.228
996.99	0.229
997.15	0.229
997.32	0.231
997.49	0.229
997.65	0.230
997.82	0.230
997.99	0.228
998.15	0.228
998.32	0.230
998.49	0.228
998.65	0.229
998.82	0.228
998.99	0.226
999.15	0.226
999.32	0.226
999.49	0.225
999.65	0.226
999.82	0.223
999.99	0.224
1000.15	0.224
1000.32	0.224
1000.49	0.224
1000.65	0.222
1000.82	0.222
1000.99	0.222
1001.15	0.221
1001.32	0.221
1001.49	0.221
1001.65	0.221
1001.82	0.223
1001.99	0.220
1002.15	0.218
1002.32	0.218
1002.49	0.219
1002.65	0.218
1002.82	0.216
1002.99	0.216
1003.15	0.217
1003.32	0.215
1003.48	0.215
1003.65	0.215
1003.82	0.214
1003.98	0.211
1004.15	0.211
1004.32	0.211
1004.48	0.211
1004.65	0.213
1004.81	0.211
1004.98	0.210
1005.15	0.211
1005.31	0.210
1005.48	0.208
1005.64	0.208
1005.81	0.210
1005.98	0.207
1006.14	0.206
1006.31	0.207
1006.47	0.205
1006.64	0.204
1006.81	0.203
1006.97	0.203
1007.14	0.203
1007.30	0.204
1007.47	0.204
1007.63	0.202
1007.80	0.201
1007.97	0.201
1008.13	0.201
1008.30	0.201
1008.46	0.201
1008.63	0.199
1008.79	0.200
1008.96	0.200
1009.13	0.202
1009.29	0.199
1009.46	0.198
1009.62	0.198
1009.79	0.196
1009.95	0.196
1010.12	0.197
1010.28	0.197
1010.45	0.196
1010.62	0.196
1010.78	0.194
1010.95	0.192
1011.11	0.193
1011.28	0.193
1011.44	0.196
1011.61	0.194
1011.77	0.193
1011.94	0.192
1012.10	0.192
1012.27	0.192
1012.43	0.193
1012.60	0.192
1012.76	0.192
1012.93	0.192
1013.10	0.190
1013.26	0.188
1013.43	0.190
1013.59	0.198
1013.76	0.190
1013.92	0.188
1014.09	0.187
1014.25	0.187
1014.42	0.187
1014.58	0.187
1014.75	0.188
1014.91	0.187
1015.08	0.188
1015.24	0.184
1015.41	0.184
1015.57	0.185
1015.73	0.184
1015.90	0.182
1016.06	0.185
1016.23	0.183
1016.39	0.183
1016.56	0.184
1016.72	0.183
1016.89	0.183
1017.05	0.186
1017.22	0.183
1017.38	0.183
1017.55	0.181
1017.71	0.182
1017.88	0.181
1018.04	0.182
1018.21	0.179
1018.37	0.179
1018.53	0.178
1018.70	0.176
1018.86	0.176
1019.03	0.177
1019.19	0.175
1019.36	0.175
1019.52	0.177
1019.69	0.178
1019.85	0.177
1020.01	0.177
1020.18	0.175
1020.34	0.176
1020.51	0.175
1020.67	0.176
1020.84	0.174
1021.00	0.175
1021.16	0.173
1021.33	0.173
1021.49	0.171
1021.66	0.171
1021.82	0.169
1021.98	0.169
1022.15	0.169
1022.31	0.168
1022.48	0.166
1022.64	0.168
1022.80	0.167
1022.97	0.165
1023.13	0.165
1023.30	0.166
1023.46	0.167
1023.62	0.164
1023.79	0.166
1023.95	0.166
1024.12	0.166
1024.28	0.166
1024.44	0.166
1024.61	0.165
1024.77	0.165
1024.93	0.164
1025.10	0.165
1025.26	0.163
1025.43	0.164
1025.59	0.160
1025.75	0.164
1025.92	0.163
1026.08	0.163
1026.24	0.163
1026.41	0.164
1026.57	0.163
1026.73	0.161
1026.90	0.163
1027.06	0.161
1027.23	0.163
1027.39	0.162
1027.55	0.163
1027.72	0.162
1027.88	0.161
1028.04	0.162
1028.21	0.161
1028.37	0.154
1028.53	0.159
1028.70	0.157
1028.86	0.155
1029.02	0.155
1029.19	0.156
1029.35	0.154
1029.51	0.153
1029.67	0.151
1029.84	0.153
1030.00	0.149
1030.16	0.148
1030.33	0.151
1030.49	0.149
1030.65	0.146
1030.82	0.161
1030.98	0.148
1031.14	0.148
1031.31	0.148
1031.47	0.146
1031.63	0.147
1031.79	0.145
1031.96	0.148
1032.12	0.149
1032.28	0.146
1032.45	0.150
1032.61	0.149
1032.77	0.149
1032.93	0.147
1033.10	0.148
1033.26	0.150
1033.42	0.149
1033.58	0.150
1033.75	0.151
1033.91	0.149
1034.07	0.152
1034.24	0.150
1034.40	0.147
1034.56	0.147
1034.72	0.147
1034.89	0.146
1035.05	0.145
1035.21	0.144
1035.37	0.143
1035.54	0.146
1035.70	0.144
1035.86	0.143
1036.02	0.145
1036.19	0.143
1036.35	0.141
1036.51	0.145
1036.67	0.144
1036.83	0.143
1037.00	0.141
1037.16	0.141
1037.32	0.141
1037.48	0.140
1037.65	0.145
1037.81	0.140
1037.97	0.140
1038.13	0.140
1038.29	0.139
1038.46	0.136
1038.62	0.141
1038.78	0.140
1038.94	0.137
1039.10	0.141
1039.27	0.136
1039.43	0.138
1039.59	0.137
1039.75	0.137
1039.91	0.136
1040.08	0.136
1040.24	0.138
1040.40	0.140
1040.56	0.138
1040.72	0.132
1040.89	0.135
1041.05	0.138
1041.21	0.136
1041.37	0.134
1041.53	0.141
1041.69	0.137
1041.86	0.135
1042.02	0.132
1042.18	0.132
1042.34	0.134
1042.50	0.139
1042.66	0.135
1042.83	0.134
1042.99	0.138
1043.15	0.133
1043.31	0.133
1043.47	0.138
1043.63	0.136
1043.79	0.136
1043.96	0.138
1044.12	0.140
1044.28	0.135
1044.44	0.138
1044.60	0.132
1044.76	0.130
1044.92	0.133
1045.09	0.134
1045.25	0.131
1045.41	0.132
1045.57	0.126
1045.73	0.125
1045.89	0.128
1046.05	0.130
1046.21	0.136
1046.38	0.123
1046.54	0.131
1046.70	0.140
1046.86	0.125
>>>>>End Processed Spectral Data<<<<<
