SpectraSuite Data File
++++++++++++++++++++++++++++++++++++
Date: Mon May 20 12:10:35 CDT 2013
User: Students
Dark Spectrum Present: Yes
Reference Spectrum Present: Yes
Number of Sampled Component Spectra: 1
Spectrometers: USB4H00887
Integration Time (usec): 60000 (USB4H00887)
Spectra Averaged: 5 (USB4H00887)
Boxcar Smoothing: 5 (USB4H00887)
Correct for Electrical Dark: No (USB4H00887)
Strobe/Lamp Enabled: No (USB4H00887)
Correct for Detector Non-linearity: No (USB4H00887)
Correct for Stray Light: No (USB4H00887)
Number of Pixels in Processed Spectrum: 3648
>>>>>Begin Processed Spectral Data<<<<<
345.83	-0.098
346.05	-0.098
346.26	-0.098
346.48	-0.000
346.70	0.301
346.92	0.113
347.14	0.072
347.35	0.064
347.57	0.248
347.79	-0.200
348.01	-0.136
348.23	-0.225
348.44	-0.000
348.66	0.160
348.88	-0.324
349.10	-0.058
349.32	-0.004
349.53	0.037
349.75	0.066
349.97	0.014
350.19	0.054
350.41	0.039
350.62	-0.119
350.84	0.015
351.06	0.039
351.28	0.071
351.50	0.144
351.71	0.207
351.93	0.111
352.15	0.030
352.37	0.118
352.58	0.038
352.80	0.040
353.02	0.068
353.24	0.077
353.46	0.411
353.67	-0.062
353.89	0.031
354.11	0.025
354.33	0.046
354.54	0.084
354.76	0.183
354.98	0.312
355.20	0.236
355.41	0.091
355.63	0.162
355.85	0.050
356.07	0.797
356.28	0.069
356.50	0.118
356.72	0.049
356.94	0.115
357.15	0.097
357.37	-0.000
357.59	0.074
357.81	0.037
358.02	0.092
358.24	0.084
358.46	0.183
358.68	0.207
358.89	0.114
359.11	-0.000
359.33	0.087
359.55	-0.614
359.76	0.179
359.98	0.177
360.20	0.176
360.42	0.142
360.63	0.171
360.85	0.131
361.07	0.559
361.29	0.088
361.50	0.291
361.72	0.109
361.94	0.489
362.15	0.158
362.37	0.086
362.59	0.113
362.81	0.173
363.02	0.275
363.24	0.455
363.46	0.226
363.68	0.298
363.89	0.187
364.11	0.251
364.33	0.303
364.54	0.198
364.76	0.265
364.98	0.230
365.20	0.274
365.41	0.164
365.63	0.204
365.85	0.163
366.06	0.516
366.28	0.544
366.50	0.328
366.71	0.113
366.93	0.116
367.15	0.097
367.37	0.113
367.58	0.143
367.80	0.196
368.02	0.565
368.23	0.158
368.45	0.183
368.67	0.155
368.88	0.152
369.10	-0.000
369.32	0.194
369.53	0.131
369.75	0.180
369.97	0.605
370.19	0.290
370.40	0.102
370.62	0.253
370.84	0.086
371.05	0.554
371.27	0.142
371.49	0.176
371.70	0.187
371.92	0.273
372.14	0.133
372.35	0.140
372.57	0.153
372.79	0.471
373.00	0.114
373.22	0.200
373.44	0.180
373.65	0.127
373.87	0.167
374.09	1.045
374.30	0.153
374.52	0.171
374.74	0.110
374.95	0.463
375.17	0.115
375.39	-0.000
375.60	0.117
375.82	0.188
376.04	0.082
376.25	0.101
376.47	0.054
376.68	0.119
376.90	0.063
377.12	0.125
377.33	0.077
377.55	0.201
377.77	0.105
377.98	0.164
378.20	0.102
378.42	0.131
378.63	0.166
378.85	-0.000
379.07	0.134
379.28	0.561
379.50	0.350
379.71	0.173
379.93	0.122
380.15	0.163
380.36	0.255
380.58	0.192
380.80	0.621
381.01	0.173
381.23	0.136
381.44	0.131
381.66	0.149
381.88	0.175
382.09	-0.084
382.31	0.126
382.53	0.124
382.74	0.663
382.96	0.179
383.17	0.138
383.39	0.196
383.61	0.258
383.82	0.174
384.04	0.218
384.25	0.253
384.47	0.235
384.69	0.226
384.90	0.232
385.12	0.521
385.33	0.327
385.55	0.255
385.77	0.391
385.98	0.185
386.20	0.275
386.41	0.233
386.63	0.275
386.85	0.227
387.06	0.288
387.28	0.443
387.49	0.269
387.71	0.189
387.93	0.167
388.14	0.452
388.36	0.211
388.57	0.182
388.79	0.209
389.01	-0.000
389.22	0.287
389.44	0.247
389.65	0.202
389.87	0.195
390.08	0.233
390.30	0.171
390.52	0.343
390.73	0.339
390.95	0.236
391.16	0.214
391.38	-0.000
391.59	0.224
391.81	0.184
392.03	0.180
392.24	0.221
392.46	0.181
392.67	0.166
392.89	0.227
393.10	0.340
393.32	0.233
393.53	0.288
393.75	0.191
393.97	0.218
394.18	0.323
394.40	0.279
394.61	0.295
394.83	0.261
395.04	0.333
395.26	0.216
395.47	0.326
395.69	0.291
395.91	0.303
396.12	0.362
396.34	0.356
396.55	0.220
396.77	0.340
396.98	-0.000
397.20	0.462
397.41	0.505
397.63	0.354
397.84	0.306
398.06	0.282
398.27	0.278
398.49	0.336
398.71	0.251
398.92	0.308
399.14	0.404
399.35	0.503
399.57	0.446
399.78	0.287
400.00	0.278
400.21	0.364
400.43	0.296
400.64	0.323
400.86	0.741
401.07	0.381
401.29	0.317
401.50	0.331
401.72	0.498
401.93	0.310
402.15	0.405
402.36	0.362
402.58	0.295
402.79	0.320
403.01	0.543
403.22	0.414
403.44	0.274
403.65	0.444
403.87	0.494
404.08	0.363
404.30	0.587
404.51	0.317
404.73	0.399
404.94	0.339
405.16	0.347
405.37	0.269
405.59	0.483
405.80	0.313
406.02	0.391
406.23	0.399
406.45	0.460
406.66	0.507
406.88	0.319
407.09	0.489
407.31	0.392
407.52	0.496
407.74	0.397
407.95	0.499
408.17	0.459
408.38	0.482
408.60	0.310
408.81	0.536
409.03	0.401
409.24	0.415
409.45	0.485
409.67	0.455
409.88	0.399
410.10	0.526
410.31	0.420
410.53	0.402
410.74	0.588
410.96	0.568
411.17	0.599
411.39	0.433
411.60	0.393
411.82	0.447
412.03	0.440
412.24	0.425
412.46	0.628
412.67	0.507
412.89	0.498
413.10	0.494
413.32	0.435
413.53	0.493
413.75	0.505
413.96	0.381
414.17	0.517
414.39	0.510
414.60	0.413
414.82	0.536
415.03	0.420
415.25	0.472
415.46	0.318
415.68	0.449
415.89	0.844
416.10	0.725
416.32	0.387
416.53	0.458
416.75	0.440
416.96	0.559
417.18	0.486
417.39	0.455
417.60	0.447
417.82	0.671
418.03	0.591
418.25	0.485
418.46	0.500
418.67	0.459
418.89	0.495
419.10	0.518
419.32	0.695
419.53	0.609
419.75	0.514
419.96	0.453
420.17	0.565
420.39	0.528
420.60	0.552
420.82	0.675
421.03	0.530
421.24	0.450
421.46	0.492
421.67	0.540
421.89	0.468
422.10	0.502
422.31	0.501
422.53	0.735
422.74	0.540
422.96	0.432
423.17	0.476
423.38	0.591
423.60	0.478
423.81	0.600
424.03	0.518
424.24	0.586
424.45	0.575
424.67	0.559
424.88	0.498
425.09	0.531
425.31	0.477
425.52	0.517
425.74	0.581
425.95	0.641
426.16	0.497
426.38	0.578
426.59	0.523
426.80	0.611
427.02	0.648
427.23	0.498
427.45	0.660
427.66	0.658
427.87	0.498
428.09	0.533
428.30	0.595
428.51	0.580
428.73	0.641
428.94	0.568
429.15	0.552
429.37	0.528
429.58	0.557
429.79	0.514
430.01	0.612
430.22	0.600
430.44	0.614
430.65	0.550
430.86	0.601
431.08	0.578
431.29	0.531
431.50	0.632
431.72	0.865
431.93	0.704
432.14	0.516
432.36	0.568
432.57	0.593
432.78	0.616
433.00	0.569
433.21	0.560
433.42	0.707
433.64	0.612
433.85	0.704
434.06	0.563
434.28	0.586
434.49	0.610
434.70	0.623
434.92	0.623
435.13	0.671
435.34	0.679
435.56	0.642
435.77	0.637
435.98	0.831
436.20	0.689
436.41	0.587
436.62	0.584
436.83	0.671
437.05	0.754
437.26	0.663
437.47	0.588
437.69	0.641
437.90	0.589
438.11	0.583
438.33	0.642
438.54	0.657
438.75	0.843
438.97	0.821
439.18	0.602
439.39	0.644
439.60	0.698
439.82	0.649
440.03	0.603
440.24	0.896
440.46	0.650
440.67	0.623
440.88	0.662
441.10	0.620
441.31	0.622
441.52	0.685
441.73	0.770
441.95	0.681
442.16	0.630
442.37	1.028
442.58	0.618
442.80	0.605
443.01	0.801
443.22	0.731
443.44	0.615
443.65	0.722
443.86	0.711
444.07	0.756
444.29	0.654
444.50	0.834
444.71	0.627
444.92	0.583
445.14	0.746
445.35	0.781
445.56	0.619
445.78	0.737
445.99	0.743
446.20	0.639
446.41	0.724
446.63	0.717
446.84	0.673
447.05	0.673
447.26	0.823
447.48	0.694
447.69	0.658
447.90	0.753
448.11	0.666
448.33	0.688
448.54	0.708
448.75	0.739
448.96	0.754
449.18	0.800
449.39	0.714
449.60	0.687
449.81	0.835
450.03	0.722
450.24	0.780
450.45	0.726
450.66	0.716
450.87	0.755
451.09	0.706
451.30	0.682
451.51	0.767
451.72	0.779
451.94	0.808
452.15	0.887
452.36	0.725
452.57	0.748
452.78	0.757
453.00	0.790
453.21	0.735
453.42	0.706
453.63	0.811
453.85	0.764
454.06	0.751
454.27	0.875
454.48	0.775
454.69	0.703
454.91	0.767
455.12	0.667
455.33	0.752
455.54	0.770
455.75	0.737
455.97	0.763
456.18	0.751
456.39	0.762
456.60	0.789
456.81	0.725
457.03	0.733
457.24	0.736
457.45	0.826
457.66	0.768
457.87	0.724
458.09	0.745
458.30	0.659
458.51	0.785
458.72	0.817
458.93	0.830
459.15	0.727
459.36	0.800
459.57	0.828
459.78	0.881
459.99	0.783
460.20	0.750
460.42	0.849
460.63	0.803
460.84	0.786
461.05	0.795
461.26	0.857
461.47	0.767
461.69	0.827
461.90	0.860
462.11	0.811
462.32	0.875
462.53	0.800
462.74	0.896
462.96	0.773
463.17	0.763
463.38	0.815
463.59	0.939
463.80	0.777
464.01	0.793
464.23	0.894
464.44	0.851
464.65	0.855
464.86	0.878
465.07	0.883
465.28	0.845
465.49	0.866
465.71	0.812
465.92	0.853
466.13	0.902
466.34	0.830
466.55	0.880
466.76	0.841
466.97	0.868
467.19	0.860
467.40	0.900
467.61	0.898
467.82	0.812
468.03	0.795
468.24	0.865
468.45	0.900
468.66	0.885
468.88	0.898
469.09	0.893
469.30	0.936
469.51	0.860
469.72	0.900
469.93	0.870
470.14	0.850
470.35	0.943
470.57	0.888
470.78	0.827
470.99	0.965
471.20	0.897
471.41	0.855
471.62	0.911
471.83	0.879
472.04	0.912
472.25	0.958
472.47	0.874
472.68	0.881
472.89	0.890
473.10	0.933
473.31	0.882
473.52	0.943
473.73	0.975
473.94	0.886
474.15	0.913
474.36	0.915
474.57	0.944
474.79	0.916
475.00	0.917
475.21	0.903
475.42	0.996
475.63	0.890
475.84	0.923
476.05	0.926
476.26	0.898
476.47	0.934
476.68	0.981
476.89	0.905
477.10	0.958
477.32	0.944
477.53	1.002
477.74	0.921
477.95	0.964
478.16	0.912
478.37	0.959
478.58	0.961
478.79	0.975
479.00	0.976
479.21	0.930
479.42	0.968
479.63	0.974
479.84	0.937
480.05	0.941
480.26	0.968
480.47	0.984
480.69	0.988
480.90	0.950
481.11	0.946
481.32	1.011
481.53	0.950
481.74	1.009
481.95	0.969
482.16	0.985
482.37	0.992
482.58	0.955
482.79	0.974
483.00	1.003
483.21	0.950
483.42	0.925
483.63	1.005
483.84	1.033
484.05	1.019
484.26	0.988
484.47	0.986
484.68	0.946
484.89	0.955
485.10	1.010
485.31	0.986
485.52	0.992
485.73	0.988
485.94	1.030
486.15	0.976
486.37	0.995
486.58	0.957
486.79	0.973
487.00	1.024
487.21	1.013
487.42	1.009
487.63	1.015
487.84	1.034
488.05	1.028
488.26	0.986
488.47	0.990
488.68	1.020
488.89	0.994
489.10	0.985
489.31	0.998
489.52	1.034
489.73	0.995
489.94	1.034
490.15	0.989
490.36	1.035
490.57	0.985
490.78	0.970
490.99	1.009
491.20	1.096
491.41	1.049
491.62	0.984
491.83	1.015
492.04	1.009
492.25	1.016
492.45	1.018
492.66	1.046
492.87	1.030
493.08	1.018
493.29	0.997
493.50	0.987
493.71	0.995
493.92	0.994
494.13	1.011
494.34	1.036
494.55	1.042
494.76	1.073
494.97	1.064
495.18	1.030
495.39	1.046
495.60	0.996
495.81	0.996
496.02	1.017
496.23	1.012
496.44	1.044
496.65	1.032
496.86	1.038
497.07	1.064
497.28	1.057
497.49	1.000
497.70	1.003
497.91	1.026
498.12	1.008
498.32	1.050
498.53	1.032
498.74	1.024
498.95	1.052
499.16	1.007
499.37	1.013
499.58	1.024
499.79	1.055
500.00	1.048
500.21	1.076
500.42	1.015
500.63	1.019
500.84	1.041
501.05	1.018
501.26	1.048
501.46	1.086
501.67	1.043
501.88	1.046
502.09	1.024
502.30	1.033
502.51	1.086
502.72	1.041
502.93	1.055
503.14	1.081
503.35	1.047
503.56	1.042
503.77	1.075
503.97	1.049
504.18	1.047
504.39	1.079
504.60	1.048
504.81	1.076
505.02	1.065
505.23	1.067
505.44	1.045
505.65	1.057
505.86	1.033
506.07	1.102
506.27	1.060
506.48	1.068
506.69	1.050
506.90	1.071
507.11	1.069
507.32	1.043
507.53	1.053
507.74	1.043
507.95	1.057
508.15	1.063
508.36	1.068
508.57	1.079
508.78	1.060
508.99	1.061
509.20	1.036
509.41	1.060
509.62	1.048
509.82	1.044
510.03	1.056
510.24	1.054
510.45	1.076
510.66	1.067
510.87	1.064
511.08	1.021
511.29	1.062
511.49	1.038
511.70	1.088
511.91	1.020
512.12	1.019
512.33	1.052
512.54	1.070
512.75	1.052
512.95	1.079
513.16	1.068
513.37	1.047
513.58	1.089
513.79	1.048
514.00	1.056
514.20	1.075
514.41	1.062
514.62	1.026
514.83	1.069
515.04	1.061
515.25	1.041
515.46	1.056
515.66	1.055
515.87	1.069
516.08	1.037
516.29	1.062
516.50	1.042
516.71	1.036
516.91	1.049
517.12	1.066
517.33	1.051
517.54	1.035
517.75	1.038
517.95	1.051
518.16	1.062
518.37	1.029
518.58	1.035
518.79	1.006
519.00	1.037
519.20	1.048
519.41	1.019
519.62	1.042
519.83	1.054
520.04	1.013
520.24	1.009
520.45	1.018
520.66	1.043
520.87	1.003
521.08	1.002
521.28	1.007
521.49	1.023
521.70	0.992
521.91	1.002
522.12	0.981
522.32	1.006
522.53	0.989
522.74	0.978
522.95	0.987
523.16	0.989
523.36	0.999
523.57	0.980
523.78	0.975
523.99	0.981
524.20	0.974
524.40	0.988
524.61	0.994
524.82	0.969
525.03	0.974
525.23	0.975
525.44	0.959
525.65	0.957
525.86	0.978
526.06	0.948
526.27	0.949
526.48	0.960
526.69	0.942
526.90	0.946
527.10	0.981
527.31	0.936
527.52	0.929
527.73	0.920
527.93	0.931
528.14	0.938
528.35	0.928
528.56	0.929
528.76	0.923
528.97	0.912
529.18	0.904
529.39	0.905
529.59	0.906
529.80	0.939
530.01	0.911
530.22	0.910
530.42	0.878
530.63	0.896
530.84	0.872
531.05	0.886
531.25	0.888
531.46	0.878
531.67	0.856
531.88	0.877
532.08	0.869
532.29	0.865
532.50	0.857
532.70	0.851
532.91	0.841
533.12	0.844
533.33	0.869
533.53	0.839
533.74	0.838
533.95	0.844
534.15	0.830
534.36	0.831
534.57	0.814
534.78	0.816
534.98	0.825
535.19	0.794
535.40	0.795
535.60	0.813
535.81	0.793
536.02	0.794
536.23	0.787
536.43	0.788
536.64	0.774
536.85	0.782
537.05	0.791
537.26	0.768
537.47	0.771
537.67	0.761
537.88	0.756
538.09	0.763
538.30	0.753
538.50	0.743
538.71	0.755
538.92	0.743
539.12	0.739
539.33	0.733
539.54	0.734
539.74	0.738
539.95	0.727
540.16	0.725
540.36	0.716
540.57	0.715
540.78	0.707
540.98	0.706
541.19	0.703
541.40	0.690
541.60	0.700
541.81	0.695
542.02	0.695
542.22	0.686
542.43	0.681
542.64	0.676
542.84	0.676
543.05	0.667
543.26	0.667
543.46	0.670
543.67	0.668
543.88	0.663
544.08	0.652
544.29	0.647
544.50	0.646
544.70	0.646
544.91	0.637
545.12	0.638
545.32	0.633
545.53	0.637
545.74	0.625
545.94	0.622
546.15	0.620
546.35	0.617
546.56	0.613
546.77	0.610
546.97	0.607
547.18	0.599
547.39	0.599
547.59	0.597
547.80	0.592
548.01	0.596
548.21	0.591
548.42	0.583
548.62	0.583
548.83	0.579
549.04	0.576
549.24	0.568
549.45	0.567
549.65	0.563
549.86	0.559
550.07	0.559
550.27	0.556
550.48	0.564
550.69	0.550
550.89	0.549
551.10	0.545
551.30	0.543
551.51	0.543
551.72	0.534
551.92	0.535
552.13	0.534
552.33	0.535
552.54	0.529
552.75	0.522
552.95	0.524
553.16	0.518
553.36	0.517
553.57	0.515
553.78	0.513
553.98	0.512
554.19	0.503
554.39	0.501
554.60	0.502
554.80	0.501
555.01	0.494
555.22	0.496
555.42	0.492
555.63	0.486
555.83	0.489
556.04	0.483
556.25	0.486
556.45	0.478
556.66	0.476
556.86	0.480
557.07	0.477
557.27	0.477
557.48	0.471
557.68	0.469
557.89	0.470
558.10	0.466
558.30	0.462
558.51	0.460
558.71	0.458
558.92	0.453
559.12	0.454
559.33	0.457
559.54	0.451
559.74	0.447
559.95	0.445
560.15	0.444
560.36	0.442
560.56	0.437
560.77	0.436
560.97	0.436
561.18	0.430
561.38	0.429
561.59	0.431
561.79	0.427
562.00	0.425
562.21	0.422
562.41	0.420
562.62	0.419
562.82	0.417
563.03	0.414
563.23	0.414
563.44	0.414
563.64	0.410
563.85	0.412
564.05	0.405
564.26	0.405
564.46	0.404
564.67	0.404
564.87	0.400
565.08	0.397
565.28	0.396
565.49	0.398
565.69	0.395
565.90	0.392
566.10	0.394
566.31	0.388
566.51	0.389
566.72	0.390
566.92	0.384
567.13	0.383
567.33	0.382
567.54	0.381
567.74	0.379
567.95	0.375
568.15	0.376
568.36	0.375
568.56	0.374
568.77	0.369
568.97	0.367
569.18	0.367
569.38	0.365
569.59	0.366
569.79	0.363
570.00	0.361
570.20	0.359
570.41	0.357
570.61	0.356
570.82	0.357
571.02	0.353
571.23	0.355
571.43	0.351
571.64	0.349
571.84	0.348
572.05	0.347
572.25	0.346
572.45	0.344
572.66	0.341
572.86	0.341
573.07	0.339
573.27	0.339
573.48	0.338
573.68	0.334
573.89	0.333
574.09	0.334
574.30	0.332
574.50	0.331
574.70	0.331
574.91	0.329
575.11	0.328
575.32	0.328
575.52	0.324
575.73	0.324
575.93	0.324
576.14	0.323
576.34	0.321
576.54	0.320
576.75	0.318
576.95	0.317
577.16	0.315
577.36	0.314
577.57	0.313
577.77	0.312
577.97	0.309
578.18	0.310
578.38	0.306
578.59	0.305
578.79	0.303
579.00	0.304
579.20	0.302
579.40	0.301
579.61	0.301
579.81	0.300
580.02	0.297
580.22	0.297
580.42	0.296
580.63	0.296
580.83	0.295
581.04	0.294
581.24	0.293
581.45	0.292
581.65	0.292
581.85	0.291
582.06	0.289
582.26	0.289
582.47	0.287
582.67	0.287
582.87	0.286
583.08	0.283
583.28	0.283
583.48	0.281
583.69	0.278
583.89	0.278
584.10	0.279
584.30	0.277
584.50	0.275
584.71	0.274
584.91	0.273
585.12	0.272
585.32	0.273
585.52	0.271
585.73	0.270
585.93	0.269
586.13	0.268
586.34	0.268
586.54	0.267
586.75	0.265
586.95	0.265
587.15	0.265
587.36	0.264
587.56	0.262
587.76	0.261
587.97	0.260
588.17	0.260
588.37	0.259
588.58	0.259
588.78	0.256
588.98	0.257
589.19	0.257
589.39	0.254
589.60	0.256
589.80	0.253
590.00	0.253
590.21	0.253
590.41	0.251
590.61	0.251
590.82	0.250
591.02	0.250
591.22	0.247
591.43	0.248
591.63	0.246
591.83	0.246
592.04	0.245
592.24	0.245
592.44	0.243
592.65	0.242
592.85	0.242
593.05	0.242
593.26	0.241
593.46	0.240
593.66	0.240
593.86	0.239
594.07	0.237
594.27	0.237
594.47	0.236
594.68	0.235
594.88	0.236
595.08	0.235
595.29	0.235
595.49	0.233
595.69	0.232
595.90	0.231
596.10	0.232
596.30	0.231
596.50	0.230
596.71	0.230
596.91	0.228
597.11	0.227
597.32	0.227
597.52	0.226
597.72	0.226
597.93	0.226
598.13	0.224
598.33	0.224
598.53	0.224
598.74	0.223
598.94	0.222
599.14	0.222
599.35	0.222
599.55	0.221
599.75	0.220
599.95	0.219
600.16	0.219
600.36	0.217
600.56	0.218
600.76	0.216
600.97	0.215
601.17	0.215
601.37	0.215
601.58	0.214
601.78	0.214
601.98	0.212
602.18	0.212
602.39	0.211
602.59	0.211
602.79	0.210
602.99	0.210
603.20	0.208
603.40	0.209
603.60	0.208
603.80	0.208
604.01	0.207
604.21	0.207
604.41	0.206
604.61	0.205
604.82	0.205
605.02	0.205
605.22	0.204
605.42	0.204
605.62	0.204
605.83	0.203
606.03	0.202
606.23	0.202
606.43	0.202
606.64	0.202
606.84	0.201
607.04	0.201
607.24	0.201
607.45	0.201
607.65	0.200
607.85	0.200
608.05	0.199
608.25	0.199
608.46	0.198
608.66	0.198
608.86	0.197
609.06	0.196
609.26	0.195
609.47	0.195
609.67	0.194
609.87	0.194
610.07	0.193
610.28	0.192
610.48	0.192
610.68	0.192
610.88	0.191
611.08	0.191
611.29	0.190
611.49	0.190
611.69	0.191
611.89	0.189
612.09	0.189
612.29	0.188
612.50	0.188
612.70	0.188
612.90	0.187
613.10	0.186
613.30	0.186
613.51	0.186
613.71	0.186
613.91	0.190
614.11	0.185
614.31	0.185
614.51	0.185
614.72	0.184
614.92	0.183
615.12	0.183
615.32	0.183
615.52	0.183
615.72	0.183
615.93	0.182
616.13	0.182
616.33	0.182
616.53	0.181
616.73	0.182
616.93	0.180
617.14	0.181
617.34	0.181
617.54	0.181
617.74	0.181
617.94	0.179
618.14	0.179
618.34	0.178
618.55	0.178
618.75	0.178
618.95	0.178
619.15	0.178
619.35	0.177
619.55	0.176
619.75	0.176
619.96	0.176
620.16	0.176
620.36	0.176
620.56	0.175
620.76	0.175
620.96	0.174
621.16	0.174
621.36	0.174
621.57	0.174
621.77	0.175
621.97	0.173
622.17	0.173
622.37	0.173
622.57	0.173
622.77	0.173
622.97	0.172
623.18	0.172
623.38	0.173
623.58	0.172
623.78	0.171
623.98	0.171
624.18	0.170
624.38	0.170
624.58	0.169
624.78	0.170
624.98	0.169
625.19	0.169
625.39	0.169
625.59	0.168
625.79	0.168
625.99	0.168
626.19	0.167
626.39	0.167
626.59	0.167
626.79	0.167
626.99	0.167
627.19	0.166
627.40	0.167
627.60	0.167
627.80	0.167
628.00	0.167
628.20	0.166
628.40	0.166
628.60	0.166
628.80	0.165
629.00	0.166
629.20	0.165
629.40	0.165
629.60	0.163
629.80	0.163
630.00	0.163
630.20	0.163
630.41	0.162
630.61	0.162
630.81	0.162
631.01	0.162
631.21	0.161
631.41	0.161
631.61	0.162
631.81	0.161
632.01	0.160
632.21	0.161
632.41	0.160
632.61	0.159
632.81	0.160
633.01	0.160
633.21	0.159
633.41	0.160
633.61	0.159
633.81	0.158
634.01	0.158
634.21	0.158
634.41	0.158
634.61	0.158
634.81	0.157
635.01	0.157
635.22	0.157
635.42	0.157
635.62	0.157
635.82	0.157
636.02	0.157
636.22	0.156
636.42	0.155
636.62	0.156
636.82	0.156
637.02	0.155
637.22	0.155
637.42	0.154
637.62	0.154
637.82	0.154
638.02	0.153
638.22	0.152
638.42	0.152
638.62	0.152
638.82	0.151
639.02	0.151
639.22	0.151
639.42	0.151
639.62	0.151
639.82	0.150
640.02	0.150
640.22	0.151
640.42	0.151
640.62	0.151
640.82	0.150
641.02	0.150
641.22	0.150
641.42	0.149
641.61	0.149
641.81	0.149
642.01	0.149
642.21	0.149
642.41	0.149
642.61	0.148
642.81	0.147
643.01	0.147
643.21	0.147
643.41	0.147
643.61	0.146
643.81	0.146
644.01	0.145
644.21	0.145
644.41	0.145
644.61	0.145
644.81	0.145
645.01	0.145
645.21	0.144
645.41	0.144
645.61	0.144
645.81	0.144
646.01	0.143
646.21	0.144
646.40	0.144
646.60	0.144
646.80	0.145
647.00	0.144
647.20	0.143
647.40	0.143
647.60	0.142
647.80	0.142
648.00	0.143
648.20	0.142
648.40	0.142
648.60	0.141
648.80	0.140
649.00	0.140
649.20	0.141
649.39	0.140
649.59	0.140
649.79	0.140
649.99	0.140
650.19	0.139
650.39	0.139
650.59	0.139
650.79	0.139
650.99	0.139
651.19	0.138
651.39	0.138
651.58	0.138
651.78	0.138
651.98	0.138
652.18	0.138
652.38	0.137
652.58	0.137
652.78	0.137
652.98	0.136
653.18	0.136
653.38	0.136
653.57	0.136
653.77	0.136
653.97	0.136
654.17	0.136
654.37	0.135
654.57	0.135
654.77	0.135
654.97	0.135
655.16	0.135
655.36	0.135
655.56	0.134
655.76	0.134
655.96	0.135
656.16	0.134
656.36	0.134
656.56	0.133
656.75	0.133
656.95	0.133
657.15	0.133
657.35	0.132
657.55	0.132
657.75	0.132
657.95	0.132
658.14	0.132
658.34	0.132
658.54	0.131
658.74	0.131
658.94	0.131
659.14	0.131
659.34	0.131
659.53	0.131
659.73	0.130
659.93	0.130
660.13	0.130
660.33	0.130
660.53	0.130
660.72	0.130
660.92	0.130
661.12	0.129
661.32	0.129
661.52	0.128
661.72	0.128
661.91	0.128
662.11	0.128
662.31	0.127
662.51	0.127
662.71	0.127
662.90	0.126
663.10	0.125
663.30	0.125
663.50	0.125
663.70	0.125
663.90	0.125
664.09	0.124
664.29	0.124
664.49	0.124
664.69	0.124
664.89	0.124
665.08	0.124
665.28	0.123
665.48	0.124
665.68	0.123
665.88	0.123
666.07	0.122
666.27	0.122
666.47	0.122
666.67	0.122
666.87	0.122
667.06	0.122
667.26	0.121
667.46	0.121
667.66	0.121
667.85	0.121
668.05	0.121
668.25	0.121
668.45	0.121
668.65	0.121
668.84	0.121
669.04	0.121
669.24	0.120
669.44	0.120
669.63	0.120
669.83	0.119
670.03	0.118
670.23	0.118
670.42	0.117
670.62	0.117
670.82	0.116
671.02	0.116
671.22	0.116
671.41	0.115
671.61	0.116
671.81	0.116
672.01	0.116
672.20	0.115
672.40	0.115
672.60	0.115
672.80	0.115
672.99	0.115
673.19	0.114
673.39	0.114
673.58	0.114
673.78	0.113
673.98	0.113
674.18	0.113
674.37	0.113
674.57	0.113
674.77	0.113
674.97	0.113
675.16	0.113
675.36	0.113
675.56	0.112
675.75	0.113
675.95	0.112
676.15	0.112
676.35	0.112
676.54	0.112
676.74	0.111
676.94	0.112
677.13	0.111
677.33	0.111
677.53	0.111
677.73	0.111
677.92	0.110
678.12	0.110
678.32	0.110
678.51	0.110
678.71	0.110
678.91	0.109
679.11	0.109
679.30	0.109
679.50	0.109
679.70	0.108
679.89	0.108
680.09	0.109
680.29	0.108
680.48	0.108
680.68	0.108
680.88	0.108
681.07	0.108
681.27	0.107
681.47	0.107
681.66	0.107
681.86	0.107
682.06	0.107
682.25	0.106
682.45	0.106
682.65	0.106
682.84	0.105
683.04	0.105
683.24	0.104
683.43	0.105
683.63	0.104
683.83	0.104
684.02	0.104
684.22	0.104
684.42	0.104
684.61	0.104
684.81	0.104
685.01	0.103
685.20	0.103
685.40	0.103
685.60	0.103
685.79	0.103
685.99	0.103
686.19	0.103
686.38	0.103
686.58	0.103
686.77	0.103
686.97	0.102
687.17	0.102
687.36	0.102
687.56	0.101
687.76	0.101
687.95	0.101
688.15	0.101
688.34	0.101
688.54	0.100
688.74	0.100
688.93	0.100
689.13	0.100
689.33	0.099
689.52	0.099
689.72	0.099
689.91	0.098
690.11	0.098
690.31	0.098
690.50	0.098
690.70	0.098
690.89	0.098
691.09	0.097
691.29	0.097
691.48	0.097
691.68	0.097
691.87	0.097
692.07	0.097
692.27	0.097
692.46	0.097
692.66	0.097
692.85	0.097
693.05	0.097
693.25	0.097
693.44	0.097
693.64	0.097
693.83	0.097
694.03	0.096
694.22	0.096
694.42	0.096
694.62	0.096
694.81	0.096
695.01	0.096
695.20	0.096
695.40	0.095
695.59	0.096
695.79	0.095
695.99	0.095
696.18	0.095
696.38	0.095
696.57	0.095
696.77	0.095
696.96	0.095
697.16	0.095
697.36	0.095
697.55	0.094
697.75	0.094
697.94	0.094
698.14	0.094
698.33	0.094
698.53	0.093
698.72	0.093
698.92	0.093
699.11	0.093
699.31	0.093
699.51	0.093
699.70	0.093
699.90	0.093
700.09	0.092
700.29	0.092
700.48	0.092
700.68	0.092
700.87	0.092
701.07	0.091
701.26	0.091
701.46	0.091
701.65	0.091
701.85	0.090
702.04	0.090
702.24	0.090
702.43	0.090
702.63	0.089
702.82	0.089
703.02	0.089
703.21	0.089
703.41	0.089
703.60	0.089
703.80	0.089
703.99	0.089
704.19	0.089
704.38	0.089
704.58	0.088
704.77	0.089
704.97	0.088
705.16	0.089
705.36	0.089
705.55	0.089
705.75	0.089
705.94	0.089
706.14	0.088
706.33	0.088
706.53	0.088
706.72	0.088
706.92	0.088
707.11	0.087
707.31	0.087
707.50	0.087
707.70	0.087
707.89	0.087
708.09	0.087
708.28	0.087
708.48	0.087
708.67	0.087
708.86	0.087
709.06	0.087
709.25	0.087
709.45	0.086
709.64	0.086
709.84	0.086
710.03	0.086
710.23	0.086
710.42	0.085
710.62	0.085
710.81	0.085
711.00	0.085
711.20	0.085
711.39	0.085
711.59	0.085
711.78	0.085
711.98	0.085
712.17	0.085
712.37	0.084
712.56	0.085
712.75	0.085
712.95	0.085
713.14	0.085
713.34	0.084
713.53	0.085
713.73	0.085
713.92	0.085
714.11	0.085
714.31	0.085
714.50	0.085
714.70	0.085
714.89	0.085
715.08	0.084
715.28	0.085
715.47	0.084
715.67	0.084
715.86	0.084
716.06	0.084
716.25	0.084
716.44	0.084
716.64	0.084
716.83	0.084
717.03	0.084
717.22	0.083
717.41	0.083
717.61	0.083
717.80	0.084
717.99	0.084
718.19	0.083
718.38	0.084
718.58	0.083
718.77	0.083
718.96	0.083
719.16	0.083
719.35	0.083
719.55	0.082
719.74	0.082
719.93	0.082
720.13	0.082
720.32	0.081
720.51	0.081
720.71	0.081
720.90	0.081
721.10	0.081
721.29	0.081
721.48	0.081
721.68	0.082
721.87	0.082
722.06	0.082
722.26	0.083
722.45	0.083
722.64	0.083
722.84	0.083
723.03	0.083
723.22	0.083
723.42	0.083
723.61	0.083
723.80	0.083
724.00	0.083
724.19	0.083
724.38	0.082
724.58	0.082
724.77	0.082
724.96	0.082
725.16	0.082
725.35	0.082
725.54	0.082
725.74	0.082
725.93	0.082
726.12	0.082
726.32	0.082
726.51	0.082
726.70	0.082
726.90	0.082
727.09	0.082
727.28	0.082
727.48	0.082
727.67	0.082
727.86	0.082
728.06	0.082
728.25	0.082
728.44	0.082
728.64	0.082
728.83	0.082
729.02	0.081
729.21	0.082
729.41	0.081
729.60	0.081
729.79	0.081
729.99	0.081
730.18	0.081
730.37	0.081
730.56	0.080
730.76	0.080
730.95	0.081
731.14	0.081
731.34	0.080
731.53	0.081
731.72	0.080
731.91	0.081
732.11	0.080
732.30	0.081
732.49	0.081
732.69	0.081
732.88	0.081
733.07	0.081
733.26	0.081
733.46	0.081
733.65	0.082
733.84	0.082
734.03	0.081
734.23	0.082
734.42	0.082
734.61	0.082
734.80	0.081
735.00	0.082
735.19	0.081
735.38	0.081
735.57	0.081
735.77	0.081
735.96	0.082
736.15	0.082
736.34	0.081
736.54	0.081
736.73	0.081
736.92	0.081
737.11	0.081
737.31	0.081
737.50	0.082
737.69	0.081
737.88	0.081
738.07	0.081
738.27	0.081
738.46	0.081
738.65	0.081
738.84	0.081
739.04	0.082
739.23	0.082
739.42	0.082
739.61	0.082
739.80	0.082
740.00	0.082
740.19	0.082
740.38	0.082
740.57	0.082
740.76	0.081
740.96	0.081
741.15	0.081
741.34	0.081
741.53	0.081
741.72	0.080
741.92	0.080
742.11	0.080
742.30	0.080
742.49	0.080
742.68	0.080
742.88	0.080
743.07	0.080
743.26	0.080
743.45	0.080
743.64	0.079
743.84	0.079
744.03	0.080
744.22	0.080
744.41	0.079
744.60	0.079
744.79	0.079
744.99	0.079
745.18	0.079
745.37	0.079
745.56	0.079
745.75	0.079
745.94	0.079
746.14	0.079
746.33	0.079
746.52	0.079
746.71	0.079
746.90	0.079
747.09	0.079
747.28	0.079
747.48	0.079
747.67	0.078
747.86	0.078
748.05	0.078
748.24	0.078
748.43	0.078
748.62	0.078
748.82	0.078
749.01	0.078
749.20	0.078
749.39	0.078
749.58	0.078
749.77	0.078
749.96	0.078
750.16	0.078
750.35	0.078
750.54	0.078
750.73	0.078
750.92	0.078
751.11	0.078
751.30	0.078
751.49	0.078
751.68	0.078
751.88	0.077
752.07	0.077
752.26	0.077
752.45	0.077
752.64	0.077
752.83	0.077
753.02	0.077
753.21	0.077
753.40	0.077
753.60	0.077
753.79	0.077
753.98	0.077
754.17	0.077
754.36	0.077
754.55	0.077
754.74	0.077
754.93	0.076
755.12	0.076
755.31	0.076
755.50	0.076
755.70	0.076
755.89	0.076
756.08	0.076
756.27	0.076
756.46	0.076
756.65	0.076
756.84	0.076
757.03	0.076
757.22	0.076
757.41	0.076
757.60	0.075
757.79	0.075
757.98	0.076
758.17	0.075
758.36	0.075
758.56	0.075
758.75	0.075
758.94	0.075
759.13	0.075
759.32	0.075
759.51	0.075
759.70	0.075
759.89	0.075
760.08	0.075
760.27	0.075
760.46	0.075
760.65	0.075
760.84	0.075
761.03	0.075
761.22	0.075
761.41	0.075
761.60	0.075
761.79	0.074
761.98	0.074
762.17	0.074
762.36	0.074
762.55	0.074
762.74	0.074
762.93	0.074
763.12	0.073
763.31	0.073
763.50	0.073
763.69	0.073
763.88	0.073
764.07	0.073
764.26	0.073
764.45	0.073
764.64	0.074
764.83	0.074
765.02	0.074
765.21	0.074
765.40	0.074
765.59	0.074
765.78	0.074
765.97	0.074
766.16	0.074
766.35	0.074
766.54	0.074
766.73	0.074
766.92	0.073
767.11	0.073
767.30	0.073
767.49	0.073
767.68	0.073
767.87	0.073
768.06	0.073
768.25	0.073
768.44	0.073
768.63	0.073
768.82	0.073
769.01	0.073
769.20	0.073
769.39	0.073
769.58	0.073
769.77	0.073
769.96	0.073
770.15	0.073
770.34	0.073
770.53	0.073
770.72	0.073
770.91	0.073
771.10	0.073
771.29	0.073
771.47	0.073
771.66	0.072
771.85	0.072
772.04	0.072
772.23	0.072
772.42	0.072
772.61	0.072
772.80	0.072
772.99	0.072
773.18	0.071
773.37	0.072
773.56	0.072
773.75	0.072
773.94	0.072
774.13	0.072
774.31	0.072
774.50	0.072
774.69	0.072
774.88	0.072
775.07	0.072
775.26	0.072
775.45	0.071
775.64	0.071
775.83	0.071
776.02	0.071
776.21	0.071
776.40	0.071
776.58	0.071
776.77	0.071
776.96	0.071
777.15	0.071
777.34	0.071
777.53	0.071
777.72	0.071
777.91	0.071
778.10	0.071
778.28	0.071
778.47	0.071
778.66	0.070
778.85	0.070
779.04	0.070
779.23	0.070
779.42	0.070
779.61	0.070
779.79	0.069
779.98	0.069
780.17	0.069
780.36	0.069
780.55	0.069
780.74	0.069
780.93	0.069
781.12	0.069
781.30	0.069
781.49	0.069
781.68	0.069
781.87	0.069
782.06	0.069
782.25	0.069
782.44	0.069
782.62	0.069
782.81	0.070
783.00	0.069
783.19	0.069
783.38	0.069
783.57	0.069
783.75	0.069
783.94	0.069
784.13	0.069
784.32	0.069
784.51	0.069
784.70	0.069
784.88	0.069
785.07	0.069
785.26	0.069
785.45	0.069
785.64	0.069
785.83	0.069
786.01	0.069
786.20	0.069
786.39	0.069
786.58	0.069
786.77	0.068
786.95	0.068
787.14	0.069
787.33	0.069
787.52	0.068
787.71	0.069
787.90	0.068
788.08	0.068
788.27	0.068
788.46	0.068
788.65	0.068
788.84	0.068
789.02	0.068
789.21	0.068
789.40	0.068
789.59	0.068
789.77	0.068
789.96	0.068
790.15	0.068
790.34	0.068
790.53	0.068
790.71	0.068
790.90	0.068
791.09	0.068
791.28	0.068
791.46	0.068
791.65	0.068
791.84	0.068
792.03	0.068
792.22	0.068
792.40	0.068
792.59	0.068
792.78	0.068
792.97	0.068
793.15	0.068
793.34	0.068
793.53	0.068
793.72	0.068
793.90	0.067
794.09	0.068
794.28	0.067
794.47	0.068
794.65	0.067
794.84	0.068
795.03	0.068
795.22	0.067
795.40	0.067
795.59	0.067
795.78	0.067
795.97	0.067
796.15	0.068
796.34	0.068
796.53	0.068
796.71	0.068
796.90	0.068
797.09	0.068
797.28	0.068
797.46	0.068
797.65	0.068
797.84	0.068
798.02	0.067
798.21	0.067
798.40	0.067
798.59	0.067
798.77	0.066
798.96	0.066
799.15	0.066
799.33	0.066
799.52	0.066
799.71	0.066
799.90	0.066
800.08	0.066
800.27	0.066
800.46	0.066
800.64	0.066
800.83	0.066
801.02	0.066
801.20	0.066
801.39	0.066
801.58	0.066
801.76	0.066
801.95	0.066
802.14	0.066
802.32	0.066
802.51	0.066
802.70	0.065
802.88	0.065
803.07	0.065
803.26	0.065
803.44	0.065
803.63	0.065
803.82	0.065
804.00	0.065
804.19	0.065
804.38	0.066
804.56	0.066
804.75	0.066
804.94	0.066
805.12	0.066
805.31	0.066
805.50	0.066
805.68	0.066
805.87	0.066
806.06	0.066
806.24	0.065
806.43	0.065
806.62	0.065
806.80	0.065
806.99	0.065
807.17	0.064
807.36	0.065
807.55	0.065
807.73	0.065
807.92	0.065
808.11	0.065
808.29	0.065
808.48	0.065
808.66	0.065
808.85	0.065
809.04	0.065
809.22	0.065
809.41	0.065
809.59	0.065
809.78	0.065
809.97	0.065
810.15	0.065
810.34	0.065
810.53	0.065
810.71	0.065
810.90	0.065
811.08	0.065
811.27	0.064
811.45	0.064
811.64	0.064
811.83	0.064
812.01	0.064
812.20	0.064
812.38	0.064
812.57	0.064
812.76	0.064
812.94	0.064
813.13	0.065
813.31	0.065
813.50	0.065
813.68	0.065
813.87	0.064
814.06	0.064
814.24	0.064
814.43	0.064
814.61	0.064
814.80	0.064
814.98	0.064
815.17	0.064
815.36	0.064
815.54	0.064
815.73	0.064
815.91	0.064
816.10	0.064
816.28	0.065
816.47	0.064
816.65	0.065
816.84	0.065
817.03	0.065
817.21	0.065
817.40	0.065
817.58	0.065
817.77	0.065
817.95	0.065
818.14	0.065
818.32	0.065
818.51	0.065
818.69	0.065
818.88	0.065
819.06	0.065
819.25	0.064
819.43	0.064
819.62	0.064
819.80	0.064
819.99	0.064
820.18	0.064
820.36	0.064
820.55	0.064
820.73	0.064
820.92	0.064
821.10	0.065
821.29	0.065
821.47	0.065
821.66	0.065
821.84	0.065
822.03	0.065
822.21	0.064
822.40	0.064
822.58	0.064
822.77	0.064
822.95	0.064
823.14	0.064
823.32	0.065
823.50	0.065
823.69	0.065
823.87	0.065
824.06	0.065
824.24	0.066
824.43	0.066
824.61	0.066
824.80	0.066
824.98	0.066
825.17	0.066
825.35	0.067
825.54	0.066
825.72	0.066
825.91	0.066
826.09	0.066
826.28	0.066
826.46	0.066
826.64	0.067
826.83	0.067
827.01	0.067
827.20	0.067
827.38	0.067
827.57	0.067
827.75	0.067
827.94	0.067
828.12	0.068
828.31	0.068
828.49	0.068
828.67	0.068
828.86	0.068
829.04	0.068
829.23	0.068
829.41	0.068
829.60	0.068
829.78	0.069
829.96	0.069
830.15	0.069
830.33	0.069
830.52	0.070
830.70	0.069
830.88	0.069
831.07	0.070
831.25	0.070
831.44	0.070
831.62	0.069
831.81	0.070
831.99	0.069
832.17	0.070
832.36	0.070
832.54	0.070
832.73	0.070
832.91	0.070
833.09	0.070
833.28	0.070
833.46	0.070
833.65	0.070
833.83	0.070
834.01	0.070
834.20	0.070
834.38	0.070
834.56	0.070
834.75	0.070
834.93	0.071
835.12	0.071
835.30	0.071
835.48	0.071
835.67	0.070
835.85	0.071
836.03	0.071
836.22	0.071
836.40	0.071
836.59	0.071
836.77	0.070
836.95	0.071
837.14	0.071
837.32	0.071
837.50	0.071
837.69	0.071
837.87	0.072
838.05	0.072
838.24	0.072
838.42	0.072
838.60	0.072
838.79	0.073
838.97	0.072
839.15	0.072
839.34	0.072
839.52	0.072
839.70	0.072
839.89	0.072
840.07	0.072
840.25	0.072
840.44	0.071
840.62	0.071
840.80	0.071
840.99	0.071
841.17	0.071
841.35	0.072
841.54	0.072
841.72	0.072
841.90	0.072
842.09	0.072
842.27	0.072
842.45	0.072
842.64	0.072
842.82	0.072
843.00	0.072
843.19	0.072
843.37	0.071
843.55	0.071
843.73	0.071
843.92	0.071
844.10	0.071
844.28	0.072
844.47	0.072
844.65	0.072
844.83	0.072
845.01	0.072
845.20	0.072
845.38	0.073
845.56	0.073
845.75	0.073
845.93	0.073
846.11	0.073
846.29	0.073
846.48	0.073
846.66	0.073
846.84	0.073
847.02	0.072
847.21	0.072
847.39	0.072
847.57	0.072
847.76	0.072
847.94	0.072
848.12	0.072
848.30	0.072
848.49	0.072
848.67	0.072
848.85	0.072
849.03	0.073
849.22	0.073
849.40	0.074
849.58	0.073
849.76	0.074
849.95	0.074
850.13	0.074
850.31	0.074
850.49	0.074
850.67	0.074
850.86	0.074
851.04	0.074
851.22	0.073
851.40	0.073
851.59	0.073
851.77	0.073
851.95	0.073
852.13	0.073
852.31	0.073
852.50	0.074
852.68	0.074
852.86	0.074
853.04	0.074
853.23	0.074
853.41	0.074
853.59	0.074
853.77	0.074
853.95	0.074
854.14	0.074
854.32	0.074
854.50	0.074
854.68	0.073
854.86	0.073
855.04	0.073
855.23	0.073
855.41	0.074
855.59	0.073
855.77	0.073
855.95	0.073
856.14	0.074
856.32	0.073
856.50	0.073
856.68	0.073
856.86	0.073
857.04	0.073
857.23	0.073
857.41	0.073
857.59	0.073
857.77	0.073
857.95	0.073
858.13	0.072
858.32	0.073
858.50	0.073
858.68	0.073
858.86	0.073
859.04	0.073
859.22	0.073
859.41	0.073
859.59	0.073
859.77	0.074
859.95	0.073
860.13	0.074
860.31	0.074
860.49	0.074
860.68	0.074
860.86	0.074
861.04	0.074
861.22	0.074
861.40	0.074
861.58	0.074
861.76	0.074
861.94	0.074
862.13	0.074
862.31	0.074
862.49	0.074
862.67	0.075
862.85	0.075
863.03	0.075
863.21	0.075
863.39	0.075
863.57	0.075
863.76	0.075
863.94	0.075
864.12	0.075
864.30	0.074
864.48	0.074
864.66	0.074
864.84	0.074
865.02	0.075
865.20	0.075
865.38	0.075
865.57	0.075
865.75	0.075
865.93	0.075
866.11	0.075
866.29	0.075
866.47	0.076
866.65	0.076
866.83	0.076
867.01	0.075
867.19	0.075
867.37	0.074
867.55	0.075
867.73	0.075
867.92	0.075
868.10	0.075
868.28	0.074
868.46	0.074
868.64	0.074
868.82	0.075
869.00	0.075
869.18	0.075
869.36	0.075
869.54	0.075
869.72	0.076
869.90	0.075
870.08	0.075
870.26	0.075
870.44	0.075
870.62	0.075
870.80	0.075
870.98	0.075
871.16	0.075
871.34	0.075
871.53	0.075
871.71	0.075
871.89	0.075
872.07	0.075
872.25	0.075
872.43	0.075
872.61	0.075
872.79	0.076
872.97	0.076
873.15	0.076
873.33	0.076
873.51	0.077
873.69	0.077
873.87	0.077
874.05	0.077
874.23	0.077
874.41	0.077
874.59	0.077
874.77	0.077
874.95	0.077
875.13	0.077
875.31	0.078
875.49	0.077
875.67	0.077
875.85	0.077
876.03	0.077
876.21	0.078
876.39	0.077
876.57	0.077
876.75	0.078
876.93	0.077
877.11	0.077
877.29	0.077
877.47	0.077
877.65	0.077
877.82	0.077
878.00	0.077
878.18	0.077
878.36	0.077
878.54	0.077
878.72	0.077
878.90	0.077
879.08	0.077
879.26	0.077
879.44	0.078
879.62	0.078
879.80	0.078
879.98	0.078
880.16	0.077
880.34	0.077
880.52	0.077
880.70	0.077
880.88	0.077
881.06	0.077
881.24	0.077
881.42	0.077
881.59	0.077
881.77	0.077
881.95	0.077
882.13	0.077
882.31	0.077
882.49	0.077
882.67	0.078
882.85	0.078
883.03	0.078
883.21	0.078
883.39	0.078
883.57	0.078
883.75	0.078
883.92	0.078
884.10	0.078
884.28	0.078
884.46	0.079
884.64	0.078
884.82	0.078
885.00	0.078
885.18	0.078
885.36	0.078
885.54	0.078
885.71	0.079
885.89	0.079
886.07	0.079
886.25	0.079
886.43	0.079
886.61	0.079
886.79	0.079
886.97	0.079
887.15	0.079
887.32	0.079
887.50	0.080
887.68	0.080
887.86	0.080
888.04	0.080
888.22	0.080
888.40	0.079
888.57	0.080
888.75	0.080
888.93	0.080
889.11	0.079
889.29	0.080
889.47	0.080
889.65	0.080
889.82	0.080
890.00	0.080
890.18	0.080
890.36	0.080
890.54	0.081
890.72	0.081
890.90	0.081
891.07	0.081
891.25	0.080
891.43	0.080
891.61	0.080
891.79	0.080
891.97	0.080
892.14	0.080
892.32	0.080
892.50	0.080
892.68	0.080
892.86	0.080
893.03	0.080
893.21	0.080
893.39	0.081
893.57	0.081
893.75	0.081
893.93	0.081
894.10	0.081
894.28	0.081
894.46	0.081
894.64	0.081
894.82	0.081
894.99	0.081
895.17	0.081
895.35	0.081
895.53	0.081
895.71	0.080
895.88	0.081
896.06	0.081
896.24	0.081
896.42	0.081
896.59	0.081
896.77	0.081
896.95	0.081
897.13	0.081
897.31	0.081
897.48	0.081
897.66	0.082
897.84	0.081
898.02	0.082
898.19	0.081
898.37	0.081
898.55	0.082
898.73	0.082
898.91	0.082
899.08	0.082
899.26	0.081
899.44	0.082
899.62	0.082
899.79	0.082
899.97	0.082
900.15	0.082
900.33	0.082
900.50	0.082
900.68	0.082
900.86	0.082
901.04	0.082
901.21	0.082
901.39	0.082
901.57	0.082
901.74	0.082
901.92	0.082
902.10	0.082
902.28	0.082
902.45	0.082
902.63	0.082
902.81	0.082
902.99	0.083
903.16	0.083
903.34	0.083
903.52	0.083
903.69	0.083
903.87	0.083
904.05	0.083
904.22	0.084
904.40	0.084
904.58	0.083
904.76	0.083
904.93	0.083
905.11	0.083
905.29	0.083
905.46	0.083
905.64	0.084
905.82	0.084
905.99	0.084
906.17	0.084
906.35	0.084
906.53	0.084
906.70	0.084
906.88	0.084
907.06	0.084
907.23	0.084
907.41	0.085
907.59	0.085
907.76	0.085
907.94	0.085
908.12	0.085
908.29	0.085
908.47	0.085
908.65	0.085
908.82	0.085
909.00	0.085
909.18	0.085
909.35	0.085
909.53	0.085
909.71	0.085
909.88	0.085
910.06	0.085
910.23	0.085
910.41	0.086
910.59	0.085
910.76	0.085
910.94	0.086
911.12	0.086
911.29	0.086
911.47	0.086
911.65	0.086
911.82	0.086
912.00	0.086
912.17	0.086
912.35	0.087
912.53	0.087
912.70	0.087
912.88	0.087
913.06	0.088
913.23	0.088
913.41	0.088
913.58	0.088
913.76	0.088
913.94	0.088
914.11	0.088
914.29	0.088
914.46	0.088
914.64	0.088
914.82	0.088
914.99	0.089
915.17	0.089
915.34	0.089
915.52	0.089
915.70	0.089
915.87	0.089
916.05	0.089
916.22	0.089
916.40	0.089
916.57	0.089
916.75	0.089
916.93	0.089
917.10	0.089
917.28	0.089
917.45	0.089
917.63	0.089
917.80	0.089
917.98	0.089
918.16	0.090
918.33	0.090
918.51	0.090
918.68	0.090
918.86	0.091
919.03	0.091
919.21	0.091
919.39	0.092
919.56	0.092
919.74	0.093
919.91	0.093
920.09	0.093
920.26	0.093
920.44	0.093
920.61	0.093
920.79	0.093
920.96	0.094
921.14	0.094
921.31	0.094
921.49	0.094
921.67	0.094
921.84	0.094
922.02	0.094
922.19	0.094
922.37	0.094
922.54	0.095
922.72	0.095
922.89	0.095
923.07	0.096
923.24	0.096
923.42	0.096
923.59	0.096
923.77	0.097
923.94	0.097
924.12	0.097
924.29	0.098
924.47	0.098
924.64	0.098
924.82	0.098
924.99	0.099
925.17	0.099
925.34	0.100
925.52	0.100
925.69	0.100
925.87	0.100
926.04	0.101
926.22	0.101
926.39	0.101
926.57	0.102
926.74	0.102
926.91	0.102
927.09	0.102
927.26	0.102
927.44	0.103
927.61	0.103
927.79	0.103
927.96	0.104
928.14	0.104
928.31	0.105
928.49	0.105
928.66	0.105
928.84	0.106
929.01	0.107
929.18	0.107
929.36	0.108
929.53	0.108
929.71	0.108
929.88	0.109
930.06	0.109
930.23	0.109
930.41	0.109
930.58	0.111
930.75	0.111
930.93	0.111
931.10	0.111
931.28	0.111
931.45	0.112
931.63	0.112
931.80	0.112
931.97	0.113
932.15	0.114
932.32	0.114
932.50	0.114
932.67	0.115
932.84	0.115
933.02	0.116
933.19	0.116
933.37	0.117
933.54	0.117
933.71	0.118
933.89	0.118
934.06	0.118
934.24	0.119
934.41	0.119
934.58	0.119
934.76	0.120
934.93	0.120
935.11	0.120
935.28	0.121
935.45	0.121
935.63	0.122
935.80	0.123
935.98	0.123
936.15	0.123
936.32	0.124
936.50	0.125
936.67	0.125
936.84	0.126
937.02	0.127
937.19	0.127
937.36	0.128
937.54	0.128
937.71	0.129
937.89	0.129
938.06	0.130
938.23	0.130
938.41	0.131
938.58	0.131
938.75	0.131
938.93	0.132
939.10	0.133
939.27	0.133
939.45	0.134
939.62	0.134
939.79	0.135
939.97	0.135
940.14	0.136
940.31	0.137
940.49	0.137
940.66	0.138
940.83	0.138
941.01	0.139
941.18	0.140
941.35	0.141
941.53	0.141
941.70	0.142
941.87	0.142
942.05	0.143
942.22	0.144
942.39	0.145
942.57	0.146
942.74	0.147
942.91	0.147
943.08	0.148
943.26	0.148
943.43	0.149
943.60	0.149
943.78	0.150
943.95	0.151
944.12	0.151
944.29	0.152
944.47	0.152
944.64	0.153
944.81	0.154
944.99	0.154
945.16	0.154
945.33	0.154
945.50	0.156
945.68	0.157
945.85	0.157
946.02	0.159
946.20	0.159
946.37	0.161
946.54	0.161
946.71	0.162
946.89	0.163
947.06	0.164
947.23	0.165
947.40	0.166
947.58	0.166
947.75	0.167
947.92	0.168
948.09	0.169
948.27	0.170
948.44	0.171
948.61	0.172
948.78	0.173
948.96	0.175
949.13	0.175
949.30	0.177
949.47	0.177
949.65	0.178
949.82	0.180
949.99	0.181
950.16	0.182
950.33	0.183
950.51	0.184
950.68	0.186
950.85	0.187
951.02	0.188
951.20	0.189
951.37	0.191
951.54	0.191
951.71	0.192
951.88	0.194
952.06	0.195
952.23	0.196
952.40	0.197
952.57	0.199
952.74	0.200
952.92	0.201
953.09	0.202
953.26	0.203
953.43	0.204
953.60	0.205
953.77	0.206
953.95	0.207
954.12	0.208
954.29	0.209
954.46	0.211
954.63	0.212
954.81	0.213
954.98	0.213
955.15	0.216
955.32	0.217
955.49	0.217
955.66	0.218
955.84	0.220
956.01	0.220
956.18	0.222
956.35	0.224
956.52	0.225
956.69	0.226
956.87	0.227
957.04	0.228
957.21	0.230
957.38	0.230
957.55	0.232
957.72	0.233
957.89	0.234
958.07	0.234
958.24	0.237
958.41	0.238
958.58	0.238
958.75	0.239
958.92	0.240
959.09	0.240
959.26	0.241
959.44	0.241
959.61	0.242
959.78	0.243
959.95	0.244
960.12	0.245
960.29	0.246
960.46	0.245
960.63	0.246
960.81	0.247
960.98	0.248
961.15	0.248
961.32	0.249
961.49	0.248
961.66	0.249
961.83	0.250
962.00	0.249
962.17	0.250
962.34	0.250
962.52	0.251
962.69	0.252
962.86	0.251
963.03	0.251
963.20	0.252
963.37	0.251
963.54	0.252
963.71	0.252
963.88	0.252
964.05	0.253
964.22	0.254
964.39	0.253
964.56	0.253
964.74	0.255
964.91	0.254
965.08	0.255
965.25	0.256
965.42	0.256
965.59	0.257
965.76	0.257
965.93	0.259
966.10	0.257
966.27	0.257
966.44	0.257
966.61	0.258
966.78	0.257
966.95	0.256
967.12	0.257
967.29	0.258
967.46	0.258
967.63	0.257
967.80	0.258
967.97	0.257
968.14	0.257
968.32	0.258
968.49	0.258
968.66	0.257
968.83	0.258
969.00	0.258
969.17	0.258
969.34	0.259
969.51	0.260
969.68	0.259
969.85	0.260
970.02	0.260
970.19	0.260
970.36	0.261
970.53	0.261
970.70	0.259
970.87	0.260
971.04	0.259
971.21	0.260
971.38	0.260
971.55	0.260
971.72	0.260
971.89	0.261
972.06	0.261
972.23	0.261
972.40	0.261
972.57	0.260
972.74	0.260
972.91	0.261
973.07	0.261
973.24	0.260
973.41	0.261
973.58	0.259
973.75	0.271
973.92	0.260
974.09	0.259
974.26	0.259
974.43	0.258
974.60	0.260
974.77	0.260
974.94	0.259
975.11	0.260
975.28	0.261
975.45	0.260
975.62	0.260
975.79	0.262
975.96	0.261
976.13	0.260
976.30	0.261
976.47	0.259
976.64	0.259
976.80	0.260
976.97	0.260
977.14	0.259
977.31	0.259
977.48	0.260
977.65	0.259
977.82	0.258
977.99	0.260
978.16	0.259
978.33	0.259
978.50	0.258
978.67	0.259
978.83	0.258
979.00	0.258
979.17	0.257
979.34	0.257
979.51	0.256
979.68	0.257
979.85	0.256
980.02	0.257
980.19	0.255
980.36	0.256
980.52	0.257
980.69	0.256
980.86	0.257
981.03	0.257
981.20	0.255
981.37	0.256
981.54	0.256
981.71	0.255
981.88	0.256
982.04	0.256
982.21	0.255
982.38	0.256
982.55	0.255
982.72	0.254
982.89	0.256
983.06	0.254
983.22	0.254
983.39	0.254
983.56	0.253
983.73	0.252
983.90	0.252
984.07	0.254
984.24	0.252
984.40	0.252
984.57	0.250
984.74	0.251
984.91	0.252
985.08	0.250
985.25	0.248
985.41	0.249
985.58	0.249
985.75	0.250
985.92	0.248
986.09	0.247
986.26	0.247
986.42	0.246
986.59	0.245
986.76	0.247
986.93	0.247
987.10	0.247
987.27	0.245
987.43	0.244
987.60	0.246
987.77	0.246
987.94	0.245
988.11	0.246
988.27	0.246
988.44	0.245
988.61	0.244
988.78	0.242
988.95	0.243
989.11	0.244
989.28	0.242
989.45	0.242
989.62	0.242
989.79	0.242
989.95	0.240
990.12	0.242
990.29	0.242
990.46	0.240
990.62	0.239
990.79	0.239
990.96	0.239
991.13	0.239
991.30	0.238
991.46	0.238
991.63	0.236
991.80	0.235
991.97	0.235
992.13	0.235
992.30	0.236
992.47	0.235
992.64	0.235
992.80	0.235
992.97	0.236
993.14	0.233
993.31	0.231
993.47	0.233
993.64	0.230
993.81	0.230
993.98	0.231
994.14	0.230
994.31	0.229
994.48	0.230
994.64	0.229
994.81	0.228
994.98	0.228
995.15	0.226
995.31	0.226
995.48	0.226
995.65	0.228
995.82	0.225
995.98	0.225
996.15	0.226
996.32	0.227
996.48	0.226
996.65	0.226
996.82	0.223
996.99	0.224
997.15	0.223
997.32	0.224
997.49	0.222
997.65	0.223
997.82	0.223
997.99	0.221
998.15	0.222
998.32	0.222
998.49	0.221
998.65	0.221
998.82	0.221
998.99	0.219
999.15	0.219
999.32	0.218
999.49	0.217
999.65	0.217
999.82	0.214
999.99	0.214
1000.15	0.215
1000.32	0.215
1000.49	0.215
1000.65	0.213
1000.82	0.213
1000.99	0.214
1001.15	0.214
1001.32	0.213
1001.49	0.213
1001.65	0.213
1001.82	0.216
1001.99	0.213
1002.15	0.212
1002.32	0.211
1002.49	0.212
1002.65	0.211
1002.82	0.210
1002.99	0.210
1003.15	0.212
1003.32	0.211
1003.48	0.211
1003.65	0.210
1003.82	0.209
1003.98	0.206
1004.15	0.206
1004.32	0.206
1004.48	0.206
1004.65	0.207
1004.81	0.204
1004.98	0.203
1005.15	0.204
1005.31	0.203
1005.48	0.201
1005.64	0.201
1005.81	0.204
1005.98	0.200
1006.14	0.200
1006.31	0.200
1006.47	0.198
1006.64	0.197
1006.81	0.197
1006.97	0.197
1007.14	0.197
1007.30	0.198
1007.47	0.198
1007.63	0.196
1007.80	0.195
1007.97	0.195
1008.13	0.195
1008.30	0.195
1008.46	0.195
1008.63	0.193
1008.79	0.194
1008.96	0.194
1009.13	0.195
1009.29	0.193
1009.46	0.194
1009.62	0.194
1009.79	0.192
1009.95	0.192
1010.12	0.193
1010.28	0.193
1010.45	0.192
1010.62	0.191
1010.78	0.190
1010.95	0.188
1011.11	0.188
1011.28	0.187
1011.44	0.188
1011.61	0.187
1011.77	0.186
1011.94	0.185
1012.10	0.185
1012.27	0.185
1012.43	0.185
1012.60	0.183
1012.76	0.183
1012.93	0.183
1013.10	0.182
1013.26	0.179
1013.43	0.181
1013.59	0.188
1013.76	0.180
1013.92	0.180
1014.09	0.178
1014.25	0.180
1014.42	0.180
1014.58	0.181
1014.75	0.183
1014.91	0.180
1015.08	0.182
1015.24	0.179
1015.41	0.180
1015.57	0.180
1015.73	0.178
1015.90	0.177
1016.06	0.179
1016.23	0.177
1016.39	0.177
1016.56	0.177
1016.72	0.177
1016.89	0.178
1017.05	0.180
1017.22	0.176
1017.38	0.177
1017.55	0.175
1017.71	0.176
1017.88	0.177
1018.04	0.177
1018.21	0.174
1018.37	0.174
1018.53	0.173
1018.70	0.171
1018.86	0.171
1019.03	0.173
1019.19	0.171
1019.36	0.171
1019.52	0.172
1019.69	0.172
1019.85	0.170
1020.01	0.170
1020.18	0.169
1020.34	0.169
1020.51	0.169
1020.67	0.169
1020.84	0.167
1021.00	0.168
1021.16	0.165
1021.33	0.165
1021.49	0.164
1021.66	0.164
1021.82	0.162
1021.98	0.164
1022.15	0.163
1022.31	0.163
1022.48	0.162
1022.64	0.163
1022.80	0.161
1022.97	0.160
1023.13	0.160
1023.30	0.162
1023.46	0.163
1023.62	0.160
1023.79	0.162
1023.95	0.163
1024.12	0.162
1024.28	0.161
1024.44	0.162
1024.61	0.161
1024.77	0.160
1024.93	0.160
1025.10	0.160
1025.26	0.157
1025.43	0.159
1025.59	0.155
1025.75	0.158
1025.92	0.157
1026.08	0.156
1026.24	0.155
1026.41	0.155
1026.57	0.154
1026.73	0.151
1026.90	0.154
1027.06	0.152
1027.23	0.153
1027.39	0.152
1027.55	0.153
1027.72	0.151
1027.88	0.152
1028.04	0.153
1028.21	0.153
1028.37	0.148
1028.53	0.154
1028.70	0.151
1028.86	0.150
1029.02	0.150
1029.19	0.151
1029.35	0.149
1029.51	0.148
1029.67	0.147
1029.84	0.148
1030.00	0.143
1030.16	0.142
1030.33	0.145
1030.49	0.142
1030.65	0.140
1030.82	0.155
1030.98	0.142
1031.14	0.142
1031.31	0.142
1031.47	0.140
1031.63	0.142
1031.79	0.142
1031.96	0.144
1032.12	0.145
1032.28	0.142
1032.45	0.146
1032.61	0.145
1032.77	0.143
1032.93	0.141
1033.10	0.142
1033.26	0.144
1033.42	0.141
1033.58	0.141
1033.75	0.142
1033.91	0.139
1034.07	0.143
1034.24	0.140
1034.40	0.137
1034.56	0.137
1034.72	0.138
1034.89	0.138
1035.05	0.137
1035.21	0.137
1035.37	0.135
1035.54	0.137
1035.70	0.136
1035.86	0.135
1036.02	0.136
1036.19	0.134
1036.35	0.133
1036.51	0.136
1036.67	0.135
1036.83	0.133
1037.00	0.132
1037.16	0.133
1037.32	0.134
1037.48	0.132
1037.65	0.136
1037.81	0.132
1037.97	0.132
1038.13	0.132
1038.29	0.129
1038.46	0.127
1038.62	0.132
1038.78	0.131
1038.94	0.128
1039.10	0.132
1039.27	0.128
1039.43	0.129
1039.59	0.128
1039.75	0.129
1039.91	0.129
1040.08	0.130
1040.24	0.133
1040.40	0.135
1040.56	0.133
1040.72	0.128
1040.89	0.131
1041.05	0.134
1041.21	0.133
1041.37	0.132
1041.53	0.137
1041.69	0.134
1041.86	0.133
1042.02	0.129
1042.18	0.129
1042.34	0.130
1042.50	0.134
1042.66	0.129
1042.83	0.128
1042.99	0.131
1043.15	0.126
1043.31	0.126
1043.47	0.130
1043.63	0.127
1043.79	0.127
1043.96	0.128
1044.12	0.132
1044.28	0.130
1044.44	0.133
1044.60	0.127
1044.76	0.125
1044.92	0.127
1045.09	0.128
1045.25	0.125
1045.41	0.125
1045.57	0.119
1045.73	0.118
1045.89	0.120
1046.05	0.120
1046.21	0.128
1046.38	0.113
1046.54	0.120
1046.70	0.134
1046.86	0.122
>>>>>End Processed Spectral Data<<<<<
