SpectraSuite Data File
++++++++++++++++++++++++++++++++++++
Date: Mon May 20 12:12:43 CDT 2013
User: Students
Dark Spectrum Present: Yes
Reference Spectrum Present: Yes
Number of Sampled Component Spectra: 1
Spectrometers: USB4H00887
Integration Time (usec): 60000 (USB4H00887)
Spectra Averaged: 5 (USB4H00887)
Boxcar Smoothing: 5 (USB4H00887)
Correct for Electrical Dark: No (USB4H00887)
Strobe/Lamp Enabled: No (USB4H00887)
Correct for Detector Non-linearity: No (USB4H00887)
Correct for Stray Light: No (USB4H00887)
Number of Pixels in Processed Spectrum: 3648
>>>>>Begin Processed Spectral Data<<<<<
345.83	0.729
346.05	0.729
346.26	0.729
346.48	-0.000
346.70	0.564
346.92	-0.018
347.14	0.014
347.35	0.024
347.57	0.259
347.79	-0.181
348.01	-0.155
348.23	-0.259
348.44	-0.000
348.66	0.141
348.88	-0.249
349.10	0.036
349.32	-0.014
349.53	0.034
349.75	0.011
349.97	0.032
350.19	0.075
350.41	0.050
350.62	-0.129
350.84	0.003
351.06	-0.010
351.28	0.005
351.50	-0.113
351.71	-0.078
351.93	-0.086
352.15	-0.003
352.37	-0.054
352.58	0.005
352.80	0.025
353.02	0.053
353.24	0.076
353.46	0.317
353.67	-0.090
353.89	0.038
354.11	0.042
354.33	0.045
354.54	0.088
354.76	0.191
354.98	0.261
355.20	0.223
355.41	0.094
355.63	0.144
355.85	0.105
356.07	-0.000
356.28	0.091
356.50	0.138
356.72	0.061
356.94	0.132
357.15	0.192
357.37	-0.000
357.59	0.113
357.81	0.059
358.02	0.118
358.24	0.071
358.46	0.142
358.68	0.146
358.89	0.085
359.11	-0.000
359.33	0.072
359.55	-0.471
359.76	0.088
359.98	0.074
360.20	0.103
360.42	0.089
360.63	0.112
360.85	0.096
361.07	0.540
361.29	0.099
361.50	0.331
361.72	0.131
361.94	0.558
362.15	0.239
362.37	0.135
362.59	0.128
362.81	0.210
363.02	0.362
363.24	0.604
363.46	0.272
363.68	0.333
363.89	0.216
364.11	0.294
364.33	0.389
364.54	0.215
364.76	0.297
364.98	0.309
365.20	0.370
365.41	0.196
365.63	0.213
365.85	0.140
366.06	0.433
366.28	0.438
366.50	0.306
366.71	0.116
366.93	0.151
367.15	0.121
367.37	0.116
367.58	0.135
367.80	0.167
368.02	0.539
368.23	0.132
368.45	0.150
368.67	0.121
368.88	0.116
369.10	-0.000
369.32	0.136
369.53	0.091
369.75	0.144
369.97	0.461
370.19	0.250
370.40	0.088
370.62	0.320
370.84	0.101
371.05	0.495
371.27	0.131
371.49	0.118
371.70	0.117
371.92	0.137
372.14	0.065
372.35	0.064
372.57	0.063
372.79	0.146
373.00	0.051
373.22	0.097
373.44	0.071
373.65	0.061
373.87	0.087
374.09	0.363
374.30	0.103
374.52	0.129
374.74	0.084
374.95	0.348
375.17	0.108
375.39	-0.000
375.60	0.098
375.82	0.251
376.04	0.116
376.25	0.126
376.47	0.079
376.68	0.194
376.90	0.113
377.12	0.278
377.33	0.141
377.55	0.334
377.77	0.171
377.98	0.295
378.20	0.157
378.42	0.191
378.63	0.250
378.85	-0.000
379.07	0.157
379.28	0.639
379.50	0.338
379.71	0.180
379.93	0.123
380.15	0.175
380.36	0.231
380.58	0.145
380.80	0.371
381.01	0.125
381.23	0.109
381.44	0.111
381.66	0.128
381.88	0.165
382.09	-0.074
382.31	0.118
382.53	0.120
382.74	0.641
382.96	0.173
383.17	0.144
383.39	0.209
383.61	0.277
383.82	0.205
384.04	0.239
384.25	0.278
384.47	0.265
384.69	0.232
384.90	0.238
385.12	0.499
385.33	0.329
385.55	0.253
385.77	0.405
385.98	0.202
386.20	0.288
386.41	0.238
386.63	0.264
386.85	0.217
387.06	0.289
387.28	0.420
387.49	0.272
387.71	0.195
387.93	0.162
388.14	0.440
388.36	0.188
388.57	0.174
388.79	0.193
389.01	1.383
389.22	0.270
389.44	0.231
389.65	0.187
389.87	0.185
390.08	0.227
390.30	0.176
390.52	0.363
390.73	0.363
390.95	0.236
391.16	0.233
391.38	-0.000
391.59	0.259
391.81	0.221
392.03	0.210
392.24	0.239
392.46	0.185
392.67	0.181
392.89	0.246
393.10	0.380
393.32	0.262
393.53	0.291
393.75	0.181
393.97	0.213
394.18	0.279
394.40	0.251
394.61	0.276
394.83	0.246
395.04	0.265
395.26	0.176
395.47	0.267
395.69	0.224
395.91	0.263
396.12	0.318
396.34	0.317
396.55	0.210
396.77	0.297
396.98	1.380
397.20	0.374
397.41	0.484
397.63	0.338
397.84	0.308
398.06	0.292
398.27	0.280
398.49	0.316
398.71	0.235
398.92	0.296
399.14	0.377
399.35	0.452
399.57	0.439
399.78	0.272
400.00	0.255
400.21	0.323
400.43	0.271
400.64	0.286
400.86	0.651
401.07	0.355
401.29	0.291
401.50	0.327
401.72	0.480
401.93	0.297
402.15	0.372
402.36	0.352
402.58	0.279
402.79	0.306
403.01	0.513
403.22	0.397
403.44	0.266
403.65	0.427
403.87	0.463
404.08	0.352
404.30	0.591
404.51	0.325
404.73	0.389
404.94	0.339
405.16	0.347
405.37	0.280
405.59	0.525
405.80	0.323
406.02	0.410
406.23	0.423
406.45	0.488
406.66	0.508
406.88	0.318
407.09	0.490
407.31	0.384
407.52	0.478
407.74	0.372
407.95	0.432
408.17	0.404
408.38	0.421
408.60	0.272
408.81	0.464
409.03	0.347
409.24	0.352
409.45	0.407
409.67	0.394
409.88	0.357
410.10	0.469
410.31	0.392
410.53	0.377
410.74	0.537
410.96	0.520
411.17	0.533
411.39	0.427
411.60	0.389
411.82	0.460
412.03	0.439
412.24	0.415
412.46	0.586
412.67	0.476
412.89	0.476
413.10	0.477
413.32	0.434
413.53	0.497
413.75	0.507
413.96	0.389
414.17	0.510
414.39	0.535
414.60	0.438
414.82	0.612
415.03	0.456
415.25	0.506
415.46	0.346
415.68	0.488
415.89	0.998
416.10	0.728
416.32	0.391
416.53	0.470
416.75	0.423
416.96	0.515
417.18	0.438
417.39	0.433
417.60	0.440
417.82	0.647
418.03	0.574
418.25	0.469
418.46	0.499
418.67	0.453
418.89	0.492
419.10	0.526
419.32	0.724
419.53	0.656
419.75	0.546
419.96	0.466
420.17	0.567
420.39	0.529
420.60	0.550
420.82	0.709
421.03	0.549
421.24	0.453
421.46	0.502
421.67	0.545
421.89	0.468
422.10	0.497
422.31	0.499
422.53	0.724
422.74	0.524
422.96	0.422
423.17	0.461
423.38	0.572
423.60	0.480
423.81	0.584
424.03	0.497
424.24	0.552
424.45	0.562
424.67	0.547
424.88	0.493
425.09	0.537
425.31	0.484
425.52	0.519
425.74	0.579
425.95	0.626
426.16	0.501
426.38	0.596
426.59	0.546
426.80	0.617
427.02	0.658
427.23	0.504
427.45	0.663
427.66	0.642
427.87	0.495
428.09	0.533
428.30	0.601
428.51	0.586
428.73	0.637
428.94	0.557
429.15	0.547
429.37	0.515
429.58	0.551
429.79	0.510
430.01	0.625
430.22	0.612
430.44	0.629
430.65	0.560
430.86	0.606
431.08	0.600
431.29	0.541
431.50	0.647
431.72	0.893
431.93	0.704
432.14	0.516
432.36	0.564
432.57	0.579
432.78	0.599
433.00	0.549
433.21	0.543
433.42	0.670
433.64	0.594
433.85	0.671
434.06	0.537
434.28	0.565
434.49	0.586
434.70	0.599
434.92	0.614
435.13	0.666
435.34	0.670
435.56	0.625
435.77	0.626
435.98	0.810
436.20	0.672
436.41	0.583
436.62	0.578
436.83	0.659
437.05	0.746
437.26	0.648
437.47	0.574
437.69	0.634
437.90	0.576
438.11	0.562
438.33	0.614
438.54	0.637
438.75	0.818
438.97	0.801
439.18	0.603
439.39	0.640
439.60	0.698
439.82	0.646
440.03	0.590
440.24	0.890
440.46	0.658
440.67	0.631
440.88	0.679
441.10	0.635
441.31	0.637
441.52	0.686
441.73	0.774
441.95	0.682
442.16	0.628
442.37	1.026
442.58	0.622
442.80	0.606
443.01	0.797
443.22	0.723
443.44	0.614
443.65	0.725
443.86	0.723
444.07	0.771
444.29	0.663
444.50	0.867
444.71	0.652
444.92	0.606
445.14	0.784
445.35	0.846
445.56	0.648
445.78	0.765
445.99	0.761
446.20	0.651
446.41	0.744
446.63	0.743
446.84	0.691
447.05	0.700
447.26	0.850
447.48	0.704
447.69	0.654
447.90	0.754
448.11	0.672
448.33	0.707
448.54	0.732
448.75	0.762
448.96	0.770
449.18	0.814
449.39	0.716
449.60	0.696
449.81	0.858
450.03	0.740
450.24	0.810
450.45	0.758
450.66	0.727
450.87	0.761
451.09	0.707
451.30	0.685
451.51	0.771
451.72	0.780
451.94	0.797
452.15	0.867
452.36	0.725
452.57	0.736
452.78	0.733
453.00	0.768
453.21	0.719
453.42	0.695
453.63	0.799
453.85	0.760
454.06	0.758
454.27	0.903
454.48	0.798
454.69	0.722
454.91	0.810
455.12	0.707
455.33	0.803
455.54	0.829
455.75	0.792
455.97	0.827
456.18	0.815
456.39	0.820
456.60	0.849
456.81	0.783
457.03	0.788
457.24	0.781
457.45	0.879
457.66	0.815
457.87	0.758
458.09	0.782
458.30	0.685
458.51	0.815
458.72	0.836
458.93	0.848
459.15	0.738
459.36	0.802
459.57	0.827
459.78	0.872
459.99	0.778
460.20	0.750
460.42	0.839
460.63	0.789
460.84	0.775
461.05	0.797
461.26	0.858
461.47	0.777
461.69	0.840
461.90	0.883
462.11	0.837
462.32	0.907
462.53	0.825
462.74	0.930
462.96	0.796
463.17	0.784
463.38	0.828
463.59	0.955
463.80	0.775
464.01	0.801
464.23	0.892
464.44	0.854
464.65	0.854
464.86	0.881
465.07	0.888
465.28	0.849
465.49	0.876
465.71	0.831
465.92	0.870
466.13	0.926
466.34	0.845
466.55	0.904
466.76	0.857
466.97	0.887
467.19	0.871
467.40	0.912
467.61	0.909
467.82	0.816
468.03	0.793
468.24	0.868
468.45	0.899
468.66	0.884
468.88	0.889
469.09	0.888
469.30	0.936
469.51	0.859
469.72	0.903
469.93	0.878
470.14	0.859
470.35	0.959
470.57	0.907
470.78	0.844
470.99	0.990
471.20	0.927
471.41	0.882
471.62	0.938
471.83	0.904
472.04	0.934
472.25	0.985
472.47	0.892
472.68	0.898
472.89	0.901
473.10	0.947
473.31	0.887
473.52	0.943
473.73	0.967
473.94	0.889
474.15	0.921
474.36	0.923
474.57	0.948
474.79	0.919
475.00	0.920
475.21	0.903
475.42	1.004
475.63	0.906
475.84	0.949
476.05	0.955
476.26	0.916
476.47	0.948
476.68	1.000
476.89	0.922
477.10	0.977
477.32	0.960
477.53	1.029
477.74	0.934
477.95	0.976
478.16	0.917
478.37	0.961
478.58	0.967
478.79	0.985
479.00	0.986
479.21	0.942
479.42	0.987
479.63	0.992
479.84	0.948
480.05	0.949
480.26	0.980
480.47	0.997
480.69	0.996
480.90	0.964
481.11	0.959
481.32	1.022
481.53	0.956
481.74	1.011
481.95	0.977
482.16	0.997
482.37	1.007
482.58	0.964
482.79	0.985
483.00	1.019
483.21	0.958
483.42	0.931
483.63	1.020
483.84	1.051
484.05	1.037
484.26	1.002
484.47	1.003
484.68	0.961
484.89	0.977
485.10	1.034
485.31	1.012
485.52	1.014
485.73	1.012
485.94	1.051
486.15	0.993
486.37	1.011
486.58	0.975
486.79	0.984
487.00	1.041
487.21	1.025
487.42	1.014
487.63	1.019
487.84	1.041
488.05	1.036
488.26	0.994
488.47	1.000
488.68	1.034
488.89	1.006
489.10	1.001
489.31	1.008
489.52	1.045
489.73	1.011
489.94	1.048
490.15	0.999
490.36	1.045
490.57	0.993
490.78	0.975
490.99	1.013
491.20	1.098
491.41	1.050
491.62	0.989
491.83	1.020
492.04	1.016
492.25	1.026
492.45	1.030
492.66	1.056
492.87	1.046
493.08	1.032
493.29	1.018
493.50	1.006
493.71	1.016
493.92	1.014
494.13	1.030
494.34	1.056
494.55	1.061
494.76	1.096
494.97	1.086
495.18	1.045
495.39	1.066
495.60	1.008
495.81	1.010
496.02	1.033
496.23	1.025
496.44	1.064
496.65	1.051
496.86	1.059
497.07	1.086
497.28	1.082
497.49	1.024
497.70	1.024
497.91	1.050
498.12	1.030
498.32	1.076
498.53	1.059
498.74	1.044
498.95	1.072
499.16	1.023
499.37	1.026
499.58	1.036
499.79	1.072
500.00	1.069
500.21	1.095
500.42	1.034
500.63	1.035
500.84	1.055
501.05	1.033
501.26	1.061
501.46	1.101
501.67	1.059
501.88	1.061
502.09	1.035
502.30	1.041
502.51	1.096
502.72	1.049
502.93	1.064
503.14	1.091
503.35	1.062
503.56	1.061
503.77	1.098
503.97	1.071
504.18	1.071
504.39	1.108
504.60	1.074
504.81	1.103
505.02	1.089
505.23	1.088
505.44	1.065
505.65	1.073
505.86	1.049
506.07	1.123
506.27	1.079
506.48	1.082
506.69	1.064
506.90	1.087
507.11	1.083
507.32	1.055
507.53	1.067
507.74	1.059
507.95	1.071
508.15	1.076
508.36	1.079
508.57	1.092
508.78	1.074
508.99	1.077
509.20	1.050
509.41	1.077
509.62	1.066
509.82	1.062
510.03	1.073
510.24	1.076
510.45	1.103
510.66	1.093
510.87	1.088
511.08	1.044
511.29	1.089
511.49	1.063
511.70	1.115
511.91	1.042
512.12	1.041
512.33	1.079
512.54	1.094
512.75	1.075
512.95	1.104
513.16	1.091
513.37	1.065
513.58	1.107
513.79	1.066
514.00	1.073
514.20	1.093
514.41	1.080
514.62	1.041
514.83	1.087
515.04	1.077
515.25	1.054
515.46	1.071
515.66	1.073
515.87	1.086
516.08	1.053
516.29	1.078
516.50	1.056
516.71	1.051
516.91	1.062
517.12	1.080
517.33	1.064
517.54	1.051
517.75	1.052
517.95	1.065
518.16	1.077
518.37	1.041
518.58	1.047
518.79	1.018
519.00	1.048
519.20	1.059
519.41	1.029
519.62	1.051
519.83	1.062
520.04	1.023
520.24	1.023
520.45	1.036
520.66	1.065
520.87	1.024
521.08	1.022
521.28	1.029
521.49	1.048
521.70	1.014
521.91	1.029
522.12	1.006
522.32	1.033
522.53	1.013
522.74	0.998
522.95	1.006
523.16	1.009
523.36	1.021
523.57	1.000
523.78	0.991
523.99	0.997
524.20	0.988
524.40	1.005
524.61	1.012
524.82	0.983
525.03	0.988
525.23	0.990
525.44	0.973
525.65	0.971
525.86	0.996
526.06	0.969
526.27	0.970
526.48	0.983
526.69	0.961
526.90	0.965
527.10	1.003
527.31	0.952
527.52	0.946
527.73	0.940
527.93	0.950
528.14	0.956
528.35	0.945
528.56	0.949
528.76	0.939
528.97	0.931
529.18	0.920
529.39	0.922
529.59	0.926
529.80	0.959
530.01	0.928
530.22	0.927
530.42	0.892
530.63	0.911
530.84	0.886
531.05	0.902
531.25	0.905
531.46	0.896
531.67	0.872
531.88	0.893
532.08	0.886
532.29	0.881
532.50	0.874
532.70	0.867
532.91	0.854
533.12	0.857
533.33	0.882
533.53	0.851
533.74	0.850
533.95	0.856
534.15	0.844
534.36	0.845
534.57	0.827
534.78	0.827
534.98	0.837
535.19	0.808
535.40	0.809
535.60	0.830
535.81	0.809
536.02	0.811
536.23	0.803
536.43	0.805
536.64	0.792
536.85	0.801
537.05	0.812
537.26	0.788
537.47	0.791
537.67	0.780
537.88	0.774
538.09	0.781
538.30	0.770
538.50	0.762
538.71	0.773
538.92	0.758
539.12	0.754
539.33	0.748
539.54	0.749
539.74	0.754
539.95	0.743
540.16	0.741
540.36	0.733
540.57	0.733
540.78	0.725
540.98	0.725
541.19	0.723
541.40	0.710
541.60	0.722
541.81	0.716
542.02	0.716
542.22	0.704
542.43	0.698
542.64	0.692
542.84	0.691
543.05	0.683
543.26	0.683
543.46	0.685
543.67	0.683
543.88	0.678
544.08	0.668
544.29	0.662
544.50	0.664
544.70	0.664
544.91	0.655
545.12	0.656
545.32	0.649
545.53	0.653
545.74	0.642
545.94	0.638
546.15	0.635
546.35	0.633
546.56	0.630
546.77	0.626
546.97	0.624
547.18	0.615
547.39	0.616
547.59	0.615
547.80	0.610
548.01	0.614
548.21	0.609
548.42	0.601
548.62	0.600
548.83	0.597
549.04	0.593
549.24	0.585
549.45	0.585
549.65	0.581
549.86	0.576
550.07	0.576
550.27	0.573
550.48	0.582
550.69	0.567
550.89	0.567
551.10	0.562
551.30	0.560
551.51	0.559
551.72	0.549
551.92	0.550
552.13	0.550
552.33	0.550
552.54	0.544
552.75	0.537
552.95	0.539
553.16	0.534
553.36	0.532
553.57	0.531
553.78	0.530
553.98	0.529
554.19	0.521
554.39	0.518
554.60	0.520
554.80	0.520
555.01	0.511
555.22	0.513
555.42	0.509
555.63	0.502
555.83	0.505
556.04	0.499
556.25	0.501
556.45	0.491
556.66	0.489
556.86	0.492
557.07	0.490
557.27	0.489
557.48	0.483
557.68	0.481
557.89	0.482
558.10	0.478
558.30	0.475
558.51	0.472
558.71	0.469
558.92	0.465
559.12	0.466
559.33	0.470
559.54	0.465
559.74	0.460
559.95	0.457
560.15	0.457
560.36	0.455
560.56	0.450
560.77	0.450
560.97	0.450
561.18	0.446
561.38	0.445
561.59	0.447
561.79	0.443
562.00	0.441
562.21	0.438
562.41	0.436
562.62	0.435
562.82	0.432
563.03	0.429
563.23	0.429
563.44	0.428
563.64	0.425
563.85	0.427
564.05	0.420
564.26	0.419
564.46	0.418
564.67	0.418
564.87	0.414
565.08	0.411
565.28	0.410
565.49	0.411
565.69	0.408
565.90	0.404
566.10	0.406
566.31	0.399
566.51	0.401
566.72	0.402
566.92	0.395
567.13	0.394
567.33	0.393
567.54	0.392
567.74	0.391
567.95	0.387
568.15	0.388
568.36	0.387
568.56	0.386
568.77	0.380
568.97	0.379
569.18	0.378
569.38	0.377
569.59	0.377
569.79	0.374
570.00	0.372
570.20	0.370
570.41	0.368
570.61	0.366
570.82	0.367
571.02	0.363
571.23	0.365
571.43	0.360
571.64	0.359
571.84	0.358
572.05	0.357
572.25	0.356
572.45	0.355
572.66	0.352
572.86	0.351
573.07	0.349
573.27	0.349
573.48	0.348
573.68	0.344
573.89	0.344
574.09	0.344
574.30	0.342
574.50	0.340
574.70	0.340
574.91	0.337
575.11	0.337
575.32	0.337
575.52	0.333
575.73	0.333
575.93	0.332
576.14	0.330
576.34	0.328
576.54	0.327
576.75	0.326
576.95	0.325
577.16	0.324
577.36	0.322
577.57	0.322
577.77	0.320
577.97	0.317
578.18	0.319
578.38	0.316
578.59	0.315
578.79	0.313
579.00	0.314
579.20	0.312
579.40	0.311
579.61	0.310
579.81	0.309
580.02	0.306
580.22	0.306
580.42	0.305
580.63	0.305
580.83	0.303
581.04	0.302
581.24	0.301
581.45	0.299
581.65	0.299
581.85	0.298
582.06	0.295
582.26	0.295
582.47	0.294
582.67	0.293
582.87	0.292
583.08	0.290
583.28	0.289
583.48	0.288
583.69	0.285
583.89	0.285
584.10	0.286
584.30	0.283
584.50	0.282
584.71	0.281
584.91	0.281
585.12	0.279
585.32	0.280
585.52	0.278
585.73	0.276
585.93	0.276
586.13	0.275
586.34	0.274
586.54	0.273
586.75	0.272
586.95	0.270
587.15	0.270
587.36	0.269
587.56	0.269
587.76	0.267
587.97	0.267
588.17	0.265
588.37	0.265
588.58	0.265
588.78	0.262
588.98	0.263
589.19	0.262
589.39	0.260
589.60	0.261
589.80	0.258
590.00	0.257
590.21	0.258
590.41	0.256
590.61	0.256
590.82	0.255
591.02	0.255
591.22	0.253
591.43	0.254
591.63	0.252
591.83	0.251
592.04	0.250
592.24	0.250
592.44	0.247
592.65	0.245
592.85	0.246
593.05	0.246
593.26	0.244
593.46	0.244
593.66	0.243
593.86	0.243
594.07	0.241
594.27	0.241
594.47	0.241
594.68	0.240
594.88	0.241
595.08	0.239
595.29	0.240
595.49	0.237
595.69	0.237
595.90	0.236
596.10	0.236
596.30	0.235
596.50	0.234
596.71	0.234
596.91	0.233
597.11	0.232
597.32	0.231
597.52	0.230
597.72	0.230
597.93	0.229
598.13	0.228
598.33	0.227
598.53	0.226
598.74	0.226
598.94	0.225
599.14	0.225
599.35	0.225
599.55	0.224
599.75	0.224
599.95	0.222
600.16	0.222
600.36	0.221
600.56	0.221
600.76	0.220
600.97	0.218
601.17	0.218
601.37	0.218
601.58	0.217
601.78	0.217
601.98	0.216
602.18	0.215
602.39	0.215
602.59	0.214
602.79	0.214
602.99	0.213
603.20	0.212
603.40	0.213
603.60	0.213
603.80	0.212
604.01	0.211
604.21	0.210
604.41	0.210
604.61	0.209
604.82	0.209
605.02	0.208
605.22	0.208
605.42	0.207
605.62	0.207
605.83	0.206
606.03	0.205
606.23	0.205
606.43	0.205
606.64	0.205
606.84	0.204
607.04	0.203
607.24	0.203
607.45	0.203
607.65	0.202
607.85	0.202
608.05	0.200
608.25	0.200
608.46	0.200
608.66	0.200
608.86	0.199
609.06	0.198
609.26	0.197
609.47	0.198
609.67	0.196
609.87	0.197
610.07	0.197
610.28	0.196
610.48	0.196
610.68	0.196
610.88	0.195
611.08	0.195
611.29	0.194
611.49	0.193
611.69	0.194
611.89	0.192
612.09	0.192
612.29	0.192
612.50	0.191
612.70	0.191
612.90	0.189
613.10	0.189
613.30	0.189
613.51	0.189
613.71	0.188
613.91	0.192
614.11	0.187
614.31	0.186
614.51	0.186
614.72	0.185
614.92	0.185
615.12	0.185
615.32	0.185
615.52	0.185
615.72	0.185
615.93	0.185
616.13	0.184
616.33	0.184
616.53	0.184
616.73	0.184
616.93	0.183
617.14	0.183
617.34	0.183
617.54	0.183
617.74	0.183
617.94	0.182
618.14	0.182
618.34	0.181
618.55	0.181
618.75	0.181
618.95	0.181
619.15	0.181
619.35	0.180
619.55	0.179
619.75	0.179
619.96	0.178
620.16	0.178
620.36	0.178
620.56	0.177
620.76	0.177
620.96	0.177
621.16	0.176
621.36	0.176
621.57	0.176
621.77	0.176
621.97	0.175
622.17	0.175
622.37	0.175
622.57	0.175
622.77	0.174
622.97	0.174
623.18	0.173
623.38	0.174
623.58	0.173
623.78	0.172
623.98	0.172
624.18	0.171
624.38	0.171
624.58	0.171
624.78	0.171
624.98	0.172
625.19	0.172
625.39	0.172
625.59	0.171
625.79	0.171
625.99	0.171
626.19	0.171
626.39	0.171
626.59	0.170
626.79	0.170
626.99	0.170
627.19	0.170
627.40	0.170
627.60	0.169
627.80	0.169
628.00	0.169
628.20	0.168
628.40	0.168
628.60	0.168
628.80	0.167
629.00	0.167
629.20	0.166
629.40	0.166
629.60	0.165
629.80	0.165
630.00	0.165
630.20	0.165
630.41	0.164
630.61	0.164
630.81	0.164
631.01	0.164
631.21	0.163
631.41	0.163
631.61	0.163
631.81	0.163
632.01	0.162
632.21	0.162
632.41	0.161
632.61	0.161
632.81	0.161
633.01	0.161
633.21	0.161
633.41	0.161
633.61	0.160
633.81	0.160
634.01	0.159
634.21	0.159
634.41	0.159
634.61	0.159
634.81	0.159
635.01	0.159
635.22	0.159
635.42	0.158
635.62	0.158
635.82	0.159
636.02	0.158
636.22	0.158
636.42	0.157
636.62	0.157
636.82	0.157
637.02	0.157
637.22	0.157
637.42	0.156
637.62	0.156
637.82	0.156
638.02	0.155
638.22	0.155
638.42	0.155
638.62	0.154
638.82	0.154
639.02	0.153
639.22	0.153
639.42	0.153
639.62	0.153
639.82	0.152
640.02	0.153
640.22	0.152
640.42	0.152
640.62	0.152
640.82	0.152
641.02	0.152
641.22	0.153
641.42	0.152
641.61	0.152
641.81	0.152
642.01	0.151
642.21	0.151
642.41	0.151
642.61	0.150
642.81	0.149
643.01	0.149
643.21	0.149
643.41	0.149
643.61	0.149
643.81	0.149
644.01	0.148
644.21	0.147
644.41	0.147
644.61	0.147
644.81	0.147
645.01	0.147
645.21	0.147
645.41	0.147
645.61	0.146
645.81	0.146
646.01	0.146
646.21	0.147
646.40	0.146
646.60	0.146
646.80	0.147
647.00	0.146
647.20	0.145
647.40	0.145
647.60	0.145
647.80	0.145
648.00	0.145
648.20	0.145
648.40	0.144
648.60	0.144
648.80	0.144
649.00	0.143
649.20	0.144
649.39	0.143
649.59	0.143
649.79	0.142
649.99	0.143
650.19	0.142
650.39	0.142
650.59	0.142
650.79	0.142
650.99	0.142
651.19	0.141
651.39	0.141
651.58	0.140
651.78	0.140
651.98	0.140
652.18	0.140
652.38	0.139
652.58	0.139
652.78	0.138
652.98	0.138
653.18	0.138
653.38	0.139
653.57	0.139
653.77	0.139
653.97	0.139
654.17	0.139
654.37	0.138
654.57	0.139
654.77	0.139
654.97	0.138
655.16	0.138
655.36	0.137
655.56	0.136
655.76	0.136
655.96	0.136
656.16	0.135
656.36	0.135
656.56	0.134
656.75	0.134
656.95	0.134
657.15	0.134
657.35	0.133
657.55	0.133
657.75	0.134
657.95	0.133
658.14	0.133
658.34	0.133
658.54	0.133
658.74	0.133
658.94	0.133
659.14	0.133
659.34	0.132
659.53	0.132
659.73	0.132
659.93	0.131
660.13	0.131
660.33	0.131
660.53	0.131
660.72	0.132
660.92	0.131
661.12	0.131
661.32	0.130
661.52	0.130
661.72	0.130
661.91	0.129
662.11	0.129
662.31	0.129
662.51	0.129
662.71	0.129
662.90	0.128
663.10	0.128
663.30	0.127
663.50	0.127
663.70	0.127
663.90	0.127
664.09	0.127
664.29	0.126
664.49	0.126
664.69	0.126
664.89	0.126
665.08	0.126
665.28	0.126
665.48	0.126
665.68	0.125
665.88	0.125
666.07	0.125
666.27	0.125
666.47	0.125
666.67	0.125
666.87	0.125
667.06	0.124
667.26	0.124
667.46	0.124
667.66	0.124
667.85	0.124
668.05	0.124
668.25	0.124
668.45	0.123
668.65	0.123
668.84	0.123
669.04	0.122
669.24	0.122
669.44	0.121
669.63	0.121
669.83	0.121
670.03	0.121
670.23	0.120
670.42	0.120
670.62	0.120
670.82	0.119
671.02	0.119
671.22	0.118
671.41	0.118
671.61	0.119
671.81	0.118
672.01	0.118
672.20	0.118
672.40	0.118
672.60	0.117
672.80	0.117
672.99	0.118
673.19	0.117
673.39	0.117
673.58	0.117
673.78	0.116
673.98	0.116
674.18	0.115
674.37	0.115
674.57	0.115
674.77	0.115
674.97	0.115
675.16	0.116
675.36	0.115
675.56	0.115
675.75	0.115
675.95	0.114
676.15	0.115
676.35	0.115
676.54	0.115
676.74	0.115
676.94	0.115
677.13	0.114
677.33	0.114
677.53	0.114
677.73	0.113
677.92	0.113
678.12	0.113
678.32	0.112
678.51	0.112
678.71	0.112
678.91	0.112
679.11	0.111
679.30	0.111
679.50	0.111
679.70	0.111
679.89	0.111
680.09	0.111
680.29	0.110
680.48	0.110
680.68	0.110
680.88	0.110
681.07	0.110
681.27	0.110
681.47	0.110
681.66	0.110
681.86	0.110
682.06	0.110
682.25	0.110
682.45	0.110
682.65	0.110
682.84	0.109
683.04	0.109
683.24	0.108
683.43	0.108
683.63	0.108
683.83	0.108
684.02	0.107
684.22	0.107
684.42	0.107
684.61	0.107
684.81	0.107
685.01	0.106
685.20	0.106
685.40	0.106
685.60	0.106
685.79	0.106
685.99	0.106
686.19	0.106
686.38	0.105
686.58	0.106
686.77	0.106
686.97	0.105
687.17	0.105
687.36	0.105
687.56	0.105
687.76	0.104
687.95	0.104
688.15	0.104
688.34	0.104
688.54	0.104
688.74	0.103
688.93	0.103
689.13	0.103
689.33	0.103
689.52	0.103
689.72	0.104
689.91	0.103
690.11	0.102
690.31	0.102
690.50	0.102
690.70	0.103
690.89	0.102
691.09	0.102
691.29	0.101
691.48	0.101
691.68	0.100
691.87	0.100
692.07	0.100
692.27	0.100
692.46	0.100
692.66	0.099
692.85	0.099
693.05	0.099
693.25	0.100
693.44	0.100
693.64	0.100
693.83	0.100
694.03	0.099
694.22	0.099
694.42	0.098
694.62	0.099
694.81	0.099
695.01	0.099
695.20	0.099
695.40	0.098
695.59	0.098
695.79	0.097
695.99	0.098
696.18	0.098
696.38	0.098
696.57	0.098
696.77	0.097
696.96	0.098
697.16	0.098
697.36	0.097
697.55	0.097
697.75	0.097
697.94	0.097
698.14	0.097
698.33	0.096
698.53	0.096
698.72	0.096
698.92	0.096
699.11	0.096
699.31	0.096
699.51	0.096
699.70	0.095
699.90	0.095
700.09	0.096
700.29	0.095
700.48	0.095
700.68	0.095
700.87	0.095
701.07	0.094
701.26	0.094
701.46	0.094
701.65	0.094
701.85	0.094
702.04	0.094
702.24	0.094
702.43	0.094
702.63	0.094
702.82	0.094
703.02	0.093
703.21	0.093
703.41	0.093
703.60	0.093
703.80	0.093
703.99	0.093
704.19	0.092
704.38	0.092
704.58	0.092
704.77	0.092
704.97	0.091
705.16	0.092
705.36	0.092
705.55	0.091
705.75	0.091
705.94	0.091
706.14	0.091
706.33	0.091
706.53	0.092
706.72	0.092
706.92	0.091
707.11	0.091
707.31	0.091
707.50	0.091
707.70	0.091
707.89	0.091
708.09	0.091
708.28	0.091
708.48	0.091
708.67	0.090
708.86	0.090
709.06	0.090
709.25	0.090
709.45	0.091
709.64	0.090
709.84	0.091
710.03	0.090
710.23	0.090
710.42	0.090
710.62	0.090
710.81	0.090
711.00	0.090
711.20	0.089
711.39	0.089
711.59	0.089
711.78	0.089
711.98	0.089
712.17	0.089
712.37	0.088
712.56	0.088
712.75	0.089
712.95	0.089
713.14	0.089
713.34	0.089
713.53	0.090
713.73	0.090
713.92	0.090
714.11	0.090
714.31	0.090
714.50	0.090
714.70	0.090
714.89	0.089
715.08	0.089
715.28	0.088
715.47	0.088
715.67	0.088
715.86	0.088
716.06	0.089
716.25	0.088
716.44	0.088
716.64	0.088
716.83	0.088
717.03	0.088
717.22	0.088
717.41	0.088
717.61	0.088
717.80	0.088
717.99	0.088
718.19	0.087
718.38	0.087
718.58	0.087
718.77	0.087
718.96	0.087
719.16	0.087
719.35	0.087
719.55	0.087
719.74	0.087
719.93	0.087
720.13	0.087
720.32	0.086
720.51	0.086
720.71	0.087
720.90	0.087
721.10	0.086
721.29	0.086
721.48	0.086
721.68	0.086
721.87	0.086
722.06	0.086
722.26	0.086
722.45	0.086
722.64	0.086
722.84	0.086
723.03	0.086
723.22	0.086
723.42	0.086
723.61	0.086
723.80	0.086
724.00	0.086
724.19	0.086
724.38	0.086
724.58	0.086
724.77	0.086
724.96	0.086
725.16	0.086
725.35	0.086
725.54	0.086
725.74	0.086
725.93	0.086
726.12	0.086
726.32	0.086
726.51	0.086
726.70	0.086
726.90	0.086
727.09	0.086
727.28	0.086
727.48	0.086
727.67	0.085
727.86	0.085
728.06	0.085
728.25	0.085
728.44	0.085
728.64	0.085
728.83	0.085
729.02	0.085
729.21	0.086
729.41	0.085
729.60	0.085
729.79	0.085
729.99	0.085
730.18	0.086
730.37	0.086
730.56	0.085
730.76	0.085
730.95	0.085
731.14	0.085
731.34	0.085
731.53	0.085
731.72	0.085
731.91	0.086
732.11	0.085
732.30	0.086
732.49	0.086
732.69	0.086
732.88	0.086
733.07	0.086
733.26	0.086
733.46	0.086
733.65	0.086
733.84	0.086
734.03	0.086
734.23	0.086
734.42	0.086
734.61	0.086
734.80	0.086
735.00	0.086
735.19	0.086
735.38	0.086
735.57	0.086
735.77	0.086
735.96	0.086
736.15	0.086
736.34	0.086
736.54	0.087
736.73	0.086
736.92	0.087
737.11	0.087
737.31	0.086
737.50	0.086
737.69	0.087
737.88	0.087
738.07	0.087
738.27	0.086
738.46	0.087
738.65	0.086
738.84	0.086
739.04	0.086
739.23	0.086
739.42	0.086
739.61	0.086
739.80	0.086
740.00	0.086
740.19	0.086
740.38	0.086
740.57	0.086
740.76	0.086
740.96	0.086
741.15	0.086
741.34	0.086
741.53	0.086
741.72	0.086
741.92	0.085
742.11	0.085
742.30	0.085
742.49	0.085
742.68	0.085
742.88	0.085
743.07	0.085
743.26	0.085
743.45	0.085
743.64	0.084
743.84	0.084
744.03	0.083
744.22	0.084
744.41	0.083
744.60	0.083
744.79	0.083
744.99	0.083
745.18	0.083
745.37	0.083
745.56	0.082
745.75	0.082
745.94	0.082
746.14	0.083
746.33	0.083
746.52	0.083
746.71	0.083
746.90	0.083
747.09	0.083
747.28	0.083
747.48	0.084
747.67	0.083
747.86	0.084
748.05	0.084
748.24	0.084
748.43	0.083
748.62	0.083
748.82	0.084
749.01	0.084
749.20	0.084
749.39	0.083
749.58	0.083
749.77	0.083
749.96	0.083
750.16	0.083
750.35	0.083
750.54	0.083
750.73	0.083
750.92	0.083
751.11	0.083
751.30	0.083
751.49	0.082
751.68	0.082
751.88	0.082
752.07	0.082
752.26	0.082
752.45	0.082
752.64	0.082
752.83	0.082
753.02	0.082
753.21	0.082
753.40	0.081
753.60	0.082
753.79	0.082
753.98	0.081
754.17	0.082
754.36	0.081
754.55	0.081
754.74	0.081
754.93	0.081
755.12	0.081
755.31	0.081
755.50	0.081
755.70	0.080
755.89	0.080
756.08	0.080
756.27	0.080
756.46	0.081
756.65	0.080
756.84	0.080
757.03	0.080
757.22	0.079
757.41	0.080
757.60	0.080
757.79	0.080
757.98	0.080
758.17	0.080
758.36	0.080
758.56	0.080
758.75	0.079
758.94	0.079
759.13	0.079
759.32	0.079
759.51	0.079
759.70	0.080
759.89	0.080
760.08	0.080
760.27	0.080
760.46	0.080
760.65	0.080
760.84	0.080
761.03	0.080
761.22	0.080
761.41	0.080
761.60	0.080
761.79	0.079
761.98	0.079
762.17	0.078
762.36	0.078
762.55	0.078
762.74	0.078
762.93	0.078
763.12	0.078
763.31	0.078
763.50	0.078
763.69	0.078
763.88	0.078
764.07	0.078
764.26	0.078
764.45	0.078
764.64	0.078
764.83	0.078
765.02	0.078
765.21	0.078
765.40	0.078
765.59	0.078
765.78	0.078
765.97	0.078
766.16	0.078
766.35	0.078
766.54	0.078
766.73	0.078
766.92	0.078
767.11	0.078
767.30	0.078
767.49	0.078
767.68	0.078
767.87	0.077
768.06	0.078
768.25	0.077
768.44	0.078
768.63	0.077
768.82	0.077
769.01	0.077
769.20	0.077
769.39	0.078
769.58	0.078
769.77	0.077
769.96	0.077
770.15	0.078
770.34	0.078
770.53	0.077
770.72	0.077
770.91	0.077
771.10	0.077
771.29	0.077
771.47	0.077
771.66	0.077
771.85	0.077
772.04	0.077
772.23	0.077
772.42	0.077
772.61	0.077
772.80	0.077
772.99	0.077
773.18	0.076
773.37	0.077
773.56	0.077
773.75	0.077
773.94	0.077
774.13	0.076
774.31	0.076
774.50	0.076
774.69	0.076
774.88	0.076
775.07	0.076
775.26	0.076
775.45	0.076
775.64	0.076
775.83	0.076
776.02	0.076
776.21	0.076
776.40	0.076
776.58	0.076
776.77	0.076
776.96	0.076
777.15	0.076
777.34	0.076
777.53	0.076
777.72	0.076
777.91	0.076
778.10	0.076
778.28	0.076
778.47	0.076
778.66	0.075
778.85	0.075
779.04	0.075
779.23	0.075
779.42	0.075
779.61	0.075
779.79	0.075
779.98	0.074
780.17	0.075
780.36	0.074
780.55	0.074
780.74	0.074
780.93	0.074
781.12	0.074
781.30	0.074
781.49	0.074
781.68	0.074
781.87	0.074
782.06	0.074
782.25	0.074
782.44	0.074
782.62	0.074
782.81	0.074
783.00	0.074
783.19	0.074
783.38	0.074
783.57	0.074
783.75	0.074
783.94	0.074
784.13	0.074
784.32	0.074
784.51	0.074
784.70	0.074
784.88	0.074
785.07	0.074
785.26	0.074
785.45	0.074
785.64	0.073
785.83	0.073
786.01	0.073
786.20	0.073
786.39	0.073
786.58	0.073
786.77	0.073
786.95	0.073
787.14	0.073
787.33	0.073
787.52	0.073
787.71	0.074
787.90	0.074
788.08	0.074
788.27	0.074
788.46	0.074
788.65	0.074
788.84	0.074
789.02	0.073
789.21	0.073
789.40	0.073
789.59	0.073
789.77	0.073
789.96	0.073
790.15	0.073
790.34	0.073
790.53	0.073
790.71	0.072
790.90	0.072
791.09	0.072
791.28	0.073
791.46	0.073
791.65	0.073
791.84	0.073
792.03	0.073
792.22	0.073
792.40	0.072
792.59	0.073
792.78	0.073
792.97	0.073
793.15	0.072
793.34	0.072
793.53	0.072
793.72	0.072
793.90	0.071
794.09	0.071
794.28	0.072
794.47	0.072
794.65	0.071
794.84	0.071
795.03	0.072
795.22	0.072
795.40	0.072
795.59	0.072
795.78	0.072
795.97	0.072
796.15	0.072
796.34	0.072
796.53	0.073
796.71	0.073
796.90	0.073
797.09	0.073
797.28	0.073
797.46	0.073
797.65	0.073
797.84	0.072
798.02	0.072
798.21	0.072
798.40	0.072
798.59	0.071
798.77	0.071
798.96	0.071
799.15	0.070
799.33	0.071
799.52	0.070
799.71	0.070
799.90	0.071
800.08	0.071
800.27	0.071
800.46	0.070
800.64	0.070
800.83	0.071
801.02	0.071
801.20	0.071
801.39	0.071
801.58	0.071
801.76	0.071
801.95	0.071
802.14	0.071
802.32	0.071
802.51	0.071
802.70	0.071
802.88	0.071
803.07	0.071
803.26	0.070
803.44	0.070
803.63	0.070
803.82	0.070
804.00	0.070
804.19	0.070
804.38	0.070
804.56	0.070
804.75	0.070
804.94	0.071
805.12	0.071
805.31	0.071
805.50	0.071
805.68	0.070
805.87	0.071
806.06	0.071
806.24	0.071
806.43	0.071
806.62	0.071
806.80	0.070
806.99	0.070
807.17	0.070
807.36	0.070
807.55	0.070
807.73	0.070
807.92	0.070
808.11	0.070
808.29	0.070
808.48	0.069
808.66	0.069
808.85	0.069
809.04	0.069
809.22	0.069
809.41	0.070
809.59	0.069
809.78	0.069
809.97	0.069
810.15	0.069
810.34	0.069
810.53	0.069
810.71	0.069
810.90	0.070
811.08	0.069
811.27	0.069
811.45	0.069
811.64	0.070
811.83	0.070
812.01	0.070
812.20	0.070
812.38	0.069
812.57	0.070
812.76	0.070
812.94	0.069
813.13	0.069
813.31	0.069
813.50	0.069
813.68	0.070
813.87	0.069
814.06	0.070
814.24	0.069
814.43	0.070
814.61	0.070
814.80	0.070
814.98	0.070
815.17	0.070
815.36	0.070
815.54	0.070
815.73	0.070
815.91	0.070
816.10	0.070
816.28	0.070
816.47	0.070
816.65	0.070
816.84	0.070
817.03	0.070
817.21	0.071
817.40	0.070
817.58	0.070
817.77	0.070
817.95	0.070
818.14	0.070
818.32	0.070
818.51	0.070
818.69	0.070
818.88	0.070
819.06	0.070
819.25	0.069
819.43	0.070
819.62	0.070
819.80	0.069
819.99	0.070
820.18	0.070
820.36	0.070
820.55	0.070
820.73	0.070
820.92	0.070
821.10	0.069
821.29	0.070
821.47	0.070
821.66	0.070
821.84	0.070
822.03	0.070
822.21	0.070
822.40	0.070
822.58	0.070
822.77	0.070
822.95	0.070
823.14	0.070
823.32	0.070
823.50	0.071
823.69	0.071
823.87	0.071
824.06	0.071
824.24	0.071
824.43	0.071
824.61	0.071
824.80	0.071
824.98	0.071
825.17	0.071
825.35	0.071
825.54	0.071
825.72	0.071
825.91	0.071
826.09	0.071
826.28	0.071
826.46	0.072
826.64	0.072
826.83	0.072
827.01	0.072
827.20	0.072
827.38	0.072
827.57	0.072
827.75	0.072
827.94	0.073
828.12	0.073
828.31	0.073
828.49	0.073
828.67	0.073
828.86	0.073
829.04	0.072
829.23	0.072
829.41	0.073
829.60	0.073
829.78	0.073
829.96	0.074
830.15	0.074
830.33	0.074
830.52	0.074
830.70	0.074
830.88	0.074
831.07	0.075
831.25	0.075
831.44	0.074
831.62	0.074
831.81	0.074
831.99	0.074
832.17	0.074
832.36	0.074
832.54	0.075
832.73	0.075
832.91	0.074
833.09	0.074
833.28	0.074
833.46	0.075
833.65	0.075
833.83	0.075
834.01	0.075
834.20	0.075
834.38	0.075
834.56	0.075
834.75	0.075
834.93	0.076
835.12	0.076
835.30	0.076
835.48	0.076
835.67	0.076
835.85	0.076
836.03	0.076
836.22	0.076
836.40	0.076
836.59	0.076
836.77	0.076
836.95	0.076
837.14	0.076
837.32	0.076
837.50	0.076
837.69	0.076
837.87	0.076
838.05	0.076
838.24	0.076
838.42	0.076
838.60	0.076
838.79	0.077
838.97	0.076
839.15	0.076
839.34	0.077
839.52	0.077
839.70	0.077
839.89	0.077
840.07	0.077
840.25	0.077
840.44	0.077
840.62	0.077
840.80	0.077
840.99	0.077
841.17	0.077
841.35	0.077
841.54	0.077
841.72	0.077
841.90	0.077
842.09	0.077
842.27	0.077
842.45	0.077
842.64	0.078
842.82	0.078
843.00	0.077
843.19	0.077
843.37	0.077
843.55	0.077
843.73	0.077
843.92	0.077
844.10	0.077
844.28	0.077
844.47	0.077
844.65	0.077
844.83	0.077
845.01	0.077
845.20	0.078
845.38	0.078
845.56	0.078
845.75	0.078
845.93	0.078
846.11	0.078
846.29	0.078
846.48	0.079
846.66	0.079
846.84	0.078
847.02	0.078
847.21	0.077
847.39	0.078
847.57	0.077
847.76	0.078
847.94	0.077
848.12	0.077
848.30	0.078
848.49	0.077
848.67	0.078
848.85	0.078
849.03	0.078
849.22	0.078
849.40	0.079
849.58	0.079
849.76	0.079
849.95	0.079
850.13	0.079
850.31	0.079
850.49	0.079
850.67	0.079
850.86	0.079
851.04	0.079
851.22	0.079
851.40	0.079
851.59	0.078
851.77	0.078
851.95	0.078
852.13	0.079
852.31	0.078
852.50	0.079
852.68	0.079
852.86	0.078
853.04	0.078
853.23	0.078
853.41	0.078
853.59	0.078
853.77	0.078
853.95	0.078
854.14	0.078
854.32	0.078
854.50	0.078
854.68	0.078
854.86	0.078
855.04	0.078
855.23	0.078
855.41	0.078
855.59	0.078
855.77	0.078
855.95	0.079
856.14	0.079
856.32	0.078
856.50	0.078
856.68	0.079
856.86	0.078
857.04	0.078
857.23	0.078
857.41	0.078
857.59	0.078
857.77	0.078
857.95	0.078
858.13	0.078
858.32	0.078
858.50	0.079
858.68	0.078
858.86	0.078
859.04	0.078
859.22	0.078
859.41	0.078
859.59	0.078
859.77	0.079
859.95	0.079
860.13	0.079
860.31	0.078
860.49	0.078
860.68	0.079
860.86	0.079
861.04	0.079
861.22	0.079
861.40	0.079
861.58	0.078
861.76	0.078
861.94	0.078
862.13	0.078
862.31	0.078
862.49	0.078
862.67	0.079
862.85	0.079
863.03	0.079
863.21	0.079
863.39	0.079
863.57	0.079
863.76	0.079
863.94	0.079
864.12	0.079
864.30	0.079
864.48	0.079
864.66	0.079
864.84	0.080
865.02	0.080
865.20	0.080
865.38	0.080
865.57	0.080
865.75	0.080
865.93	0.080
866.11	0.080
866.29	0.080
866.47	0.080
866.65	0.080
866.83	0.080
867.01	0.080
867.19	0.080
867.37	0.080
867.55	0.080
867.73	0.080
867.92	0.080
868.10	0.080
868.28	0.080
868.46	0.080
868.64	0.080
868.82	0.079
869.00	0.080
869.18	0.080
869.36	0.080
869.54	0.080
869.72	0.081
869.90	0.081
870.08	0.080
870.26	0.080
870.44	0.080
870.62	0.080
870.80	0.080
870.98	0.080
871.16	0.080
871.34	0.080
871.53	0.080
871.71	0.080
871.89	0.080
872.07	0.080
872.25	0.080
872.43	0.080
872.61	0.081
872.79	0.081
872.97	0.081
873.15	0.081
873.33	0.082
873.51	0.082
873.69	0.082
873.87	0.082
874.05	0.082
874.23	0.082
874.41	0.082
874.59	0.083
874.77	0.082
874.95	0.082
875.13	0.082
875.31	0.082
875.49	0.082
875.67	0.082
875.85	0.082
876.03	0.082
876.21	0.082
876.39	0.082
876.57	0.082
876.75	0.082
876.93	0.082
877.11	0.082
877.29	0.082
877.47	0.082
877.65	0.082
877.82	0.082
878.00	0.082
878.18	0.082
878.36	0.082
878.54	0.082
878.72	0.082
878.90	0.082
879.08	0.083
879.26	0.083
879.44	0.083
879.62	0.083
879.80	0.083
879.98	0.083
880.16	0.083
880.34	0.082
880.52	0.083
880.70	0.082
880.88	0.082
881.06	0.082
881.24	0.082
881.42	0.082
881.59	0.082
881.77	0.081
881.95	0.082
882.13	0.082
882.31	0.082
882.49	0.082
882.67	0.082
882.85	0.082
883.03	0.082
883.21	0.083
883.39	0.083
883.57	0.083
883.75	0.083
883.92	0.083
884.10	0.083
884.28	0.083
884.46	0.083
884.64	0.083
884.82	0.083
885.00	0.084
885.18	0.084
885.36	0.084
885.54	0.084
885.71	0.084
885.89	0.085
886.07	0.084
886.25	0.085
886.43	0.085
886.61	0.084
886.79	0.084
886.97	0.084
887.15	0.085
887.32	0.084
887.50	0.085
887.68	0.085
887.86	0.085
888.04	0.085
888.22	0.085
888.40	0.085
888.57	0.085
888.75	0.085
888.93	0.086
889.11	0.086
889.29	0.086
889.47	0.086
889.65	0.086
889.82	0.086
890.00	0.086
890.18	0.086
890.36	0.086
890.54	0.087
890.72	0.086
890.90	0.086
891.07	0.086
891.25	0.086
891.43	0.085
891.61	0.086
891.79	0.086
891.97	0.086
892.14	0.086
892.32	0.086
892.50	0.085
892.68	0.086
892.86	0.086
893.03	0.086
893.21	0.086
893.39	0.086
893.57	0.087
893.75	0.087
893.93	0.087
894.10	0.086
894.28	0.086
894.46	0.086
894.64	0.086
894.82	0.086
894.99	0.086
895.17	0.086
895.35	0.086
895.53	0.086
895.71	0.086
895.88	0.086
896.06	0.086
896.24	0.086
896.42	0.086
896.59	0.086
896.77	0.086
896.95	0.086
897.13	0.086
897.31	0.086
897.48	0.086
897.66	0.087
897.84	0.086
898.02	0.086
898.19	0.086
898.37	0.086
898.55	0.087
898.73	0.087
898.91	0.087
899.08	0.087
899.26	0.087
899.44	0.088
899.62	0.088
899.79	0.088
899.97	0.088
900.15	0.088
900.33	0.088
900.50	0.088
900.68	0.087
900.86	0.088
901.04	0.088
901.21	0.088
901.39	0.088
901.57	0.088
901.74	0.088
901.92	0.088
902.10	0.088
902.28	0.089
902.45	0.089
902.63	0.089
902.81	0.089
902.99	0.089
903.16	0.089
903.34	0.089
903.52	0.089
903.69	0.089
903.87	0.089
904.05	0.089
904.22	0.089
904.40	0.089
904.58	0.089
904.76	0.089
904.93	0.089
905.11	0.089
905.29	0.089
905.46	0.089
905.64	0.089
905.82	0.090
905.99	0.089
906.17	0.089
906.35	0.089
906.53	0.090
906.70	0.090
906.88	0.090
907.06	0.090
907.23	0.090
907.41	0.091
907.59	0.091
907.76	0.091
907.94	0.091
908.12	0.090
908.29	0.090
908.47	0.091
908.65	0.091
908.82	0.091
909.00	0.090
909.18	0.091
909.35	0.091
909.53	0.091
909.71	0.091
909.88	0.091
910.06	0.092
910.23	0.092
910.41	0.092
910.59	0.092
910.76	0.091
910.94	0.091
911.12	0.091
911.29	0.091
911.47	0.092
911.65	0.092
911.82	0.092
912.00	0.092
912.17	0.092
912.35	0.092
912.53	0.092
912.70	0.092
912.88	0.093
913.06	0.093
913.23	0.093
913.41	0.093
913.58	0.093
913.76	0.094
913.94	0.094
914.11	0.094
914.29	0.094
914.46	0.094
914.64	0.094
914.82	0.094
914.99	0.094
915.17	0.094
915.34	0.094
915.52	0.094
915.70	0.094
915.87	0.095
916.05	0.095
916.22	0.094
916.40	0.094
916.57	0.095
916.75	0.095
916.93	0.095
917.10	0.094
917.28	0.095
917.45	0.095
917.63	0.095
917.80	0.095
917.98	0.095
918.16	0.095
918.33	0.096
918.51	0.096
918.68	0.096
918.86	0.096
919.03	0.096
919.21	0.097
919.39	0.097
919.56	0.098
919.74	0.098
919.91	0.098
920.09	0.098
920.26	0.098
920.44	0.098
920.61	0.099
920.79	0.099
920.96	0.099
921.14	0.099
921.31	0.099
921.49	0.099
921.67	0.099
921.84	0.100
922.02	0.100
922.19	0.100
922.37	0.100
922.54	0.101
922.72	0.101
922.89	0.102
923.07	0.102
923.24	0.102
923.42	0.103
923.59	0.103
923.77	0.103
923.94	0.104
924.12	0.104
924.29	0.104
924.47	0.104
924.64	0.105
924.82	0.105
924.99	0.105
925.17	0.106
925.34	0.106
925.52	0.106
925.69	0.106
925.87	0.106
926.04	0.106
926.22	0.107
926.39	0.107
926.57	0.107
926.74	0.107
926.91	0.108
927.09	0.108
927.26	0.108
927.44	0.108
927.61	0.109
927.79	0.109
927.96	0.110
928.14	0.110
928.31	0.110
928.49	0.110
928.66	0.111
928.84	0.111
929.01	0.112
929.18	0.112
929.36	0.113
929.53	0.113
929.71	0.114
929.88	0.115
930.06	0.115
930.23	0.115
930.41	0.116
930.58	0.116
930.75	0.116
930.93	0.117
931.10	0.117
931.28	0.117
931.45	0.118
931.63	0.118
931.80	0.118
931.97	0.118
932.15	0.119
932.32	0.119
932.50	0.119
932.67	0.120
932.84	0.121
933.02	0.121
933.19	0.121
933.37	0.122
933.54	0.122
933.71	0.123
933.89	0.124
934.06	0.124
934.24	0.125
934.41	0.125
934.58	0.126
934.76	0.126
934.93	0.126
935.11	0.127
935.28	0.127
935.45	0.128
935.63	0.128
935.80	0.129
935.98	0.129
936.15	0.129
936.32	0.130
936.50	0.130
936.67	0.131
936.84	0.131
937.02	0.132
937.19	0.133
937.36	0.133
937.54	0.134
937.71	0.135
937.89	0.135
938.06	0.136
938.23	0.136
938.41	0.137
938.58	0.137
938.75	0.138
938.93	0.139
939.10	0.139
939.27	0.139
939.45	0.140
939.62	0.140
939.79	0.141
939.97	0.141
940.14	0.142
940.31	0.142
940.49	0.142
940.66	0.143
940.83	0.143
941.01	0.144
941.18	0.145
941.35	0.146
941.53	0.146
941.70	0.147
941.87	0.148
942.05	0.148
942.22	0.149
942.39	0.150
942.57	0.151
942.74	0.152
942.91	0.152
943.08	0.152
943.26	0.152
943.43	0.153
943.60	0.153
943.78	0.154
943.95	0.155
944.12	0.156
944.29	0.157
944.47	0.157
944.64	0.158
944.81	0.159
944.99	0.160
945.16	0.160
945.33	0.161
945.50	0.162
945.68	0.163
945.85	0.163
946.02	0.165
946.20	0.166
946.37	0.167
946.54	0.167
946.71	0.168
946.89	0.168
947.06	0.169
947.23	0.170
947.40	0.172
947.58	0.172
947.75	0.173
947.92	0.174
948.09	0.174
948.27	0.176
948.44	0.177
948.61	0.178
948.78	0.179
948.96	0.180
949.13	0.181
949.30	0.182
949.47	0.182
949.65	0.184
949.82	0.185
949.99	0.185
950.16	0.188
950.33	0.188
950.51	0.189
950.68	0.191
950.85	0.192
951.02	0.193
951.20	0.194
951.37	0.196
951.54	0.196
951.71	0.198
951.88	0.199
952.06	0.200
952.23	0.201
952.40	0.202
952.57	0.204
952.74	0.205
952.92	0.206
953.09	0.208
953.26	0.210
953.43	0.211
953.60	0.212
953.77	0.212
953.95	0.212
954.12	0.215
954.29	0.215
954.46	0.218
954.63	0.218
954.81	0.218
954.98	0.219
955.15	0.220
955.32	0.222
955.49	0.222
955.66	0.224
955.84	0.226
956.01	0.226
956.18	0.228
956.35	0.230
956.52	0.230
956.69	0.232
956.87	0.232
957.04	0.233
957.21	0.236
957.38	0.235
957.55	0.237
957.72	0.238
957.89	0.239
958.07	0.239
958.24	0.241
958.41	0.243
958.58	0.243
958.75	0.244
958.92	0.245
959.09	0.245
959.26	0.246
959.44	0.247
959.61	0.248
959.78	0.248
959.95	0.250
960.12	0.250
960.29	0.252
960.46	0.252
960.63	0.252
960.81	0.252
960.98	0.253
961.15	0.254
961.32	0.254
961.49	0.254
961.66	0.255
961.83	0.254
962.00	0.254
962.17	0.256
962.34	0.255
962.52	0.256
962.69	0.257
962.86	0.256
963.03	0.257
963.20	0.257
963.37	0.256
963.54	0.257
963.71	0.257
963.88	0.257
964.05	0.258
964.22	0.260
964.39	0.258
964.56	0.259
964.74	0.259
964.91	0.259
965.08	0.260
965.25	0.261
965.42	0.261
965.59	0.262
965.76	0.261
965.93	0.263
966.10	0.260
966.27	0.262
966.44	0.261
966.61	0.262
966.78	0.262
966.95	0.261
967.12	0.262
967.29	0.264
967.46	0.263
967.63	0.263
967.80	0.264
967.97	0.264
968.14	0.264
968.32	0.264
968.49	0.264
968.66	0.264
968.83	0.264
969.00	0.264
969.17	0.264
969.34	0.265
969.51	0.266
969.68	0.265
969.85	0.265
970.02	0.266
970.19	0.266
970.36	0.266
970.53	0.266
970.70	0.265
970.87	0.266
971.04	0.265
971.21	0.266
971.38	0.266
971.55	0.266
971.72	0.266
971.89	0.267
972.06	0.266
972.23	0.266
972.40	0.266
972.57	0.265
972.74	0.265
972.91	0.266
973.07	0.266
973.24	0.265
973.41	0.265
973.58	0.264
973.75	0.276
973.92	0.265
974.09	0.264
974.26	0.264
974.43	0.264
974.60	0.264
974.77	0.265
974.94	0.264
975.11	0.266
975.28	0.267
975.45	0.264
975.62	0.266
975.79	0.267
975.96	0.265
976.13	0.264
976.30	0.266
976.47	0.265
976.64	0.265
976.80	0.265
976.97	0.265
977.14	0.264
977.31	0.264
977.48	0.264
977.65	0.264
977.82	0.263
977.99	0.264
978.16	0.263
978.33	0.263
978.50	0.262
978.67	0.262
978.83	0.262
979.00	0.262
979.17	0.261
979.34	0.261
979.51	0.261
979.68	0.261
979.85	0.261
980.02	0.262
980.19	0.260
980.36	0.262
980.52	0.263
980.69	0.261
980.86	0.261
981.03	0.261
981.20	0.259
981.37	0.261
981.54	0.261
981.71	0.260
981.88	0.260
982.04	0.260
982.21	0.259
982.38	0.261
982.55	0.260
982.72	0.259
982.89	0.260
983.06	0.259
983.22	0.258
983.39	0.259
983.56	0.258
983.73	0.257
983.90	0.256
984.07	0.258
984.24	0.257
984.40	0.257
984.57	0.255
984.74	0.257
984.91	0.258
985.08	0.256
985.25	0.253
985.41	0.254
985.58	0.254
985.75	0.256
985.92	0.254
986.09	0.253
986.26	0.254
986.42	0.253
986.59	0.252
986.76	0.254
986.93	0.254
987.10	0.254
987.27	0.252
987.43	0.251
987.60	0.253
987.77	0.252
987.94	0.251
988.11	0.252
988.27	0.252
988.44	0.251
988.61	0.249
988.78	0.248
988.95	0.248
989.11	0.249
989.28	0.247
989.45	0.246
989.62	0.246
989.79	0.246
989.95	0.245
990.12	0.246
990.29	0.246
990.46	0.244
990.62	0.243
990.79	0.243
990.96	0.243
991.13	0.244
991.30	0.243
991.46	0.242
991.63	0.241
991.80	0.240
991.97	0.240
992.13	0.241
992.30	0.242
992.47	0.240
992.64	0.240
992.80	0.240
992.97	0.241
993.14	0.238
993.31	0.236
993.47	0.239
993.64	0.237
993.81	0.235
993.98	0.235
994.14	0.234
994.31	0.233
994.48	0.234
994.64	0.234
994.81	0.232
994.98	0.233
995.15	0.231
995.31	0.231
995.48	0.230
995.65	0.233
995.82	0.230
995.98	0.230
996.15	0.232
996.32	0.233
996.48	0.231
996.65	0.231
996.82	0.228
996.99	0.229
997.15	0.228
997.32	0.229
997.49	0.228
997.65	0.229
997.82	0.228
997.99	0.225
998.15	0.225
998.32	0.227
998.49	0.226
998.65	0.226
998.82	0.226
998.99	0.224
999.15	0.224
999.32	0.223
999.49	0.222
999.65	0.223
999.82	0.221
999.99	0.222
1000.15	0.221
1000.32	0.222
1000.49	0.221
1000.65	0.220
1000.82	0.219
1000.99	0.220
1001.15	0.220
1001.32	0.219
1001.49	0.219
1001.65	0.218
1001.82	0.219
1001.99	0.216
1002.15	0.215
1002.32	0.215
1002.49	0.216
1002.65	0.214
1002.82	0.213
1002.99	0.212
1003.15	0.214
1003.32	0.213
1003.48	0.214
1003.65	0.213
1003.82	0.213
1003.98	0.211
1004.15	0.211
1004.32	0.211
1004.48	0.211
1004.65	0.211
1004.81	0.209
1004.98	0.208
1005.15	0.209
1005.31	0.208
1005.48	0.206
1005.64	0.205
1005.81	0.208
1005.98	0.205
1006.14	0.204
1006.31	0.204
1006.47	0.202
1006.64	0.201
1006.81	0.201
1006.97	0.201
1007.14	0.200
1007.30	0.202
1007.47	0.203
1007.63	0.201
1007.80	0.199
1007.97	0.199
1008.13	0.200
1008.30	0.201
1008.46	0.201
1008.63	0.199
1008.79	0.200
1008.96	0.200
1009.13	0.200
1009.29	0.197
1009.46	0.197
1009.62	0.198
1009.79	0.196
1009.95	0.195
1010.12	0.196
1010.28	0.195
1010.45	0.194
1010.62	0.194
1010.78	0.193
1010.95	0.191
1011.11	0.192
1011.28	0.192
1011.44	0.194
1011.61	0.192
1011.77	0.191
1011.94	0.191
1012.10	0.191
1012.27	0.191
1012.43	0.191
1012.60	0.190
1012.76	0.191
1012.93	0.189
1013.10	0.188
1013.26	0.185
1013.43	0.186
1013.59	0.195
1013.76	0.187
1013.92	0.185
1014.09	0.184
1014.25	0.185
1014.42	0.186
1014.58	0.185
1014.75	0.188
1014.91	0.187
1015.08	0.188
1015.24	0.185
1015.41	0.186
1015.57	0.186
1015.73	0.185
1015.90	0.183
1016.06	0.185
1016.23	0.183
1016.39	0.183
1016.56	0.183
1016.72	0.182
1016.89	0.183
1017.05	0.185
1017.22	0.181
1017.38	0.182
1017.55	0.181
1017.71	0.183
1017.88	0.181
1018.04	0.183
1018.21	0.180
1018.37	0.180
1018.53	0.179
1018.70	0.177
1018.86	0.176
1019.03	0.179
1019.19	0.176
1019.36	0.175
1019.52	0.177
1019.69	0.178
1019.85	0.177
1020.01	0.176
1020.18	0.175
1020.34	0.175
1020.51	0.175
1020.67	0.176
1020.84	0.174
1021.00	0.174
1021.16	0.172
1021.33	0.172
1021.49	0.170
1021.66	0.170
1021.82	0.168
1021.98	0.168
1022.15	0.168
1022.31	0.167
1022.48	0.166
1022.64	0.168
1022.80	0.167
1022.97	0.166
1023.13	0.165
1023.30	0.165
1023.46	0.167
1023.62	0.164
1023.79	0.166
1023.95	0.167
1024.12	0.165
1024.28	0.164
1024.44	0.165
1024.61	0.163
1024.77	0.163
1024.93	0.162
1025.10	0.164
1025.26	0.162
1025.43	0.163
1025.59	0.159
1025.75	0.162
1025.92	0.162
1026.08	0.161
1026.24	0.160
1026.41	0.161
1026.57	0.160
1026.73	0.158
1026.90	0.159
1027.06	0.157
1027.23	0.158
1027.39	0.157
1027.55	0.157
1027.72	0.155
1027.88	0.155
1028.04	0.156
1028.21	0.156
1028.37	0.150
1028.53	0.155
1028.70	0.154
1028.86	0.152
1029.02	0.151
1029.19	0.152
1029.35	0.152
1029.51	0.152
1029.67	0.152
1029.84	0.154
1030.00	0.150
1030.16	0.150
1030.33	0.153
1030.49	0.150
1030.65	0.148
1030.82	0.164
1030.98	0.150
1031.14	0.149
1031.31	0.149
1031.47	0.146
1031.63	0.148
1031.79	0.147
1031.96	0.148
1032.12	0.149
1032.28	0.147
1032.45	0.151
1032.61	0.149
1032.77	0.148
1032.93	0.146
1033.10	0.146
1033.26	0.148
1033.42	0.146
1033.58	0.146
1033.75	0.147
1033.91	0.146
1034.07	0.148
1034.24	0.147
1034.40	0.145
1034.56	0.144
1034.72	0.145
1034.89	0.146
1035.05	0.144
1035.21	0.143
1035.37	0.142
1035.54	0.145
1035.70	0.142
1035.86	0.140
1036.02	0.141
1036.19	0.139
1036.35	0.137
1036.51	0.142
1036.67	0.140
1036.83	0.139
1037.00	0.139
1037.16	0.139
1037.32	0.140
1037.48	0.139
1037.65	0.144
1037.81	0.139
1037.97	0.140
1038.13	0.140
1038.29	0.137
1038.46	0.134
1038.62	0.138
1038.78	0.135
1038.94	0.133
1039.10	0.137
1039.27	0.133
1039.43	0.135
1039.59	0.135
1039.75	0.135
1039.91	0.134
1040.08	0.133
1040.24	0.136
1040.40	0.139
1040.56	0.137
1040.72	0.131
1040.89	0.134
1041.05	0.136
1041.21	0.135
1041.37	0.135
1041.53	0.140
1041.69	0.138
1041.86	0.138
1042.02	0.134
1042.18	0.133
1042.34	0.135
1042.50	0.141
1042.66	0.137
1042.83	0.136
1042.99	0.138
1043.15	0.132
1043.31	0.133
1043.47	0.137
1043.63	0.133
1043.79	0.134
1043.96	0.135
1044.12	0.137
1044.28	0.132
1044.44	0.134
1044.60	0.129
1044.76	0.128
1044.92	0.130
1045.09	0.133
1045.25	0.130
1045.41	0.131
1045.57	0.126
1045.73	0.126
1045.89	0.127
1046.05	0.129
1046.21	0.134
1046.38	0.128
1046.54	0.132
1046.70	0.124
1046.86	0.125
>>>>>End Processed Spectral Data<<<<<
