SpectraSuite Data File
++++++++++++++++++++++++++++++++++++
Date: Mon May 20 12:10:37 CDT 2013
User: Students
Dark Spectrum Present: Yes
Reference Spectrum Present: Yes
Number of Sampled Component Spectra: 1
Spectrometers: USB4H00887
Integration Time (usec): 60000 (USB4H00887)
Spectra Averaged: 5 (USB4H00887)
Boxcar Smoothing: 5 (USB4H00887)
Correct for Electrical Dark: No (USB4H00887)
Strobe/Lamp Enabled: No (USB4H00887)
Correct for Detector Non-linearity: No (USB4H00887)
Correct for Stray Light: No (USB4H00887)
Number of Pixels in Processed Spectrum: 3648
>>>>>Begin Processed Spectral Data<<<<<
345.83	0.036
346.05	0.036
346.26	0.036
346.48	-0.000
346.70	0.405
346.92	0.051
347.14	0.051
347.35	0.060
347.57	0.405
347.79	-0.263
348.01	-0.209
348.23	-0.367
348.44	-0.000
348.66	0.517
348.88	-0.486
349.10	-0.285
349.32	0.148
349.53	-0.042
349.75	-0.096
349.97	-0.060
350.19	-0.032
350.41	-0.067
350.62	0.136
350.84	-0.015
351.06	0.010
351.28	-0.016
351.50	-0.096
351.71	-0.076
351.93	-0.099
352.15	-0.008
352.37	-0.044
352.58	-0.002
352.80	0.045
353.02	0.064
353.24	0.102
353.46	0.398
353.67	-0.159
353.89	0.066
354.11	0.063
354.33	0.080
354.54	0.119
354.76	0.233
354.98	0.506
355.20	0.252
355.41	0.090
355.63	0.137
355.85	0.070
356.07	0.647
356.28	0.058
356.50	0.110
356.72	0.046
356.94	0.148
357.15	0.207
357.37	-0.000
357.59	0.111
357.81	0.059
358.02	0.129
358.24	0.099
358.46	0.268
358.68	0.224
358.89	0.119
359.11	-0.000
359.33	0.083
359.55	-0.472
359.76	0.094
359.98	0.116
360.20	0.133
360.42	0.094
360.63	0.116
360.85	0.058
361.07	0.394
361.29	0.065
361.50	0.257
361.72	0.103
361.94	0.426
362.15	0.157
362.37	0.087
362.59	0.092
362.81	0.178
363.02	0.304
363.24	0.440
363.46	0.230
363.68	0.319
363.89	0.184
364.11	0.288
364.33	0.394
364.54	0.245
364.76	0.337
364.98	0.411
365.20	0.471
365.41	0.232
365.63	0.307
365.85	0.215
366.06	0.879
366.28	0.829
366.50	0.390
366.71	0.145
366.93	0.186
367.15	0.142
367.37	0.131
367.58	0.165
367.80	0.195
368.02	0.618
368.23	0.143
368.45	0.147
368.67	0.123
368.88	0.128
369.10	-0.000
369.32	0.160
369.53	0.091
369.75	0.135
369.97	0.378
370.19	0.221
370.40	0.083
370.62	0.274
370.84	0.098
371.05	0.640
371.27	0.178
371.49	0.195
371.70	0.185
371.92	0.317
372.14	0.131
372.35	0.121
372.57	0.130
372.79	0.400
373.00	0.089
373.22	0.178
373.44	0.162
373.65	0.110
373.87	0.163
374.09	0.733
374.30	0.121
374.52	0.130
374.74	0.104
374.95	0.489
375.17	0.138
375.39	-0.000
375.60	0.151
375.82	0.279
376.04	0.113
376.25	0.117
376.47	0.088
376.68	0.255
376.90	0.143
377.12	0.290
377.33	0.156
377.55	0.347
377.77	0.158
377.98	0.229
378.20	0.133
378.42	0.166
378.63	0.223
378.85	-0.000
379.07	0.119
379.28	0.428
379.50	0.281
379.71	0.149
379.93	0.104
380.15	0.149
380.36	0.227
380.58	0.153
380.80	0.401
381.01	0.136
381.23	0.110
381.44	0.136
381.66	0.166
381.88	0.213
382.09	-0.091
382.31	0.132
382.53	0.142
382.74	0.937
382.96	0.208
383.17	0.165
383.39	0.215
383.61	0.311
383.82	0.213
384.04	0.233
384.25	0.264
384.47	0.249
384.69	0.271
384.90	0.250
385.12	0.524
385.33	0.334
385.55	0.250
385.77	0.399
385.98	0.180
386.20	0.229
386.41	0.195
386.63	0.228
386.85	0.186
387.06	0.207
387.28	0.294
387.49	0.190
387.71	0.150
387.93	0.134
388.14	0.319
388.36	0.157
388.57	0.165
388.79	0.177
389.01	0.834
389.22	0.232
389.44	0.206
389.65	0.187
389.87	0.198
390.08	0.203
390.30	0.163
390.52	0.313
390.73	0.316
390.95	0.198
391.16	0.201
391.38	-0.000
391.59	0.209
391.81	0.176
392.03	0.149
392.24	0.156
392.46	0.142
392.67	0.124
392.89	0.182
393.10	0.262
393.32	0.192
393.53	0.228
393.75	0.149
393.97	0.184
394.18	0.246
394.40	0.220
394.61	0.237
394.83	0.211
395.04	0.268
395.26	0.177
395.47	0.271
395.69	0.234
395.91	0.245
396.12	0.303
396.34	0.296
396.55	0.192
396.77	0.289
396.98	1.188
397.20	0.377
397.41	0.382
397.63	0.268
397.84	0.232
398.06	0.204
398.27	0.198
398.49	0.228
398.71	0.168
398.92	0.206
399.14	0.261
399.35	0.317
399.57	0.289
399.78	0.207
400.00	0.203
400.21	0.265
400.43	0.230
400.64	0.254
400.86	0.507
401.07	0.294
401.29	0.256
401.50	0.270
401.72	0.383
401.93	0.259
402.15	0.313
402.36	0.285
402.58	0.226
402.79	0.252
403.01	0.411
403.22	0.328
403.44	0.227
403.65	0.351
403.87	0.391
404.08	0.308
404.30	0.484
404.51	0.285
404.73	0.336
404.94	0.303
405.16	0.306
405.37	0.236
405.59	0.423
405.80	0.273
406.02	0.338
406.23	0.333
406.45	0.358
406.66	0.387
406.88	0.253
407.09	0.378
407.31	0.307
407.52	0.365
407.74	0.300
407.95	0.340
408.17	0.328
408.38	0.334
408.60	0.227
408.81	0.351
409.03	0.263
409.24	0.266
409.45	0.312
409.67	0.294
409.88	0.271
410.10	0.336
410.31	0.286
410.53	0.268
410.74	0.365
410.96	0.373
411.17	0.405
411.39	0.320
411.60	0.294
411.82	0.333
412.03	0.321
412.24	0.307
412.46	0.417
412.67	0.351
412.89	0.344
413.10	0.342
413.32	0.309
413.53	0.350
413.75	0.357
413.96	0.287
414.17	0.374
414.39	0.388
414.60	0.331
414.82	0.430
415.03	0.344
415.25	0.378
415.46	0.264
415.68	0.352
415.89	0.565
416.10	0.492
416.32	0.297
416.53	0.343
416.75	0.325
416.96	0.380
417.18	0.335
417.39	0.324
417.60	0.332
417.82	0.476
418.03	0.432
418.25	0.366
418.46	0.388
418.67	0.348
418.89	0.364
419.10	0.371
419.32	0.468
419.53	0.426
419.75	0.373
419.96	0.331
420.17	0.389
420.39	0.366
420.60	0.384
420.82	0.443
421.03	0.375
421.24	0.326
421.46	0.359
421.67	0.390
421.89	0.347
422.10	0.370
422.31	0.366
422.53	0.489
422.74	0.384
422.96	0.314
423.17	0.341
423.38	0.407
423.60	0.346
423.81	0.416
424.03	0.366
424.24	0.396
424.45	0.395
424.67	0.395
424.88	0.353
425.09	0.378
425.31	0.350
425.52	0.365
425.74	0.400
425.95	0.429
426.16	0.352
426.38	0.401
426.59	0.377
426.80	0.409
427.02	0.417
427.23	0.358
427.45	0.437
427.66	0.442
427.87	0.364
428.09	0.387
428.30	0.419
428.51	0.413
428.73	0.441
428.94	0.398
429.15	0.397
429.37	0.384
429.58	0.395
429.79	0.369
430.01	0.422
430.22	0.413
430.44	0.419
430.65	0.387
430.86	0.409
431.08	0.395
431.29	0.370
431.50	0.424
431.72	0.521
431.93	0.446
432.14	0.361
432.36	0.385
432.57	0.399
432.78	0.414
433.00	0.387
433.21	0.382
433.42	0.464
433.64	0.420
433.85	0.464
434.06	0.399
434.28	0.420
434.49	0.430
434.70	0.439
434.92	0.444
435.13	0.468
435.34	0.475
435.56	0.459
435.77	0.451
435.98	0.542
436.20	0.474
436.41	0.422
436.62	0.415
436.83	0.460
437.05	0.508
437.26	0.461
437.47	0.423
437.69	0.459
437.90	0.424
438.11	0.421
438.33	0.452
438.54	0.467
438.75	0.558
438.97	0.550
439.18	0.449
439.39	0.464
439.60	0.494
439.82	0.464
440.03	0.432
440.24	0.580
440.46	0.469
440.67	0.458
440.88	0.483
441.10	0.459
441.31	0.456
441.52	0.484
441.73	0.528
441.95	0.479
442.16	0.447
442.37	0.621
442.58	0.440
442.80	0.431
443.01	0.530
443.22	0.489
443.44	0.433
443.65	0.495
443.86	0.491
444.07	0.517
444.29	0.468
444.50	0.561
444.71	0.454
444.92	0.428
445.14	0.519
445.35	0.534
445.56	0.453
445.78	0.510
445.99	0.508
446.20	0.451
446.41	0.498
446.63	0.492
446.84	0.473
447.05	0.480
447.26	0.551
447.48	0.487
447.69	0.472
447.90	0.520
448.11	0.473
448.33	0.487
448.54	0.498
448.75	0.515
448.96	0.528
449.18	0.546
449.39	0.498
449.60	0.490
449.81	0.565
450.03	0.509
450.24	0.535
450.45	0.518
450.66	0.507
450.87	0.527
451.09	0.500
451.30	0.483
451.51	0.527
451.72	0.537
451.94	0.545
452.15	0.577
452.36	0.506
452.57	0.519
452.78	0.515
453.00	0.534
453.21	0.508
453.42	0.492
453.63	0.547
453.85	0.526
454.06	0.520
454.27	0.580
454.48	0.535
454.69	0.495
454.91	0.532
455.12	0.481
455.33	0.521
455.54	0.534
455.75	0.521
455.97	0.530
456.18	0.526
456.39	0.533
456.60	0.548
456.81	0.515
457.03	0.522
457.24	0.521
457.45	0.568
457.66	0.544
457.87	0.515
458.09	0.526
458.30	0.483
458.51	0.549
458.72	0.560
458.93	0.565
459.15	0.518
459.36	0.553
459.57	0.562
459.78	0.586
459.99	0.538
460.20	0.522
460.42	0.566
460.63	0.543
460.84	0.534
461.05	0.542
461.26	0.574
461.47	0.533
461.69	0.558
461.90	0.579
462.11	0.556
462.32	0.591
462.53	0.561
462.74	0.608
462.96	0.552
463.17	0.546
463.38	0.570
463.59	0.622
463.80	0.545
464.01	0.558
464.23	0.602
464.44	0.581
464.65	0.584
464.86	0.593
465.07	0.596
465.28	0.577
465.49	0.592
465.71	0.567
465.92	0.589
466.13	0.613
466.34	0.581
466.55	0.610
466.76	0.590
466.97	0.602
467.19	0.601
467.40	0.621
467.61	0.620
467.82	0.577
468.03	0.569
468.24	0.605
468.45	0.620
468.66	0.610
468.88	0.613
469.09	0.615
469.30	0.638
469.51	0.600
469.72	0.619
469.93	0.611
470.14	0.600
470.35	0.644
470.57	0.620
470.78	0.592
470.99	0.658
471.20	0.630
471.41	0.610
471.62	0.637
471.83	0.624
472.04	0.638
472.25	0.656
472.47	0.616
472.68	0.619
472.89	0.624
473.10	0.647
473.31	0.623
473.52	0.653
473.73	0.663
473.94	0.624
474.15	0.637
474.36	0.640
474.57	0.654
474.79	0.644
475.00	0.646
475.21	0.636
475.42	0.678
475.63	0.632
475.84	0.648
476.05	0.652
476.26	0.637
476.47	0.653
476.68	0.673
476.89	0.639
477.10	0.663
477.32	0.656
477.53	0.681
477.74	0.644
477.95	0.664
478.16	0.639
478.37	0.662
478.58	0.666
478.79	0.674
479.00	0.673
479.21	0.651
479.42	0.670
479.63	0.672
479.84	0.654
480.05	0.656
480.26	0.670
480.47	0.679
480.69	0.678
480.90	0.661
481.11	0.659
481.32	0.689
481.53	0.662
481.74	0.688
481.95	0.673
482.16	0.682
482.37	0.686
482.58	0.671
482.79	0.680
483.00	0.694
483.21	0.670
483.42	0.656
483.63	0.692
483.84	0.706
484.05	0.699
484.26	0.684
484.47	0.685
484.68	0.667
484.89	0.669
485.10	0.691
485.31	0.683
485.52	0.687
485.73	0.687
485.94	0.707
486.15	0.683
486.37	0.692
486.58	0.679
486.79	0.684
487.00	0.705
487.21	0.701
487.42	0.698
487.63	0.701
487.84	0.709
488.05	0.708
488.26	0.690
488.47	0.692
488.68	0.705
488.89	0.695
489.10	0.693
489.31	0.700
489.52	0.716
489.73	0.699
489.94	0.716
490.15	0.694
490.36	0.712
490.57	0.690
490.78	0.684
490.99	0.703
491.20	0.735
491.41	0.717
491.62	0.689
491.83	0.704
492.04	0.704
492.25	0.706
492.45	0.707
492.66	0.718
492.87	0.713
493.08	0.709
493.29	0.701
493.50	0.701
493.71	0.704
493.92	0.703
494.13	0.710
494.34	0.719
494.55	0.723
494.76	0.737
494.97	0.733
495.18	0.717
495.39	0.724
495.60	0.701
495.81	0.699
496.02	0.709
496.23	0.706
496.44	0.721
496.65	0.716
496.86	0.719
497.07	0.728
497.28	0.727
497.49	0.705
497.70	0.706
497.91	0.716
498.12	0.708
498.32	0.726
498.53	0.720
498.74	0.716
498.95	0.730
499.16	0.708
499.37	0.711
499.58	0.715
499.79	0.728
500.00	0.726
500.21	0.739
500.42	0.716
500.63	0.718
500.84	0.727
501.05	0.717
501.26	0.729
501.46	0.747
501.67	0.729
501.88	0.730
502.09	0.719
502.30	0.722
502.51	0.743
502.72	0.723
502.93	0.728
503.14	0.738
503.35	0.725
503.56	0.724
503.77	0.740
503.97	0.733
504.18	0.733
504.39	0.748
504.60	0.735
504.81	0.748
505.02	0.744
505.23	0.746
505.44	0.736
505.65	0.740
505.86	0.731
506.07	0.759
506.27	0.740
506.48	0.743
506.69	0.736
506.90	0.745
507.11	0.745
507.32	0.732
507.53	0.737
507.74	0.735
507.95	0.741
508.15	0.743
508.36	0.745
508.57	0.747
508.78	0.740
508.99	0.740
509.20	0.730
509.41	0.740
509.62	0.734
509.82	0.734
510.03	0.737
510.24	0.737
510.45	0.748
510.66	0.745
510.87	0.744
511.08	0.725
511.29	0.745
511.49	0.734
511.70	0.755
511.91	0.726
512.12	0.724
512.33	0.740
512.54	0.746
512.75	0.739
512.95	0.751
513.16	0.748
513.37	0.738
513.58	0.753
513.79	0.736
514.00	0.738
514.20	0.746
514.41	0.741
514.62	0.726
514.83	0.745
515.04	0.739
515.25	0.730
515.46	0.734
515.66	0.736
515.87	0.741
516.08	0.728
516.29	0.738
516.50	0.730
516.71	0.726
516.91	0.729
517.12	0.737
517.33	0.731
517.54	0.723
517.75	0.725
517.95	0.730
518.16	0.735
518.37	0.720
518.58	0.724
518.79	0.712
519.00	0.727
519.20	0.730
519.41	0.716
519.62	0.726
519.83	0.731
520.04	0.714
520.24	0.713
520.45	0.716
520.66	0.727
520.87	0.709
521.08	0.707
521.28	0.710
521.49	0.717
521.70	0.704
521.91	0.710
522.12	0.699
522.32	0.710
522.53	0.702
522.74	0.697
522.95	0.700
523.16	0.701
523.36	0.705
523.57	0.695
523.78	0.693
523.99	0.696
524.20	0.691
524.40	0.697
524.61	0.699
524.82	0.685
525.03	0.686
525.23	0.688
525.44	0.680
525.65	0.680
525.86	0.689
526.06	0.676
526.27	0.675
526.48	0.679
526.69	0.670
526.90	0.671
527.10	0.689
527.31	0.667
527.52	0.663
527.73	0.659
527.93	0.664
528.14	0.668
528.35	0.662
528.56	0.662
528.76	0.659
528.97	0.654
529.18	0.649
529.39	0.649
529.59	0.651
529.80	0.666
530.01	0.652
530.22	0.650
530.42	0.635
530.63	0.643
530.84	0.631
531.05	0.638
531.25	0.639
531.46	0.635
531.67	0.624
531.88	0.633
532.08	0.629
532.29	0.626
532.50	0.622
532.70	0.618
532.91	0.613
533.12	0.615
533.33	0.628
533.53	0.612
533.74	0.610
533.95	0.613
534.15	0.607
534.36	0.606
534.57	0.597
534.78	0.598
534.98	0.603
535.19	0.586
535.40	0.587
535.60	0.596
535.81	0.585
536.02	0.587
536.23	0.582
536.43	0.583
536.64	0.576
536.85	0.581
537.05	0.584
537.26	0.572
537.47	0.574
537.67	0.567
537.88	0.564
538.09	0.568
538.30	0.562
538.50	0.556
538.71	0.563
538.92	0.555
539.12	0.552
539.33	0.550
539.54	0.551
539.74	0.554
539.95	0.549
540.16	0.546
540.36	0.541
540.57	0.541
540.78	0.537
540.98	0.536
541.19	0.535
541.40	0.528
541.60	0.534
541.81	0.530
542.02	0.530
542.22	0.524
542.43	0.522
542.64	0.518
542.84	0.519
543.05	0.514
543.26	0.514
543.46	0.516
543.67	0.515
543.88	0.512
544.08	0.506
544.29	0.503
544.50	0.503
544.70	0.503
544.91	0.498
545.12	0.499
545.32	0.496
545.53	0.498
545.74	0.492
545.94	0.489
546.15	0.488
546.35	0.485
546.56	0.483
546.77	0.481
546.97	0.480
547.18	0.475
547.39	0.475
547.59	0.475
547.80	0.472
548.01	0.475
548.21	0.473
548.42	0.468
548.62	0.468
548.83	0.467
549.04	0.465
549.24	0.460
549.45	0.459
549.65	0.457
549.86	0.454
550.07	0.453
550.27	0.452
550.48	0.458
550.69	0.448
550.89	0.448
551.10	0.445
551.30	0.444
551.51	0.444
551.72	0.437
551.92	0.438
552.13	0.438
552.33	0.439
552.54	0.435
552.75	0.430
552.95	0.431
553.16	0.427
553.36	0.426
553.57	0.425
553.78	0.424
553.98	0.424
554.19	0.419
554.39	0.416
554.60	0.418
554.80	0.419
555.01	0.414
555.22	0.414
555.42	0.413
555.63	0.408
555.83	0.411
556.04	0.406
556.25	0.409
556.45	0.403
556.66	0.402
556.86	0.405
557.07	0.404
557.27	0.403
557.48	0.399
557.68	0.398
557.89	0.398
558.10	0.396
558.30	0.393
558.51	0.392
558.71	0.390
558.92	0.387
559.12	0.388
559.33	0.391
559.54	0.388
559.74	0.384
559.95	0.383
560.15	0.384
560.36	0.382
560.56	0.378
560.77	0.378
560.97	0.378
561.18	0.375
561.38	0.374
561.59	0.376
561.79	0.374
562.00	0.372
562.21	0.370
562.41	0.369
562.62	0.369
562.82	0.368
563.03	0.366
563.23	0.366
563.44	0.366
563.64	0.364
563.85	0.365
564.05	0.359
564.26	0.360
564.46	0.359
564.67	0.360
564.87	0.356
565.08	0.354
565.28	0.354
565.49	0.354
565.69	0.352
565.90	0.349
566.10	0.351
566.31	0.347
566.51	0.348
566.72	0.350
566.92	0.344
567.13	0.345
567.33	0.344
567.54	0.344
567.74	0.343
567.95	0.340
568.15	0.341
568.36	0.341
568.56	0.340
568.77	0.336
568.97	0.336
569.18	0.335
569.38	0.334
569.59	0.335
569.79	0.332
570.00	0.330
570.20	0.329
570.41	0.328
570.61	0.328
570.82	0.328
571.02	0.325
571.23	0.326
571.43	0.323
571.64	0.322
571.84	0.322
572.05	0.321
572.25	0.321
572.45	0.320
572.66	0.318
572.86	0.317
573.07	0.316
573.27	0.317
573.48	0.316
573.68	0.313
573.89	0.313
574.09	0.314
574.30	0.313
574.50	0.311
574.70	0.312
574.91	0.309
575.11	0.309
575.32	0.309
575.52	0.306
575.73	0.306
575.93	0.306
576.14	0.306
576.34	0.304
576.54	0.304
576.75	0.302
576.95	0.302
577.16	0.300
577.36	0.299
577.57	0.299
577.77	0.297
577.97	0.295
578.18	0.297
578.38	0.294
578.59	0.293
578.79	0.291
579.00	0.293
579.20	0.291
579.40	0.291
579.61	0.290
579.81	0.290
580.02	0.288
580.22	0.288
580.42	0.287
580.63	0.288
580.83	0.288
581.04	0.286
581.24	0.285
581.45	0.285
581.65	0.284
581.85	0.284
582.06	0.283
582.26	0.283
582.47	0.282
582.67	0.282
582.87	0.281
583.08	0.279
583.28	0.279
583.48	0.278
583.69	0.275
583.89	0.276
584.10	0.276
584.30	0.274
584.50	0.273
584.71	0.272
584.91	0.272
585.12	0.270
585.32	0.271
585.52	0.269
585.73	0.268
585.93	0.268
586.13	0.268
586.34	0.267
586.54	0.267
586.75	0.266
586.95	0.264
587.15	0.265
587.36	0.264
587.56	0.263
587.76	0.262
587.97	0.262
588.17	0.260
588.37	0.261
588.58	0.261
588.78	0.259
588.98	0.259
589.19	0.259
589.39	0.256
589.60	0.258
589.80	0.256
590.00	0.256
590.21	0.256
590.41	0.254
590.61	0.254
590.82	0.254
591.02	0.253
591.22	0.252
591.43	0.252
591.63	0.251
591.83	0.251
592.04	0.250
592.24	0.250
592.44	0.248
592.65	0.247
592.85	0.247
593.05	0.248
593.26	0.246
593.46	0.246
593.66	0.246
593.86	0.245
594.07	0.243
594.27	0.244
594.47	0.243
594.68	0.242
594.88	0.243
595.08	0.243
595.29	0.243
595.49	0.241
595.69	0.240
595.90	0.240
596.10	0.241
596.30	0.240
596.50	0.239
596.71	0.239
596.91	0.238
597.11	0.237
597.32	0.237
597.52	0.236
597.72	0.236
597.93	0.236
598.13	0.234
598.33	0.235
598.53	0.234
598.74	0.234
598.94	0.234
599.14	0.234
599.35	0.234
599.55	0.233
599.75	0.233
599.95	0.232
600.16	0.232
600.36	0.231
600.56	0.231
600.76	0.230
600.97	0.228
601.17	0.228
601.37	0.228
601.58	0.227
601.78	0.227
601.98	0.226
602.18	0.225
602.39	0.225
602.59	0.225
602.79	0.224
602.99	0.225
603.20	0.224
603.40	0.224
603.60	0.224
603.80	0.224
604.01	0.223
604.21	0.222
604.41	0.222
604.61	0.221
604.82	0.221
605.02	0.221
605.22	0.220
605.42	0.220
605.62	0.220
605.83	0.219
606.03	0.218
606.23	0.218
606.43	0.218
606.64	0.218
606.84	0.217
607.04	0.217
607.24	0.217
607.45	0.217
607.65	0.216
607.85	0.217
608.05	0.216
608.25	0.216
608.46	0.215
608.66	0.215
608.86	0.215
609.06	0.214
609.26	0.213
609.47	0.213
609.67	0.211
609.87	0.213
610.07	0.212
610.28	0.210
610.48	0.210
610.68	0.211
610.88	0.209
611.08	0.209
611.29	0.208
611.49	0.208
611.69	0.209
611.89	0.207
612.09	0.207
612.29	0.206
612.50	0.206
612.70	0.207
612.90	0.206
613.10	0.206
613.30	0.205
613.51	0.206
613.71	0.205
613.91	0.209
614.11	0.204
614.31	0.204
614.51	0.204
614.72	0.203
614.92	0.202
615.12	0.202
615.32	0.203
615.52	0.202
615.72	0.202
615.93	0.202
616.13	0.202
616.33	0.202
616.53	0.201
616.73	0.202
616.93	0.200
617.14	0.201
617.34	0.201
617.54	0.201
617.74	0.201
617.94	0.200
618.14	0.199
618.34	0.198
618.55	0.198
618.75	0.198
618.95	0.198
619.15	0.198
619.35	0.197
619.55	0.196
619.75	0.197
619.96	0.195
620.16	0.196
620.36	0.196
620.56	0.196
620.76	0.196
620.96	0.195
621.16	0.195
621.36	0.195
621.57	0.195
621.77	0.195
621.97	0.194
622.17	0.194
622.37	0.194
622.57	0.194
622.77	0.193
622.97	0.192
623.18	0.192
623.38	0.192
623.58	0.192
623.78	0.191
623.98	0.191
624.18	0.191
624.38	0.190
624.58	0.190
624.78	0.191
624.98	0.191
625.19	0.190
625.39	0.190
625.59	0.190
625.79	0.190
625.99	0.190
626.19	0.190
626.39	0.190
626.59	0.190
626.79	0.189
626.99	0.189
627.19	0.189
627.40	0.189
627.60	0.189
627.80	0.189
628.00	0.188
628.20	0.187
628.40	0.187
628.60	0.187
628.80	0.186
629.00	0.186
629.20	0.185
629.40	0.185
629.60	0.184
629.80	0.184
630.00	0.184
630.20	0.184
630.41	0.183
630.61	0.183
630.81	0.183
631.01	0.183
631.21	0.182
631.41	0.182
631.61	0.183
631.81	0.182
632.01	0.181
632.21	0.181
632.41	0.180
632.61	0.180
632.81	0.180
633.01	0.180
633.21	0.180
633.41	0.180
633.61	0.179
633.81	0.179
634.01	0.179
634.21	0.179
634.41	0.179
634.61	0.179
634.81	0.178
635.01	0.178
635.22	0.178
635.42	0.178
635.62	0.178
635.82	0.178
636.02	0.178
636.22	0.177
636.42	0.176
636.62	0.177
636.82	0.176
637.02	0.176
637.22	0.176
637.42	0.175
637.62	0.174
637.82	0.174
638.02	0.173
638.22	0.173
638.42	0.173
638.62	0.173
638.82	0.172
639.02	0.172
639.22	0.172
639.42	0.172
639.62	0.172
639.82	0.171
640.02	0.171
640.22	0.171
640.42	0.171
640.62	0.171
640.82	0.171
641.02	0.170
641.22	0.170
641.42	0.169
641.61	0.170
641.81	0.170
642.01	0.170
642.21	0.170
642.41	0.170
642.61	0.170
642.81	0.169
643.01	0.169
643.21	0.169
643.41	0.169
643.61	0.168
643.81	0.168
644.01	0.166
644.21	0.166
644.41	0.166
644.61	0.166
644.81	0.166
645.01	0.166
645.21	0.166
645.41	0.166
645.61	0.165
645.81	0.165
646.01	0.164
646.21	0.166
646.40	0.165
646.60	0.165
646.80	0.165
647.00	0.165
647.20	0.163
647.40	0.163
647.60	0.163
647.80	0.163
648.00	0.163
648.20	0.163
648.40	0.162
648.60	0.161
648.80	0.161
649.00	0.161
649.20	0.162
649.39	0.161
649.59	0.160
649.79	0.160
649.99	0.160
650.19	0.159
650.39	0.159
650.59	0.159
650.79	0.159
650.99	0.158
651.19	0.157
651.39	0.157
651.58	0.157
651.78	0.157
651.98	0.156
652.18	0.156
652.38	0.156
652.58	0.156
652.78	0.156
652.98	0.155
653.18	0.156
653.38	0.156
653.57	0.156
653.77	0.156
653.97	0.155
654.17	0.155
654.37	0.154
654.57	0.154
654.77	0.154
654.97	0.154
655.16	0.154
655.36	0.153
655.56	0.153
655.76	0.152
655.96	0.153
656.16	0.152
656.36	0.152
656.56	0.152
656.75	0.152
656.95	0.152
657.15	0.151
657.35	0.151
657.55	0.151
657.75	0.151
657.95	0.151
658.14	0.151
658.34	0.151
658.54	0.151
658.74	0.150
658.94	0.149
659.14	0.149
659.34	0.149
659.53	0.148
659.73	0.148
659.93	0.147
660.13	0.147
660.33	0.147
660.53	0.146
660.72	0.147
660.92	0.146
661.12	0.146
661.32	0.146
661.52	0.145
661.72	0.145
661.91	0.144
662.11	0.145
662.31	0.144
662.51	0.144
662.71	0.144
662.90	0.143
663.10	0.143
663.30	0.142
663.50	0.142
663.70	0.142
663.90	0.142
664.09	0.142
664.29	0.142
664.49	0.141
664.69	0.141
664.89	0.141
665.08	0.141
665.28	0.140
665.48	0.140
665.68	0.140
665.88	0.140
666.07	0.140
666.27	0.140
666.47	0.139
666.67	0.140
666.87	0.140
667.06	0.139
667.26	0.138
667.46	0.138
667.66	0.138
667.85	0.138
668.05	0.138
668.25	0.138
668.45	0.138
668.65	0.137
668.84	0.137
669.04	0.137
669.24	0.136
669.44	0.136
669.63	0.135
669.83	0.135
670.03	0.135
670.23	0.134
670.42	0.134
670.62	0.134
670.82	0.133
671.02	0.133
671.22	0.132
671.41	0.132
671.61	0.133
671.81	0.133
672.01	0.133
672.20	0.132
672.40	0.132
672.60	0.132
672.80	0.131
672.99	0.131
673.19	0.130
673.39	0.131
673.58	0.130
673.78	0.130
673.98	0.129
674.18	0.129
674.37	0.129
674.57	0.128
674.77	0.128
674.97	0.128
675.16	0.129
675.36	0.128
675.56	0.127
675.75	0.128
675.95	0.127
676.15	0.127
676.35	0.127
676.54	0.126
676.74	0.126
676.94	0.126
677.13	0.126
677.33	0.125
677.53	0.125
677.73	0.126
677.92	0.125
678.12	0.125
678.32	0.124
678.51	0.124
678.71	0.125
678.91	0.124
679.11	0.124
679.30	0.124
679.50	0.124
679.70	0.123
679.89	0.123
680.09	0.123
680.29	0.122
680.48	0.122
680.68	0.122
680.88	0.122
681.07	0.122
681.27	0.121
681.47	0.121
681.66	0.121
681.86	0.121
682.06	0.121
682.25	0.120
682.45	0.120
682.65	0.120
682.84	0.119
683.04	0.119
683.24	0.118
683.43	0.119
683.63	0.118
683.83	0.119
684.02	0.118
684.22	0.118
684.42	0.118
684.61	0.118
684.81	0.118
685.01	0.117
685.20	0.117
685.40	0.117
685.60	0.117
685.79	0.117
685.99	0.117
686.19	0.116
686.38	0.116
686.58	0.117
686.77	0.117
686.97	0.116
687.17	0.116
687.36	0.116
687.56	0.116
687.76	0.115
687.95	0.115
688.15	0.115
688.34	0.115
688.54	0.114
688.74	0.114
688.93	0.113
689.13	0.113
689.33	0.113
689.52	0.113
689.72	0.113
689.91	0.112
690.11	0.112
690.31	0.112
690.50	0.112
690.70	0.112
690.89	0.112
691.09	0.111
691.29	0.111
691.48	0.111
691.68	0.111
691.87	0.110
692.07	0.111
692.27	0.110
692.46	0.110
692.66	0.109
692.85	0.109
693.05	0.109
693.25	0.109
693.44	0.109
693.64	0.109
693.83	0.109
694.03	0.108
694.22	0.108
694.42	0.108
694.62	0.108
694.81	0.108
695.01	0.108
695.20	0.108
695.40	0.107
695.59	0.107
695.79	0.106
695.99	0.106
696.18	0.106
696.38	0.106
696.57	0.106
696.77	0.105
696.96	0.106
697.16	0.105
697.36	0.105
697.55	0.105
697.75	0.105
697.94	0.105
698.14	0.105
698.33	0.104
698.53	0.104
698.72	0.104
698.92	0.104
699.11	0.104
699.31	0.104
699.51	0.104
699.70	0.104
699.90	0.104
700.09	0.104
700.29	0.104
700.48	0.104
700.68	0.103
700.87	0.103
701.07	0.103
701.26	0.102
701.46	0.102
701.65	0.102
701.85	0.101
702.04	0.101
702.24	0.101
702.43	0.101
702.63	0.101
702.82	0.101
703.02	0.100
703.21	0.101
703.41	0.100
703.60	0.100
703.80	0.100
703.99	0.100
704.19	0.100
704.38	0.100
704.58	0.099
704.77	0.099
704.97	0.099
705.16	0.099
705.36	0.099
705.55	0.099
705.75	0.099
705.94	0.099
706.14	0.099
706.33	0.098
706.53	0.098
706.72	0.099
706.92	0.098
707.11	0.098
707.31	0.097
707.50	0.098
707.70	0.098
707.89	0.098
708.09	0.098
708.28	0.098
708.48	0.098
708.67	0.098
708.86	0.098
709.06	0.097
709.25	0.097
709.45	0.097
709.64	0.097
709.84	0.096
710.03	0.096
710.23	0.095
710.42	0.095
710.62	0.095
710.81	0.094
711.00	0.094
711.20	0.094
711.39	0.094
711.59	0.094
711.78	0.094
711.98	0.094
712.17	0.094
712.37	0.094
712.56	0.094
712.75	0.095
712.95	0.095
713.14	0.095
713.34	0.095
713.53	0.095
713.73	0.095
713.92	0.095
714.11	0.095
714.31	0.095
714.50	0.094
714.70	0.094
714.89	0.094
715.08	0.095
715.28	0.094
715.47	0.094
715.67	0.094
715.86	0.093
716.06	0.093
716.25	0.093
716.44	0.093
716.64	0.093
716.83	0.093
717.03	0.093
717.22	0.092
717.41	0.092
717.61	0.092
717.80	0.092
717.99	0.092
718.19	0.092
718.38	0.092
718.58	0.091
718.77	0.091
718.96	0.091
719.16	0.091
719.35	0.091
719.55	0.091
719.74	0.091
719.93	0.090
720.13	0.090
720.32	0.090
720.51	0.090
720.71	0.090
720.90	0.090
721.10	0.090
721.29	0.090
721.48	0.090
721.68	0.090
721.87	0.090
722.06	0.090
722.26	0.090
722.45	0.090
722.64	0.090
722.84	0.089
723.03	0.089
723.22	0.090
723.42	0.090
723.61	0.089
723.80	0.090
724.00	0.090
724.19	0.089
724.38	0.089
724.58	0.089
724.77	0.089
724.96	0.089
725.16	0.089
725.35	0.089
725.54	0.089
725.74	0.089
725.93	0.089
726.12	0.089
726.32	0.089
726.51	0.090
726.70	0.090
726.90	0.090
727.09	0.089
727.28	0.089
727.48	0.089
727.67	0.089
727.86	0.089
728.06	0.089
728.25	0.089
728.44	0.089
728.64	0.089
728.83	0.089
729.02	0.088
729.21	0.089
729.41	0.089
729.60	0.089
729.79	0.089
729.99	0.089
730.18	0.089
730.37	0.088
730.56	0.088
730.76	0.088
730.95	0.088
731.14	0.088
731.34	0.087
731.53	0.088
731.72	0.087
731.91	0.088
732.11	0.087
732.30	0.087
732.49	0.087
732.69	0.087
732.88	0.088
733.07	0.088
733.26	0.088
733.46	0.088
733.65	0.088
733.84	0.088
734.03	0.088
734.23	0.088
734.42	0.088
734.61	0.088
734.80	0.088
735.00	0.088
735.19	0.088
735.38	0.088
735.57	0.088
735.77	0.088
735.96	0.088
736.15	0.088
736.34	0.087
736.54	0.087
736.73	0.087
736.92	0.087
737.11	0.087
737.31	0.087
737.50	0.087
737.69	0.087
737.88	0.086
738.07	0.087
738.27	0.087
738.46	0.087
738.65	0.086
738.84	0.086
739.04	0.086
739.23	0.086
739.42	0.086
739.61	0.086
739.80	0.086
740.00	0.086
740.19	0.086
740.38	0.086
740.57	0.086
740.76	0.086
740.96	0.086
741.15	0.086
741.34	0.086
741.53	0.086
741.72	0.086
741.92	0.086
742.11	0.086
742.30	0.086
742.49	0.086
742.68	0.086
742.88	0.086
743.07	0.086
743.26	0.085
743.45	0.086
743.64	0.085
743.84	0.085
744.03	0.085
744.22	0.085
744.41	0.085
744.60	0.084
744.79	0.085
744.99	0.085
745.18	0.084
745.37	0.084
745.56	0.084
745.75	0.084
745.94	0.084
746.14	0.084
746.33	0.084
746.52	0.085
746.71	0.084
746.90	0.084
747.09	0.084
747.28	0.084
747.48	0.084
747.67	0.084
747.86	0.084
748.05	0.084
748.24	0.083
748.43	0.083
748.62	0.083
748.82	0.083
749.01	0.083
749.20	0.083
749.39	0.083
749.58	0.084
749.77	0.084
749.96	0.084
750.16	0.084
750.35	0.084
750.54	0.083
750.73	0.083
750.92	0.083
751.11	0.083
751.30	0.083
751.49	0.083
751.68	0.082
751.88	0.082
752.07	0.082
752.26	0.082
752.45	0.082
752.64	0.082
752.83	0.082
753.02	0.081
753.21	0.081
753.40	0.081
753.60	0.081
753.79	0.081
753.98	0.081
754.17	0.081
754.36	0.081
754.55	0.080
754.74	0.080
754.93	0.080
755.12	0.080
755.31	0.081
755.50	0.080
755.70	0.080
755.89	0.080
756.08	0.080
756.27	0.080
756.46	0.080
756.65	0.080
756.84	0.080
757.03	0.080
757.22	0.079
757.41	0.079
757.60	0.079
757.79	0.079
757.98	0.079
758.17	0.079
758.36	0.079
758.56	0.079
758.75	0.079
758.94	0.079
759.13	0.079
759.32	0.079
759.51	0.079
759.70	0.079
759.89	0.079
760.08	0.079
760.27	0.079
760.46	0.079
760.65	0.079
760.84	0.079
761.03	0.079
761.22	0.079
761.41	0.080
761.60	0.079
761.79	0.079
761.98	0.079
762.17	0.078
762.36	0.078
762.55	0.078
762.74	0.078
762.93	0.077
763.12	0.077
763.31	0.077
763.50	0.077
763.69	0.077
763.88	0.077
764.07	0.077
764.26	0.077
764.45	0.077
764.64	0.077
764.83	0.076
765.02	0.077
765.21	0.077
765.40	0.077
765.59	0.076
765.78	0.076
765.97	0.077
766.16	0.077
766.35	0.077
766.54	0.077
766.73	0.077
766.92	0.076
767.11	0.076
767.30	0.076
767.49	0.076
767.68	0.076
767.87	0.076
768.06	0.076
768.25	0.076
768.44	0.076
768.63	0.075
768.82	0.076
769.01	0.075
769.20	0.076
769.39	0.076
769.58	0.076
769.77	0.076
769.96	0.076
770.15	0.076
770.34	0.076
770.53	0.076
770.72	0.076
770.91	0.075
771.10	0.076
771.29	0.075
771.47	0.075
771.66	0.075
771.85	0.075
772.04	0.075
772.23	0.075
772.42	0.074
772.61	0.075
772.80	0.075
772.99	0.075
773.18	0.074
773.37	0.075
773.56	0.075
773.75	0.075
773.94	0.075
774.13	0.075
774.31	0.075
774.50	0.075
774.69	0.075
774.88	0.074
775.07	0.075
775.26	0.074
775.45	0.074
775.64	0.074
775.83	0.074
776.02	0.074
776.21	0.074
776.40	0.074
776.58	0.074
776.77	0.074
776.96	0.074
777.15	0.074
777.34	0.075
777.53	0.075
777.72	0.074
777.91	0.074
778.10	0.074
778.28	0.074
778.47	0.074
778.66	0.073
778.85	0.073
779.04	0.073
779.23	0.073
779.42	0.073
779.61	0.073
779.79	0.072
779.98	0.072
780.17	0.072
780.36	0.072
780.55	0.072
780.74	0.072
780.93	0.071
781.12	0.071
781.30	0.071
781.49	0.071
781.68	0.071
781.87	0.071
782.06	0.071
782.25	0.071
782.44	0.072
782.62	0.072
782.81	0.072
783.00	0.072
783.19	0.072
783.38	0.071
783.57	0.071
783.75	0.071
783.94	0.071
784.13	0.071
784.32	0.071
784.51	0.070
784.70	0.071
784.88	0.071
785.07	0.071
785.26	0.070
785.45	0.071
785.64	0.071
785.83	0.071
786.01	0.070
786.20	0.070
786.39	0.071
786.58	0.070
786.77	0.070
786.95	0.070
787.14	0.070
787.33	0.070
787.52	0.070
787.71	0.070
787.90	0.069
788.08	0.070
788.27	0.070
788.46	0.070
788.65	0.070
788.84	0.070
789.02	0.070
789.21	0.070
789.40	0.070
789.59	0.069
789.77	0.070
789.96	0.070
790.15	0.070
790.34	0.070
790.53	0.070
790.71	0.069
790.90	0.069
791.09	0.069
791.28	0.070
791.46	0.070
791.65	0.070
791.84	0.070
792.03	0.070
792.22	0.070
792.40	0.070
792.59	0.070
792.78	0.070
792.97	0.070
793.15	0.069
793.34	0.069
793.53	0.069
793.72	0.069
793.90	0.069
794.09	0.069
794.28	0.069
794.47	0.069
794.65	0.069
794.84	0.069
795.03	0.069
795.22	0.068
795.40	0.068
795.59	0.068
795.78	0.068
795.97	0.068
796.15	0.069
796.34	0.069
796.53	0.069
796.71	0.069
796.90	0.069
797.09	0.070
797.28	0.070
797.46	0.069
797.65	0.069
797.84	0.069
798.02	0.069
798.21	0.069
798.40	0.068
798.59	0.068
798.77	0.068
798.96	0.067
799.15	0.067
799.33	0.067
799.52	0.067
799.71	0.067
799.90	0.067
800.08	0.067
800.27	0.067
800.46	0.067
800.64	0.067
800.83	0.067
801.02	0.067
801.20	0.067
801.39	0.067
801.58	0.067
801.76	0.067
801.95	0.067
802.14	0.067
802.32	0.067
802.51	0.067
802.70	0.067
802.88	0.067
803.07	0.067
803.26	0.067
803.44	0.066
803.63	0.067
803.82	0.066
804.00	0.066
804.19	0.067
804.38	0.067
804.56	0.067
804.75	0.067
804.94	0.067
805.12	0.067
805.31	0.067
805.50	0.067
805.68	0.067
805.87	0.067
806.06	0.067
806.24	0.067
806.43	0.067
806.62	0.067
806.80	0.067
806.99	0.066
807.17	0.066
807.36	0.067
807.55	0.067
807.73	0.067
807.92	0.067
808.11	0.067
808.29	0.067
808.48	0.066
808.66	0.066
808.85	0.066
809.04	0.066
809.22	0.066
809.41	0.066
809.59	0.065
809.78	0.065
809.97	0.065
810.15	0.065
810.34	0.065
810.53	0.065
810.71	0.065
810.90	0.065
811.08	0.065
811.27	0.065
811.45	0.065
811.64	0.066
811.83	0.066
812.01	0.066
812.20	0.066
812.38	0.066
812.57	0.066
812.76	0.066
812.94	0.066
813.13	0.066
813.31	0.066
813.50	0.066
813.68	0.066
813.87	0.065
814.06	0.066
814.24	0.066
814.43	0.066
814.61	0.066
814.80	0.066
814.98	0.066
815.17	0.066
815.36	0.066
815.54	0.067
815.73	0.067
815.91	0.067
816.10	0.067
816.28	0.067
816.47	0.067
816.65	0.067
816.84	0.066
817.03	0.067
817.21	0.067
817.40	0.067
817.58	0.066
817.77	0.066
817.95	0.066
818.14	0.066
818.32	0.066
818.51	0.066
818.69	0.066
818.88	0.066
819.06	0.066
819.25	0.066
819.43	0.065
819.62	0.066
819.80	0.065
819.99	0.066
820.18	0.066
820.36	0.065
820.55	0.065
820.73	0.065
820.92	0.065
821.10	0.065
821.29	0.065
821.47	0.065
821.66	0.065
821.84	0.065
822.03	0.065
822.21	0.065
822.40	0.065
822.58	0.066
822.77	0.065
822.95	0.065
823.14	0.065
823.32	0.066
823.50	0.066
823.69	0.066
823.87	0.066
824.06	0.067
824.24	0.067
824.43	0.066
824.61	0.066
824.80	0.067
824.98	0.067
825.17	0.067
825.35	0.067
825.54	0.067
825.72	0.067
825.91	0.067
826.09	0.067
826.28	0.067
826.46	0.068
826.64	0.068
826.83	0.068
827.01	0.068
827.20	0.068
827.38	0.068
827.57	0.068
827.75	0.068
827.94	0.068
828.12	0.068
828.31	0.068
828.49	0.068
828.67	0.068
828.86	0.068
829.04	0.068
829.23	0.068
829.41	0.069
829.60	0.069
829.78	0.070
829.96	0.070
830.15	0.070
830.33	0.071
830.52	0.070
830.70	0.071
830.88	0.070
831.07	0.071
831.25	0.071
831.44	0.071
831.62	0.071
831.81	0.071
831.99	0.070
832.17	0.071
832.36	0.071
832.54	0.071
832.73	0.071
832.91	0.070
833.09	0.070
833.28	0.071
833.46	0.071
833.65	0.071
833.83	0.071
834.01	0.071
834.20	0.071
834.38	0.071
834.56	0.071
834.75	0.071
834.93	0.072
835.12	0.072
835.30	0.072
835.48	0.072
835.67	0.071
835.85	0.071
836.03	0.071
836.22	0.071
836.40	0.071
836.59	0.072
836.77	0.071
836.95	0.071
837.14	0.071
837.32	0.071
837.50	0.071
837.69	0.071
837.87	0.071
838.05	0.072
838.24	0.072
838.42	0.071
838.60	0.072
838.79	0.072
838.97	0.072
839.15	0.072
839.34	0.072
839.52	0.072
839.70	0.072
839.89	0.072
840.07	0.072
840.25	0.072
840.44	0.072
840.62	0.072
840.80	0.072
840.99	0.072
841.17	0.072
841.35	0.072
841.54	0.072
841.72	0.072
841.90	0.072
842.09	0.072
842.27	0.072
842.45	0.072
842.64	0.073
842.82	0.073
843.00	0.073
843.19	0.073
843.37	0.073
843.55	0.073
843.73	0.073
843.92	0.073
844.10	0.073
844.28	0.073
844.47	0.073
844.65	0.073
844.83	0.073
845.01	0.073
845.20	0.073
845.38	0.074
845.56	0.074
845.75	0.073
845.93	0.073
846.11	0.073
846.29	0.074
846.48	0.074
846.66	0.074
846.84	0.073
847.02	0.073
847.21	0.073
847.39	0.073
847.57	0.073
847.76	0.073
847.94	0.073
848.12	0.073
848.30	0.073
848.49	0.073
848.67	0.073
848.85	0.074
849.03	0.074
849.22	0.074
849.40	0.074
849.58	0.074
849.76	0.074
849.95	0.074
850.13	0.074
850.31	0.074
850.49	0.074
850.67	0.074
850.86	0.074
851.04	0.074
851.22	0.074
851.40	0.073
851.59	0.073
851.77	0.074
851.95	0.073
852.13	0.074
852.31	0.073
852.50	0.074
852.68	0.074
852.86	0.074
853.04	0.075
853.23	0.075
853.41	0.074
853.59	0.074
853.77	0.074
853.95	0.074
854.14	0.074
854.32	0.074
854.50	0.074
854.68	0.073
854.86	0.073
855.04	0.073
855.23	0.073
855.41	0.074
855.59	0.074
855.77	0.074
855.95	0.074
856.14	0.074
856.32	0.074
856.50	0.074
856.68	0.075
856.86	0.075
857.04	0.075
857.23	0.075
857.41	0.075
857.59	0.074
857.77	0.074
857.95	0.074
858.13	0.074
858.32	0.074
858.50	0.074
858.68	0.073
858.86	0.074
859.04	0.074
859.22	0.074
859.41	0.074
859.59	0.074
859.77	0.074
859.95	0.074
860.13	0.074
860.31	0.074
860.49	0.074
860.68	0.074
860.86	0.074
861.04	0.074
861.22	0.074
861.40	0.074
861.58	0.074
861.76	0.074
861.94	0.074
862.13	0.074
862.31	0.074
862.49	0.074
862.67	0.074
862.85	0.074
863.03	0.075
863.21	0.075
863.39	0.075
863.57	0.075
863.76	0.075
863.94	0.075
864.12	0.075
864.30	0.075
864.48	0.075
864.66	0.075
864.84	0.075
865.02	0.075
865.20	0.075
865.38	0.075
865.57	0.075
865.75	0.075
865.93	0.076
866.11	0.075
866.29	0.076
866.47	0.076
866.65	0.076
866.83	0.076
867.01	0.076
867.19	0.075
867.37	0.075
867.55	0.076
867.73	0.076
867.92	0.075
868.10	0.076
868.28	0.075
868.46	0.076
868.64	0.076
868.82	0.076
869.00	0.076
869.18	0.077
869.36	0.076
869.54	0.076
869.72	0.076
869.90	0.076
870.08	0.076
870.26	0.076
870.44	0.076
870.62	0.076
870.80	0.075
870.98	0.075
871.16	0.075
871.34	0.075
871.53	0.075
871.71	0.075
871.89	0.075
872.07	0.076
872.25	0.075
872.43	0.075
872.61	0.076
872.79	0.076
872.97	0.076
873.15	0.076
873.33	0.077
873.51	0.077
873.69	0.077
873.87	0.077
874.05	0.077
874.23	0.077
874.41	0.077
874.59	0.078
874.77	0.078
874.95	0.077
875.13	0.077
875.31	0.077
875.49	0.077
875.67	0.077
875.85	0.077
876.03	0.077
876.21	0.077
876.39	0.077
876.57	0.077
876.75	0.078
876.93	0.078
877.11	0.078
877.29	0.078
877.47	0.078
877.65	0.078
877.82	0.078
878.00	0.078
878.18	0.078
878.36	0.078
878.54	0.078
878.72	0.078
878.90	0.078
879.08	0.078
879.26	0.078
879.44	0.079
879.62	0.078
879.80	0.079
879.98	0.079
880.16	0.078
880.34	0.078
880.52	0.078
880.70	0.078
880.88	0.078
881.06	0.078
881.24	0.078
881.42	0.078
881.59	0.078
881.77	0.077
881.95	0.078
882.13	0.078
882.31	0.078
882.49	0.078
882.67	0.078
882.85	0.078
883.03	0.078
883.21	0.078
883.39	0.078
883.57	0.079
883.75	0.079
883.92	0.078
884.10	0.079
884.28	0.079
884.46	0.079
884.64	0.079
884.82	0.079
885.00	0.079
885.18	0.079
885.36	0.079
885.54	0.079
885.71	0.079
885.89	0.080
886.07	0.080
886.25	0.080
886.43	0.080
886.61	0.080
886.79	0.080
886.97	0.080
887.15	0.080
887.32	0.080
887.50	0.080
887.68	0.080
887.86	0.080
888.04	0.080
888.22	0.080
888.40	0.080
888.57	0.080
888.75	0.080
888.93	0.080
889.11	0.080
889.29	0.080
889.47	0.081
889.65	0.080
889.82	0.081
890.00	0.081
890.18	0.081
890.36	0.081
890.54	0.081
890.72	0.081
890.90	0.081
891.07	0.080
891.25	0.080
891.43	0.080
891.61	0.080
891.79	0.080
891.97	0.080
892.14	0.080
892.32	0.080
892.50	0.080
892.68	0.081
892.86	0.081
893.03	0.081
893.21	0.082
893.39	0.082
893.57	0.082
893.75	0.082
893.93	0.082
894.10	0.082
894.28	0.082
894.46	0.082
894.64	0.082
894.82	0.082
894.99	0.082
895.17	0.082
895.35	0.082
895.53	0.082
895.71	0.082
895.88	0.082
896.06	0.082
896.24	0.082
896.42	0.082
896.59	0.082
896.77	0.082
896.95	0.082
897.13	0.082
897.31	0.082
897.48	0.082
897.66	0.082
897.84	0.082
898.02	0.082
898.19	0.082
898.37	0.082
898.55	0.082
898.73	0.082
898.91	0.082
899.08	0.082
899.26	0.082
899.44	0.083
899.62	0.083
899.79	0.083
899.97	0.083
900.15	0.083
900.33	0.083
900.50	0.083
900.68	0.082
900.86	0.082
901.04	0.083
901.21	0.083
901.39	0.083
901.57	0.083
901.74	0.083
901.92	0.083
902.10	0.084
902.28	0.084
902.45	0.084
902.63	0.084
902.81	0.083
902.99	0.084
903.16	0.084
903.34	0.084
903.52	0.084
903.69	0.084
903.87	0.084
904.05	0.084
904.22	0.084
904.40	0.084
904.58	0.084
904.76	0.084
904.93	0.084
905.11	0.084
905.29	0.084
905.46	0.084
905.64	0.084
905.82	0.084
905.99	0.084
906.17	0.084
906.35	0.085
906.53	0.085
906.70	0.085
906.88	0.085
907.06	0.085
907.23	0.085
907.41	0.085
907.59	0.085
907.76	0.085
907.94	0.085
908.12	0.085
908.29	0.085
908.47	0.085
908.65	0.086
908.82	0.085
909.00	0.086
909.18	0.086
909.35	0.086
909.53	0.086
909.71	0.086
909.88	0.086
910.06	0.086
910.23	0.086
910.41	0.086
910.59	0.086
910.76	0.086
910.94	0.086
911.12	0.086
911.29	0.086
911.47	0.086
911.65	0.086
911.82	0.086
912.00	0.086
912.17	0.086
912.35	0.087
912.53	0.087
912.70	0.087
912.88	0.088
913.06	0.088
913.23	0.089
913.41	0.088
913.58	0.088
913.76	0.089
913.94	0.089
914.11	0.089
914.29	0.089
914.46	0.090
914.64	0.089
914.82	0.090
914.99	0.090
915.17	0.089
915.34	0.089
915.52	0.089
915.70	0.089
915.87	0.089
916.05	0.089
916.22	0.089
916.40	0.090
916.57	0.090
916.75	0.090
916.93	0.090
917.10	0.090
917.28	0.090
917.45	0.090
917.63	0.090
917.80	0.090
917.98	0.090
918.16	0.090
918.33	0.091
918.51	0.090
918.68	0.091
918.86	0.091
919.03	0.091
919.21	0.091
919.39	0.092
919.56	0.093
919.74	0.093
919.91	0.093
920.09	0.093
920.26	0.093
920.44	0.094
920.61	0.094
920.79	0.094
920.96	0.094
921.14	0.094
921.31	0.094
921.49	0.094
921.67	0.094
921.84	0.095
922.02	0.095
922.19	0.095
922.37	0.095
922.54	0.096
922.72	0.096
922.89	0.097
923.07	0.097
923.24	0.097
923.42	0.097
923.59	0.097
923.77	0.097
923.94	0.098
924.12	0.098
924.29	0.098
924.47	0.099
924.64	0.099
924.82	0.099
924.99	0.099
925.17	0.100
925.34	0.100
925.52	0.101
925.69	0.101
925.87	0.101
926.04	0.102
926.22	0.102
926.39	0.102
926.57	0.102
926.74	0.102
926.91	0.103
927.09	0.104
927.26	0.103
927.44	0.104
927.61	0.104
927.79	0.104
927.96	0.105
928.14	0.105
928.31	0.105
928.49	0.105
928.66	0.106
928.84	0.106
929.01	0.106
929.18	0.107
929.36	0.107
929.53	0.108
929.71	0.108
929.88	0.109
930.06	0.109
930.23	0.110
930.41	0.110
930.58	0.111
930.75	0.111
930.93	0.112
931.10	0.112
931.28	0.112
931.45	0.113
931.63	0.113
931.80	0.114
931.97	0.114
932.15	0.115
932.32	0.115
932.50	0.115
932.67	0.116
932.84	0.116
933.02	0.117
933.19	0.117
933.37	0.118
933.54	0.118
933.71	0.118
933.89	0.119
934.06	0.120
934.24	0.120
934.41	0.121
934.58	0.121
934.76	0.121
934.93	0.122
935.11	0.122
935.28	0.123
935.45	0.123
935.63	0.123
935.80	0.124
935.98	0.124
936.15	0.124
936.32	0.125
936.50	0.125
936.67	0.126
936.84	0.126
937.02	0.128
937.19	0.128
937.36	0.129
937.54	0.129
937.71	0.130
937.89	0.130
938.06	0.131
938.23	0.131
938.41	0.132
938.58	0.133
938.75	0.133
938.93	0.133
939.10	0.133
939.27	0.134
939.45	0.135
939.62	0.135
939.79	0.136
939.97	0.136
940.14	0.137
940.31	0.138
940.49	0.138
940.66	0.139
940.83	0.139
941.01	0.140
941.18	0.141
941.35	0.141
941.53	0.142
941.70	0.142
941.87	0.143
942.05	0.143
942.22	0.144
942.39	0.145
942.57	0.145
942.74	0.146
942.91	0.146
943.08	0.147
943.26	0.147
943.43	0.148
943.60	0.148
943.78	0.149
943.95	0.150
944.12	0.151
944.29	0.151
944.47	0.152
944.64	0.153
944.81	0.154
944.99	0.155
945.16	0.156
945.33	0.155
945.50	0.157
945.68	0.158
945.85	0.158
946.02	0.160
946.20	0.160
946.37	0.162
946.54	0.162
946.71	0.163
946.89	0.164
947.06	0.164
947.23	0.165
947.40	0.167
947.58	0.167
947.75	0.168
947.92	0.169
948.09	0.169
948.27	0.170
948.44	0.171
948.61	0.172
948.78	0.173
948.96	0.174
949.13	0.175
949.30	0.176
949.47	0.177
949.65	0.178
949.82	0.180
949.99	0.180
950.16	0.183
950.33	0.184
950.51	0.185
950.68	0.186
950.85	0.188
951.02	0.189
951.20	0.190
951.37	0.191
951.54	0.192
951.71	0.193
951.88	0.195
952.06	0.195
952.23	0.196
952.40	0.198
952.57	0.199
952.74	0.201
952.92	0.201
953.09	0.203
953.26	0.204
953.43	0.205
953.60	0.206
953.77	0.207
953.95	0.208
954.12	0.210
954.29	0.210
954.46	0.212
954.63	0.213
954.81	0.214
954.98	0.215
955.15	0.217
955.32	0.218
955.49	0.218
955.66	0.220
955.84	0.222
956.01	0.222
956.18	0.224
956.35	0.226
956.52	0.226
956.69	0.228
956.87	0.228
957.04	0.229
957.21	0.232
957.38	0.232
957.55	0.233
957.72	0.234
957.89	0.235
958.07	0.235
958.24	0.237
958.41	0.238
958.58	0.238
958.75	0.239
958.92	0.240
959.09	0.240
959.26	0.241
959.44	0.241
959.61	0.243
959.78	0.244
959.95	0.245
960.12	0.246
960.29	0.248
960.46	0.247
960.63	0.248
960.81	0.248
960.98	0.249
961.15	0.249
961.32	0.250
961.49	0.249
961.66	0.250
961.83	0.251
962.00	0.250
962.17	0.251
962.34	0.251
962.52	0.251
962.69	0.252
962.86	0.252
963.03	0.252
963.20	0.253
963.37	0.252
963.54	0.253
963.71	0.253
963.88	0.253
964.05	0.254
964.22	0.255
964.39	0.254
964.56	0.254
964.74	0.255
964.91	0.255
965.08	0.256
965.25	0.256
965.42	0.257
965.59	0.258
965.76	0.257
965.93	0.258
966.10	0.257
966.27	0.257
966.44	0.257
966.61	0.259
966.78	0.258
966.95	0.257
967.12	0.258
967.29	0.260
967.46	0.259
967.63	0.258
967.80	0.260
967.97	0.259
968.14	0.259
968.32	0.260
968.49	0.260
968.66	0.259
968.83	0.260
969.00	0.259
969.17	0.259
969.34	0.260
969.51	0.261
969.68	0.260
969.85	0.260
970.02	0.260
970.19	0.260
970.36	0.260
970.53	0.261
970.70	0.260
970.87	0.260
971.04	0.259
971.21	0.260
971.38	0.259
971.55	0.260
971.72	0.260
971.89	0.261
972.06	0.260
972.23	0.260
972.40	0.260
972.57	0.259
972.74	0.259
972.91	0.261
973.07	0.260
973.24	0.260
973.41	0.260
973.58	0.259
973.75	0.271
973.92	0.259
974.09	0.259
974.26	0.259
974.43	0.259
974.60	0.260
974.77	0.261
974.94	0.260
975.11	0.261
975.28	0.262
975.45	0.260
975.62	0.261
975.79	0.263
975.96	0.261
976.13	0.260
976.30	0.262
976.47	0.260
976.64	0.260
976.80	0.260
976.97	0.260
977.14	0.259
977.31	0.259
977.48	0.260
977.65	0.260
977.82	0.259
977.99	0.260
978.16	0.260
978.33	0.259
978.50	0.258
978.67	0.258
978.83	0.259
979.00	0.259
979.17	0.259
979.34	0.258
979.51	0.257
979.68	0.258
979.85	0.258
980.02	0.258
980.19	0.257
980.36	0.258
980.52	0.259
980.69	0.257
980.86	0.258
981.03	0.258
981.20	0.256
981.37	0.257
981.54	0.257
981.71	0.256
981.88	0.257
982.04	0.256
982.21	0.255
982.38	0.257
982.55	0.255
982.72	0.254
982.89	0.255
983.06	0.253
983.22	0.253
983.39	0.254
983.56	0.253
983.73	0.252
983.90	0.252
984.07	0.253
984.24	0.252
984.40	0.252
984.57	0.250
984.74	0.253
984.91	0.254
985.08	0.251
985.25	0.249
985.41	0.250
985.58	0.250
985.75	0.251
985.92	0.249
986.09	0.248
986.26	0.247
986.42	0.247
986.59	0.246
986.76	0.247
986.93	0.247
987.10	0.247
987.27	0.245
987.43	0.243
987.60	0.245
987.77	0.245
987.94	0.244
988.11	0.245
988.27	0.245
988.44	0.244
988.61	0.243
988.78	0.242
988.95	0.242
989.11	0.244
989.28	0.242
989.45	0.241
989.62	0.241
989.79	0.242
989.95	0.241
990.12	0.243
990.29	0.242
990.46	0.240
990.62	0.239
990.79	0.240
990.96	0.240
991.13	0.240
991.30	0.239
991.46	0.238
991.63	0.236
991.80	0.235
991.97	0.235
992.13	0.235
992.30	0.236
992.47	0.236
992.64	0.236
992.80	0.236
992.97	0.236
993.14	0.234
993.31	0.232
993.47	0.234
993.64	0.232
993.81	0.231
993.98	0.232
994.14	0.230
994.31	0.229
994.48	0.229
994.64	0.229
994.81	0.228
994.98	0.228
995.15	0.226
995.31	0.226
995.48	0.226
995.65	0.228
995.82	0.225
995.98	0.225
996.15	0.226
996.32	0.228
996.48	0.227
996.65	0.227
996.82	0.224
996.99	0.225
997.15	0.224
997.32	0.225
997.49	0.223
997.65	0.224
997.82	0.224
997.99	0.222
998.15	0.223
998.32	0.224
998.49	0.222
998.65	0.223
998.82	0.222
998.99	0.220
999.15	0.220
999.32	0.220
999.49	0.220
999.65	0.219
999.82	0.217
999.99	0.217
1000.15	0.217
1000.32	0.217
1000.49	0.217
1000.65	0.215
1000.82	0.215
1000.99	0.215
1001.15	0.215
1001.32	0.214
1001.49	0.215
1001.65	0.214
1001.82	0.216
1001.99	0.214
1002.15	0.213
1002.32	0.212
1002.49	0.213
1002.65	0.211
1002.82	0.209
1002.99	0.209
1003.15	0.212
1003.32	0.210
1003.48	0.210
1003.65	0.210
1003.82	0.208
1003.98	0.206
1004.15	0.206
1004.32	0.207
1004.48	0.207
1004.65	0.208
1004.81	0.205
1004.98	0.203
1005.15	0.204
1005.31	0.203
1005.48	0.202
1005.64	0.202
1005.81	0.205
1005.98	0.201
1006.14	0.201
1006.31	0.200
1006.47	0.199
1006.64	0.198
1006.81	0.198
1006.97	0.198
1007.14	0.197
1007.30	0.198
1007.47	0.198
1007.63	0.196
1007.80	0.194
1007.97	0.194
1008.13	0.195
1008.30	0.195
1008.46	0.195
1008.63	0.194
1008.79	0.194
1008.96	0.194
1009.13	0.195
1009.29	0.192
1009.46	0.192
1009.62	0.192
1009.79	0.191
1009.95	0.190
1010.12	0.190
1010.28	0.190
1010.45	0.189
1010.62	0.189
1010.78	0.188
1010.95	0.186
1011.11	0.188
1011.28	0.186
1011.44	0.189
1011.61	0.187
1011.77	0.187
1011.94	0.186
1012.10	0.186
1012.27	0.186
1012.43	0.187
1012.60	0.185
1012.76	0.186
1012.93	0.185
1013.10	0.184
1013.26	0.181
1013.43	0.182
1013.59	0.188
1013.76	0.182
1013.92	0.180
1014.09	0.179
1014.25	0.180
1014.42	0.181
1014.58	0.181
1014.75	0.183
1014.91	0.181
1015.08	0.183
1015.24	0.179
1015.41	0.180
1015.57	0.180
1015.73	0.179
1015.90	0.177
1016.06	0.179
1016.23	0.177
1016.39	0.177
1016.56	0.178
1016.72	0.177
1016.89	0.177
1017.05	0.179
1017.22	0.176
1017.38	0.176
1017.55	0.175
1017.71	0.176
1017.88	0.176
1018.04	0.177
1018.21	0.174
1018.37	0.173
1018.53	0.174
1018.70	0.173
1018.86	0.172
1019.03	0.174
1019.19	0.173
1019.36	0.173
1019.52	0.174
1019.69	0.174
1019.85	0.173
1020.01	0.173
1020.18	0.171
1020.34	0.171
1020.51	0.169
1020.67	0.170
1020.84	0.168
1021.00	0.168
1021.16	0.166
1021.33	0.166
1021.49	0.165
1021.66	0.165
1021.82	0.164
1021.98	0.164
1022.15	0.164
1022.31	0.163
1022.48	0.162
1022.64	0.163
1022.80	0.162
1022.97	0.161
1023.13	0.160
1023.30	0.160
1023.46	0.161
1023.62	0.158
1023.79	0.159
1023.95	0.160
1024.12	0.160
1024.28	0.159
1024.44	0.159
1024.61	0.158
1024.77	0.158
1024.93	0.158
1025.10	0.159
1025.26	0.156
1025.43	0.157
1025.59	0.153
1025.75	0.157
1025.92	0.155
1026.08	0.155
1026.24	0.155
1026.41	0.156
1026.57	0.154
1026.73	0.152
1026.90	0.155
1027.06	0.153
1027.23	0.155
1027.39	0.155
1027.55	0.156
1027.72	0.155
1027.88	0.154
1028.04	0.154
1028.21	0.155
1028.37	0.149
1028.53	0.153
1028.70	0.151
1028.86	0.149
1029.02	0.149
1029.19	0.150
1029.35	0.148
1029.51	0.148
1029.67	0.148
1029.84	0.149
1030.00	0.144
1030.16	0.145
1030.33	0.148
1030.49	0.145
1030.65	0.142
1030.82	0.157
1030.98	0.144
1031.14	0.144
1031.31	0.143
1031.47	0.141
1031.63	0.144
1031.79	0.143
1031.96	0.145
1032.12	0.145
1032.28	0.142
1032.45	0.147
1032.61	0.145
1032.77	0.144
1032.93	0.142
1033.10	0.143
1033.26	0.145
1033.42	0.144
1033.58	0.144
1033.75	0.145
1033.91	0.143
1034.07	0.147
1034.24	0.145
1034.40	0.143
1034.56	0.142
1034.72	0.143
1034.89	0.143
1035.05	0.141
1035.21	0.139
1035.37	0.137
1035.54	0.139
1035.70	0.137
1035.86	0.135
1036.02	0.137
1036.19	0.135
1036.35	0.134
1036.51	0.137
1036.67	0.135
1036.83	0.135
1037.00	0.134
1037.16	0.134
1037.32	0.135
1037.48	0.134
1037.65	0.139
1037.81	0.134
1037.97	0.134
1038.13	0.133
1038.29	0.132
1038.46	0.129
1038.62	0.134
1038.78	0.133
1038.94	0.130
1039.10	0.134
1039.27	0.131
1039.43	0.133
1039.59	0.133
1039.75	0.132
1039.91	0.132
1040.08	0.133
1040.24	0.135
1040.40	0.136
1040.56	0.134
1040.72	0.128
1040.89	0.131
1041.05	0.132
1041.21	0.130
1041.37	0.127
1041.53	0.134
1041.69	0.131
1041.86	0.130
1042.02	0.126
1042.18	0.125
1042.34	0.125
1042.50	0.130
1042.66	0.125
1042.83	0.125
1042.99	0.128
1043.15	0.125
1043.31	0.125
1043.47	0.129
1043.63	0.126
1043.79	0.127
1043.96	0.127
1044.12	0.131
1044.28	0.127
1044.44	0.129
1044.60	0.124
1044.76	0.122
1044.92	0.124
1045.09	0.125
1045.25	0.122
1045.41	0.122
1045.57	0.118
1045.73	0.118
1045.89	0.121
1046.05	0.122
1046.21	0.125
1046.38	0.130
1046.54	0.117
1046.70	0.135
1046.86	0.117
>>>>>End Processed Spectral Data<<<<<
