SpectraSuite Data File
++++++++++++++++++++++++++++++++++++
Date: Mon May 20 12:11:48 CDT 2013
User: Students
Dark Spectrum Present: Yes
Reference Spectrum Present: Yes
Number of Sampled Component Spectra: 1
Spectrometers: USB4H00887
Integration Time (usec): 60000 (USB4H00887)
Spectra Averaged: 5 (USB4H00887)
Boxcar Smoothing: 5 (USB4H00887)
Correct for Electrical Dark: No (USB4H00887)
Strobe/Lamp Enabled: No (USB4H00887)
Correct for Detector Non-linearity: No (USB4H00887)
Correct for Stray Light: No (USB4H00887)
Number of Pixels in Processed Spectrum: 3648
>>>>>Begin Processed Spectral Data<<<<<
345.83	0.119
346.05	0.119
346.26	0.119
346.48	-0.000
346.70	14.075
346.92	-0.012
347.14	0.011
347.35	0.026
347.57	0.194
347.79	-0.185
348.01	-0.142
348.23	-0.149
348.44	-0.000
348.66	0.099
348.88	-0.203
349.10	-0.031
349.32	0.002
349.53	0.028
349.75	0.038
349.97	0.015
350.19	0.076
350.41	0.049
350.62	-0.078
350.84	-0.022
351.06	-0.030
351.28	-0.054
351.50	-0.197
351.71	-0.152
351.93	-0.125
352.15	-0.024
352.37	-0.060
352.58	-0.017
352.80	0.003
353.02	0.032
353.24	0.059
353.46	0.419
353.67	-0.149
353.89	0.047
354.11	0.041
354.33	0.041
354.54	0.110
354.76	0.188
354.98	0.318
355.20	0.235
355.41	0.085
355.63	0.184
355.85	0.091
356.07	-0.000
356.28	0.084
356.50	0.128
356.72	0.051
356.94	0.085
357.15	0.128
357.37	-0.000
357.59	0.081
357.81	0.049
358.02	0.078
358.24	0.044
358.46	0.087
358.68	0.089
358.89	0.047
359.11	-0.000
359.33	0.048
359.55	-0.421
359.76	0.061
359.98	0.052
360.20	0.069
360.42	0.071
360.63	0.081
360.85	0.042
361.07	0.198
361.29	0.058
361.50	0.167
361.72	0.072
361.94	0.311
362.15	0.163
362.37	0.104
362.59	0.116
362.81	0.181
363.02	0.294
363.24	0.647
363.46	0.298
363.68	0.365
363.89	0.228
364.11	0.305
364.33	0.334
364.54	0.198
364.76	0.238
364.98	0.221
365.20	0.274
365.41	0.165
365.63	0.161
365.85	0.115
366.06	0.352
366.28	0.386
366.50	0.227
366.71	0.092
366.93	0.115
367.15	0.094
367.37	0.084
367.58	0.101
367.80	0.117
368.02	0.310
368.23	0.112
368.45	0.118
368.67	0.082
368.88	0.075
369.10	-0.000
369.32	0.096
369.53	0.060
369.75	0.112
369.97	0.267
370.19	0.162
370.40	0.071
370.62	0.188
370.84	0.082
371.05	0.539
371.27	0.170
371.49	0.163
371.70	0.201
371.92	0.309
372.14	0.115
372.35	0.127
372.57	0.160
372.79	0.451
373.00	0.103
373.22	0.158
373.44	0.145
373.65	0.100
373.87	0.156
374.09	0.603
374.30	0.136
374.52	0.161
374.74	0.109
374.95	0.350
375.17	0.112
375.39	-0.000
375.60	0.139
375.82	0.240
376.04	0.119
376.25	0.124
376.47	0.077
376.68	0.176
376.90	0.093
377.12	0.181
377.33	0.121
377.55	0.288
377.77	0.155
377.98	0.209
378.20	0.121
378.42	0.142
378.63	0.179
378.85	-0.000
379.07	0.132
379.28	0.462
379.50	0.310
379.71	0.161
379.93	0.109
380.15	0.139
380.36	0.213
380.58	0.166
380.80	0.504
381.01	0.167
381.23	0.133
381.44	0.146
381.66	0.190
381.88	0.246
382.09	-0.104
382.31	0.168
382.53	0.172
382.74	-0.000
382.96	0.248
383.17	0.196
383.39	0.265
383.61	0.369
383.82	0.233
384.04	0.255
384.25	0.284
384.47	0.252
384.69	0.243
384.90	0.236
385.12	0.543
385.33	0.338
385.55	0.259
385.77	0.391
385.98	0.190
386.20	0.252
386.41	0.231
386.63	0.276
386.85	0.218
387.06	0.281
387.28	0.415
387.49	0.250
387.71	0.184
387.93	0.154
388.14	0.491
388.36	0.207
388.57	0.197
388.79	0.214
389.01	1.650
389.22	0.283
389.44	0.246
389.65	0.208
389.87	0.205
390.08	0.240
390.30	0.187
390.52	0.333
390.73	0.339
390.95	0.250
391.16	0.248
391.38	-0.000
391.59	0.267
391.81	0.218
392.03	0.197
392.24	0.233
392.46	0.197
392.67	0.183
392.89	0.277
393.10	0.423
393.32	0.272
393.53	0.290
393.75	0.195
393.97	0.227
394.18	0.313
394.40	0.275
394.61	0.285
394.83	0.245
395.04	0.287
395.26	0.187
395.47	0.288
395.69	0.245
395.91	0.278
396.12	0.341
396.34	0.336
396.55	0.219
396.77	0.331
396.98	-0.000
397.20	0.393
397.41	0.437
397.63	0.296
397.84	0.266
398.06	0.254
398.27	0.259
398.49	0.289
398.71	0.216
398.92	0.260
399.14	0.335
399.35	0.424
399.57	0.418
399.78	0.286
400.00	0.287
400.21	0.366
400.43	0.295
400.64	0.315
400.86	0.762
401.07	0.397
401.29	0.347
401.50	0.373
401.72	0.548
401.93	0.330
402.15	0.408
402.36	0.362
402.58	0.291
402.79	0.318
403.01	0.527
403.22	0.400
403.44	0.268
403.65	0.426
403.87	0.460
404.08	0.360
404.30	0.624
404.51	0.330
404.73	0.404
404.94	0.351
405.16	0.362
405.37	0.284
405.59	0.521
405.80	0.318
406.02	0.395
406.23	0.415
406.45	0.466
406.66	0.485
406.88	0.312
407.09	0.478
407.31	0.383
407.52	0.474
407.74	0.375
407.95	0.461
408.17	0.435
408.38	0.441
408.60	0.282
408.81	0.477
409.03	0.358
409.24	0.369
409.45	0.431
409.67	0.396
409.88	0.354
410.10	0.466
410.31	0.380
410.53	0.362
410.74	0.521
410.96	0.518
411.17	0.544
411.39	0.418
411.60	0.373
411.82	0.438
412.03	0.440
412.24	0.419
412.46	0.602
412.67	0.497
412.89	0.489
413.10	0.492
413.32	0.445
413.53	0.516
413.75	0.536
413.96	0.408
414.17	0.540
414.39	0.541
414.60	0.441
414.82	0.604
415.03	0.455
415.25	0.506
415.46	0.346
415.68	0.479
415.89	0.932
416.10	0.720
416.32	0.378
416.53	0.451
416.75	0.437
416.96	0.541
417.18	0.454
417.39	0.434
417.60	0.440
417.82	0.662
418.03	0.574
418.25	0.471
418.46	0.485
418.67	0.458
418.89	0.497
419.10	0.503
419.32	0.686
419.53	0.623
419.75	0.519
419.96	0.460
420.17	0.559
420.39	0.528
420.60	0.550
420.82	0.711
421.03	0.546
421.24	0.454
421.46	0.506
421.67	0.553
421.89	0.483
422.10	0.532
422.31	0.518
422.53	0.771
422.74	0.551
422.96	0.438
423.17	0.483
423.38	0.609
423.60	0.508
423.81	0.646
424.03	0.545
424.24	0.595
424.45	0.586
424.67	0.595
424.88	0.519
425.09	0.568
425.31	0.518
425.52	0.551
425.74	0.617
425.95	0.674
426.16	0.511
426.38	0.599
426.59	0.552
426.80	0.640
427.02	0.661
427.23	0.519
427.45	0.686
427.66	0.665
427.87	0.511
428.09	0.538
428.30	0.596
428.51	0.594
428.73	0.651
428.94	0.574
429.15	0.551
429.37	0.524
429.58	0.552
429.79	0.506
430.01	0.611
430.22	0.601
430.44	0.620
430.65	0.553
430.86	0.596
431.08	0.574
431.29	0.527
431.50	0.628
431.72	0.852
431.93	0.688
432.14	0.509
432.36	0.561
432.57	0.575
432.78	0.601
433.00	0.556
433.21	0.547
433.42	0.692
433.64	0.598
433.85	0.683
434.06	0.551
434.28	0.581
434.49	0.608
434.70	0.616
434.92	0.629
435.13	0.682
435.34	0.693
435.56	0.654
435.77	0.643
435.98	0.844
436.20	0.687
436.41	0.591
436.62	0.577
436.83	0.657
437.05	0.747
437.26	0.657
437.47	0.582
437.69	0.636
437.90	0.581
438.11	0.581
438.33	0.642
438.54	0.666
438.75	0.858
438.97	0.826
439.18	0.611
439.39	0.644
439.60	0.688
439.82	0.646
440.03	0.595
440.24	0.885
440.46	0.648
440.67	0.623
440.88	0.676
441.10	0.632
441.31	0.636
441.52	0.694
441.73	0.783
441.95	0.698
442.16	0.638
442.37	1.053
442.58	0.619
442.80	0.607
443.01	0.790
443.22	0.709
443.44	0.598
443.65	0.718
443.86	0.717
444.07	0.769
444.29	0.652
444.50	0.833
444.71	0.635
444.92	0.597
445.14	0.760
445.35	0.807
445.56	0.636
445.78	0.758
445.99	0.754
446.20	0.643
446.41	0.730
446.63	0.737
446.84	0.697
447.05	0.691
447.26	0.841
447.48	0.716
447.69	0.678
447.90	0.781
448.11	0.685
448.33	0.711
448.54	0.731
448.75	0.761
448.96	0.770
449.18	0.818
449.39	0.725
449.60	0.708
449.81	0.849
450.03	0.727
450.24	0.792
450.45	0.748
450.66	0.735
450.87	0.767
451.09	0.712
451.30	0.693
451.51	0.775
451.72	0.787
451.94	0.805
452.15	0.884
452.36	0.736
452.57	0.755
452.78	0.757
453.00	0.784
453.21	0.737
453.42	0.708
453.63	0.817
453.85	0.769
454.06	0.764
454.27	0.908
454.48	0.805
454.69	0.716
454.91	0.788
455.12	0.681
455.33	0.762
455.54	0.790
455.75	0.761
455.97	0.795
456.18	0.783
456.39	0.788
456.60	0.818
456.81	0.750
457.03	0.770
457.24	0.774
457.45	0.879
457.66	0.823
457.87	0.764
458.09	0.786
458.30	0.686
458.51	0.826
458.72	0.844
458.93	0.852
459.15	0.744
459.36	0.812
459.57	0.835
459.78	0.887
459.99	0.782
460.20	0.746
460.42	0.834
460.63	0.786
460.84	0.766
461.05	0.791
461.26	0.859
461.47	0.770
461.69	0.820
461.90	0.856
462.11	0.808
462.32	0.872
462.53	0.802
462.74	0.901
462.96	0.775
463.17	0.768
463.38	0.810
463.59	0.925
463.80	0.767
464.01	0.788
464.23	0.875
464.44	0.831
464.65	0.838
464.86	0.862
465.07	0.871
465.28	0.832
465.49	0.855
465.71	0.808
465.92	0.850
466.13	0.901
466.34	0.837
466.55	0.896
466.76	0.860
466.97	0.890
467.19	0.876
467.40	0.914
467.61	0.919
467.82	0.828
468.03	0.810
468.24	0.884
468.45	0.922
468.66	0.903
468.88	0.915
469.09	0.916
469.30	0.962
469.51	0.886
469.72	0.934
469.93	0.902
470.14	0.878
470.35	0.982
470.57	0.931
470.78	0.861
470.99	1.007
471.20	0.936
471.41	0.884
471.62	0.948
471.83	0.914
472.04	0.953
472.25	1.003
472.47	0.911
472.68	0.915
472.89	0.917
473.10	0.964
473.31	0.910
473.52	0.975
473.73	1.002
473.94	0.908
474.15	0.938
474.36	0.933
474.57	0.961
474.79	0.929
475.00	0.930
475.21	0.912
475.42	1.014
475.63	0.902
475.84	0.933
476.05	0.939
476.26	0.907
476.47	0.938
476.68	0.990
476.89	0.913
477.10	0.968
477.32	0.952
477.53	1.012
477.74	0.923
477.95	0.969
478.16	0.917
478.37	0.965
478.58	0.969
478.79	0.986
479.00	0.988
479.21	0.945
479.42	0.982
479.63	0.986
479.84	0.947
480.05	0.948
480.26	0.979
480.47	0.998
480.69	0.999
480.90	0.962
481.11	0.959
481.32	1.022
481.53	0.952
481.74	1.008
481.95	0.973
482.16	0.992
482.37	1.000
482.58	0.963
482.79	0.984
483.00	1.018
483.21	0.956
483.42	0.929
483.63	1.012
483.84	1.041
484.05	1.037
484.26	1.006
484.47	1.000
484.68	0.959
484.89	0.968
485.10	1.023
485.31	0.996
485.52	1.004
485.73	1.005
485.94	1.048
486.15	0.992
486.37	1.011
486.58	0.970
486.79	0.986
487.00	1.042
487.21	1.030
487.42	1.021
487.63	1.025
487.84	1.044
488.05	1.039
488.26	0.995
488.47	1.001
488.68	1.030
488.89	1.005
489.10	0.999
489.31	1.010
489.52	1.047
489.73	1.012
489.94	1.054
490.15	1.008
490.36	1.053
490.57	1.002
490.78	0.983
490.99	1.023
491.20	1.114
491.41	1.062
491.62	0.999
491.83	1.029
492.04	1.024
492.25	1.030
492.45	1.033
492.66	1.058
492.87	1.045
493.08	1.034
493.29	1.014
493.50	1.004
493.71	1.010
493.92	1.004
494.13	1.020
494.34	1.045
494.55	1.054
494.76	1.087
494.97	1.075
495.18	1.039
495.39	1.055
495.60	1.006
495.81	1.004
496.02	1.030
496.23	1.026
496.44	1.063
496.65	1.051
496.86	1.058
497.07	1.084
497.28	1.082
497.49	1.024
497.70	1.024
497.91	1.047
498.12	1.027
498.32	1.073
498.53	1.052
498.74	1.042
498.95	1.069
499.16	1.021
499.37	1.027
499.58	1.037
499.79	1.069
500.00	1.064
500.21	1.091
500.42	1.032
500.63	1.030
500.84	1.052
501.05	1.026
501.26	1.055
501.46	1.096
501.67	1.053
501.88	1.057
502.09	1.031
502.30	1.039
502.51	1.097
502.72	1.048
502.93	1.069
503.14	1.094
503.35	1.065
503.56	1.057
503.77	1.094
503.97	1.066
504.18	1.063
504.39	1.101
504.60	1.069
504.81	1.096
505.02	1.083
505.23	1.079
505.44	1.058
505.65	1.064
505.86	1.046
506.07	1.115
506.27	1.072
506.48	1.078
506.69	1.062
506.90	1.082
507.11	1.079
507.32	1.056
507.53	1.067
507.74	1.060
507.95	1.075
508.15	1.083
508.36	1.090
508.57	1.104
508.78	1.087
508.99	1.086
509.20	1.060
509.41	1.088
509.62	1.071
509.82	1.069
510.03	1.080
510.24	1.080
510.45	1.102
510.66	1.092
510.87	1.088
511.08	1.041
511.29	1.085
511.49	1.057
511.70	1.111
511.91	1.043
512.12	1.039
512.33	1.076
512.54	1.093
512.75	1.074
512.95	1.101
513.16	1.089
513.37	1.064
513.58	1.106
513.79	1.067
514.00	1.070
514.20	1.087
514.41	1.075
514.62	1.038
514.83	1.083
515.04	1.073
515.25	1.052
515.46	1.066
515.66	1.070
515.87	1.085
516.08	1.051
516.29	1.082
516.50	1.061
516.71	1.054
516.91	1.065
517.12	1.083
517.33	1.067
517.54	1.052
517.75	1.055
517.95	1.069
518.16	1.078
518.37	1.042
518.58	1.047
518.79	1.018
519.00	1.050
519.20	1.063
519.41	1.035
519.62	1.057
519.83	1.066
520.04	1.027
520.24	1.024
520.45	1.035
520.66	1.061
520.87	1.019
521.08	1.016
521.28	1.024
521.49	1.041
521.70	1.009
521.91	1.023
522.12	1.004
522.32	1.028
522.53	1.007
522.74	0.997
522.95	1.009
523.16	1.008
523.36	1.021
523.57	1.000
523.78	0.991
523.99	0.998
524.20	0.991
524.40	1.003
524.61	1.009
524.82	0.984
525.03	0.989
525.23	0.989
525.44	0.975
525.65	0.973
525.86	0.998
526.06	0.967
526.27	0.965
526.48	0.976
526.69	0.956
526.90	0.962
527.10	0.999
527.31	0.949
527.52	0.942
527.73	0.932
527.93	0.943
528.14	0.950
528.35	0.940
528.56	0.941
528.76	0.934
528.97	0.925
529.18	0.915
529.39	0.915
529.59	0.917
529.80	0.951
530.01	0.923
530.22	0.920
530.42	0.886
530.63	0.905
530.84	0.883
531.05	0.898
531.25	0.900
531.46	0.893
531.67	0.871
531.88	0.892
532.08	0.885
532.29	0.879
532.50	0.871
532.70	0.864
532.91	0.854
533.12	0.857
533.33	0.882
533.53	0.851
533.74	0.850
533.95	0.855
534.15	0.842
534.36	0.843
534.57	0.824
534.78	0.828
534.98	0.839
535.19	0.807
535.40	0.808
535.60	0.827
535.81	0.806
536.02	0.810
536.23	0.800
536.43	0.803
536.64	0.790
536.85	0.799
537.05	0.807
537.26	0.783
537.47	0.786
537.67	0.776
537.88	0.771
538.09	0.779
538.30	0.767
538.50	0.760
538.71	0.771
538.92	0.755
539.12	0.751
539.33	0.746
539.54	0.747
539.74	0.750
539.95	0.740
540.16	0.738
540.36	0.728
540.57	0.728
540.78	0.720
540.98	0.719
541.19	0.719
541.40	0.706
541.60	0.718
541.81	0.712
542.02	0.713
542.22	0.702
542.43	0.697
542.64	0.691
542.84	0.690
543.05	0.680
543.26	0.681
543.46	0.683
543.67	0.682
543.88	0.677
544.08	0.665
544.29	0.659
544.50	0.660
544.70	0.660
544.91	0.652
545.12	0.653
545.32	0.648
545.53	0.652
545.74	0.640
545.94	0.637
546.15	0.634
546.35	0.631
546.56	0.628
546.77	0.624
546.97	0.622
547.18	0.613
547.39	0.614
547.59	0.611
547.80	0.606
548.01	0.611
548.21	0.606
548.42	0.597
548.62	0.596
548.83	0.593
549.04	0.588
549.24	0.580
549.45	0.579
549.65	0.576
549.86	0.571
550.07	0.570
550.27	0.568
550.48	0.576
550.69	0.562
550.89	0.561
551.10	0.557
551.30	0.556
551.51	0.555
551.72	0.545
551.92	0.546
552.13	0.546
552.33	0.547
552.54	0.541
552.75	0.534
552.95	0.534
553.16	0.530
553.36	0.527
553.57	0.525
553.78	0.523
553.98	0.524
554.19	0.514
554.39	0.510
554.60	0.513
554.80	0.513
555.01	0.505
555.22	0.507
555.42	0.503
555.63	0.497
555.83	0.500
556.04	0.494
556.25	0.496
556.45	0.488
556.66	0.486
556.86	0.489
557.07	0.486
557.27	0.485
557.48	0.479
557.68	0.477
557.89	0.479
558.10	0.475
558.30	0.472
558.51	0.470
558.71	0.468
558.92	0.463
559.12	0.464
559.33	0.468
559.54	0.462
559.74	0.457
559.95	0.455
560.15	0.454
560.36	0.452
560.56	0.446
560.77	0.446
560.97	0.445
561.18	0.440
561.38	0.439
561.59	0.441
561.79	0.437
562.00	0.435
562.21	0.431
562.41	0.430
562.62	0.429
562.82	0.426
563.03	0.423
563.23	0.422
563.44	0.421
563.64	0.419
563.85	0.420
564.05	0.412
564.26	0.412
564.46	0.412
564.67	0.412
564.87	0.407
565.08	0.404
565.28	0.404
565.49	0.405
565.69	0.402
565.90	0.398
566.10	0.400
566.31	0.394
566.51	0.395
566.72	0.395
566.92	0.389
567.13	0.389
567.33	0.388
567.54	0.386
567.74	0.384
567.95	0.380
568.15	0.382
568.36	0.382
568.56	0.380
568.77	0.376
568.97	0.374
569.18	0.374
569.38	0.372
569.59	0.373
569.79	0.371
570.00	0.368
570.20	0.367
570.41	0.365
570.61	0.363
570.82	0.364
571.02	0.360
571.23	0.362
571.43	0.358
571.64	0.356
571.84	0.355
572.05	0.353
572.25	0.353
572.45	0.351
572.66	0.348
572.86	0.347
573.07	0.345
573.27	0.345
573.48	0.344
573.68	0.340
573.89	0.339
574.09	0.341
574.30	0.339
574.50	0.337
574.70	0.338
574.91	0.336
575.11	0.336
575.32	0.335
575.52	0.331
575.73	0.331
575.93	0.331
576.14	0.330
576.34	0.327
576.54	0.326
576.75	0.324
576.95	0.323
577.16	0.321
577.36	0.320
577.57	0.320
577.77	0.318
577.97	0.316
578.18	0.317
578.38	0.314
578.59	0.312
578.79	0.310
579.00	0.311
579.20	0.309
579.40	0.308
579.61	0.307
579.81	0.306
580.02	0.304
580.22	0.303
580.42	0.302
580.63	0.302
580.83	0.301
581.04	0.299
581.24	0.298
581.45	0.297
581.65	0.296
581.85	0.295
582.06	0.293
582.26	0.294
582.47	0.292
582.67	0.291
582.87	0.290
583.08	0.287
583.28	0.287
583.48	0.286
583.69	0.283
583.89	0.283
584.10	0.284
584.30	0.281
584.50	0.279
584.71	0.279
584.91	0.278
585.12	0.276
585.32	0.277
585.52	0.275
585.73	0.273
585.93	0.273
586.13	0.272
586.34	0.271
586.54	0.270
586.75	0.269
586.95	0.268
587.15	0.267
587.36	0.266
587.56	0.265
587.76	0.264
587.97	0.264
588.17	0.262
588.37	0.263
588.58	0.263
588.78	0.260
588.98	0.260
589.19	0.259
589.39	0.257
589.60	0.259
589.80	0.256
590.00	0.255
590.21	0.255
590.41	0.253
590.61	0.252
590.82	0.252
591.02	0.251
591.22	0.250
591.43	0.251
591.63	0.249
591.83	0.248
592.04	0.247
592.24	0.248
592.44	0.245
592.65	0.244
592.85	0.244
593.05	0.244
593.26	0.243
593.46	0.242
593.66	0.241
593.86	0.241
594.07	0.239
594.27	0.239
594.47	0.238
594.68	0.237
594.88	0.237
595.08	0.236
595.29	0.237
595.49	0.234
595.69	0.234
595.90	0.234
596.10	0.234
596.30	0.233
596.50	0.232
596.71	0.231
596.91	0.231
597.11	0.230
597.32	0.230
597.52	0.229
597.72	0.229
597.93	0.228
598.13	0.226
598.33	0.226
598.53	0.225
598.74	0.225
598.94	0.224
599.14	0.224
599.35	0.224
599.55	0.223
599.75	0.222
599.95	0.221
600.16	0.222
600.36	0.220
600.56	0.220
600.76	0.219
600.97	0.217
601.17	0.216
601.37	0.216
601.58	0.215
601.78	0.215
601.98	0.214
602.18	0.213
602.39	0.213
602.59	0.213
602.79	0.212
602.99	0.212
603.20	0.211
603.40	0.211
603.60	0.210
603.80	0.210
604.01	0.210
604.21	0.209
604.41	0.208
604.61	0.208
604.82	0.207
605.02	0.207
605.22	0.207
605.42	0.206
605.62	0.206
605.83	0.205
606.03	0.204
606.23	0.204
606.43	0.204
606.64	0.204
606.84	0.203
607.04	0.202
607.24	0.202
607.45	0.202
607.65	0.201
607.85	0.201
608.05	0.199
608.25	0.199
608.46	0.198
608.66	0.199
608.86	0.198
609.06	0.197
609.26	0.196
609.47	0.197
609.67	0.195
609.87	0.196
610.07	0.195
610.28	0.194
610.48	0.194
610.68	0.194
610.88	0.193
611.08	0.193
611.29	0.192
611.49	0.192
611.69	0.193
611.89	0.191
612.09	0.191
612.29	0.190
612.50	0.190
612.70	0.190
612.90	0.189
613.10	0.188
613.30	0.188
613.51	0.188
613.71	0.187
613.91	0.191
614.11	0.186
614.31	0.186
614.51	0.185
614.72	0.184
614.92	0.183
615.12	0.183
615.32	0.184
615.52	0.183
615.72	0.184
615.93	0.183
616.13	0.182
616.33	0.182
616.53	0.182
616.73	0.182
616.93	0.181
617.14	0.182
617.34	0.181
617.54	0.182
617.74	0.181
617.94	0.180
618.14	0.180
618.34	0.179
618.55	0.179
618.75	0.179
618.95	0.179
619.15	0.179
619.35	0.178
619.55	0.178
619.75	0.178
619.96	0.177
620.16	0.177
620.36	0.177
620.56	0.177
620.76	0.176
620.96	0.176
621.16	0.176
621.36	0.176
621.57	0.175
621.77	0.175
621.97	0.174
622.17	0.174
622.37	0.174
622.57	0.174
622.77	0.173
622.97	0.172
623.18	0.172
623.38	0.173
623.58	0.172
623.78	0.172
623.98	0.171
624.18	0.170
624.38	0.170
624.58	0.170
624.78	0.170
624.98	0.170
625.19	0.170
625.39	0.170
625.59	0.169
625.79	0.169
625.99	0.169
626.19	0.169
626.39	0.168
626.59	0.168
626.79	0.168
626.99	0.168
627.19	0.168
627.40	0.168
627.60	0.167
627.80	0.167
628.00	0.167
628.20	0.166
628.40	0.166
628.60	0.166
628.80	0.165
629.00	0.166
629.20	0.165
629.40	0.165
629.60	0.164
629.80	0.164
630.00	0.164
630.20	0.164
630.41	0.163
630.61	0.163
630.81	0.163
631.01	0.163
631.21	0.162
631.41	0.162
631.61	0.162
631.81	0.161
632.01	0.161
632.21	0.161
632.41	0.160
632.61	0.160
632.81	0.160
633.01	0.161
633.21	0.160
633.41	0.161
633.61	0.160
633.81	0.160
634.01	0.159
634.21	0.159
634.41	0.159
634.61	0.160
634.81	0.159
635.01	0.158
635.22	0.158
635.42	0.158
635.62	0.158
635.82	0.158
636.02	0.157
636.22	0.157
636.42	0.157
636.62	0.157
636.82	0.157
637.02	0.156
637.22	0.156
637.42	0.156
637.62	0.154
637.82	0.155
638.02	0.154
638.22	0.154
638.42	0.153
638.62	0.153
638.82	0.153
639.02	0.152
639.22	0.152
639.42	0.152
639.62	0.151
639.82	0.151
640.02	0.151
640.22	0.151
640.42	0.151
640.62	0.151
640.82	0.150
641.02	0.150
641.22	0.151
641.42	0.150
641.61	0.150
641.81	0.151
642.01	0.151
642.21	0.151
642.41	0.151
642.61	0.150
642.81	0.150
643.01	0.150
643.21	0.150
643.41	0.150
643.61	0.150
643.81	0.149
644.01	0.148
644.21	0.147
644.41	0.147
644.61	0.147
644.81	0.147
645.01	0.147
645.21	0.146
645.41	0.146
645.61	0.146
645.81	0.145
646.01	0.145
646.21	0.146
646.40	0.145
646.60	0.145
646.80	0.146
647.00	0.145
647.20	0.144
647.40	0.144
647.60	0.144
647.80	0.144
648.00	0.144
648.20	0.143
648.40	0.143
648.60	0.143
648.80	0.143
649.00	0.143
649.20	0.143
649.39	0.142
649.59	0.142
649.79	0.141
649.99	0.141
650.19	0.141
650.39	0.141
650.59	0.141
650.79	0.140
650.99	0.140
651.19	0.139
651.39	0.140
651.58	0.139
651.78	0.139
651.98	0.139
652.18	0.139
652.38	0.139
652.58	0.138
652.78	0.138
652.98	0.137
653.18	0.138
653.38	0.137
653.57	0.137
653.77	0.137
653.97	0.137
654.17	0.137
654.37	0.136
654.57	0.137
654.77	0.137
654.97	0.137
655.16	0.136
655.36	0.136
655.56	0.136
655.76	0.135
655.96	0.136
656.16	0.135
656.36	0.135
656.56	0.134
656.75	0.134
656.95	0.133
657.15	0.133
657.35	0.133
657.55	0.133
657.75	0.133
657.95	0.133
658.14	0.132
658.34	0.132
658.54	0.132
658.74	0.132
658.94	0.132
659.14	0.132
659.34	0.132
659.53	0.131
659.73	0.131
659.93	0.130
660.13	0.130
660.33	0.130
660.53	0.130
660.72	0.130
660.92	0.130
661.12	0.129
661.32	0.129
661.52	0.129
661.72	0.128
661.91	0.128
662.11	0.128
662.31	0.128
662.51	0.128
662.71	0.128
662.90	0.127
663.10	0.127
663.30	0.127
663.50	0.127
663.70	0.126
663.90	0.126
664.09	0.126
664.29	0.126
664.49	0.125
664.69	0.126
664.89	0.125
665.08	0.125
665.28	0.125
665.48	0.125
665.68	0.124
665.88	0.123
666.07	0.123
666.27	0.123
666.47	0.123
666.67	0.123
666.87	0.123
667.06	0.122
667.26	0.122
667.46	0.122
667.66	0.122
667.85	0.123
668.05	0.123
668.25	0.123
668.45	0.122
668.65	0.122
668.84	0.122
669.04	0.122
669.24	0.121
669.44	0.121
669.63	0.120
669.83	0.120
670.03	0.119
670.23	0.119
670.42	0.119
670.62	0.118
670.82	0.118
671.02	0.118
671.22	0.118
671.41	0.117
671.61	0.118
671.81	0.118
672.01	0.118
672.20	0.117
672.40	0.117
672.60	0.117
672.80	0.117
672.99	0.117
673.19	0.116
673.39	0.116
673.58	0.116
673.78	0.116
673.98	0.115
674.18	0.115
674.37	0.115
674.57	0.115
674.77	0.115
674.97	0.115
675.16	0.115
675.36	0.115
675.56	0.114
675.75	0.114
675.95	0.114
676.15	0.114
676.35	0.113
676.54	0.113
676.74	0.112
676.94	0.113
677.13	0.112
677.33	0.112
677.53	0.112
677.73	0.112
677.92	0.111
678.12	0.111
678.32	0.110
678.51	0.110
678.71	0.110
678.91	0.110
679.11	0.110
679.30	0.110
679.50	0.110
679.70	0.109
679.89	0.109
680.09	0.109
680.29	0.109
680.48	0.109
680.68	0.108
680.88	0.109
681.07	0.109
681.27	0.108
681.47	0.108
681.66	0.108
681.86	0.107
682.06	0.108
682.25	0.107
682.45	0.107
682.65	0.107
682.84	0.107
683.04	0.107
683.24	0.107
683.43	0.107
683.63	0.107
683.83	0.107
684.02	0.107
684.22	0.107
684.42	0.106
684.61	0.106
684.81	0.106
685.01	0.106
685.20	0.105
685.40	0.105
685.60	0.105
685.79	0.105
685.99	0.105
686.19	0.105
686.38	0.105
686.58	0.105
686.77	0.105
686.97	0.104
687.17	0.104
687.36	0.104
687.56	0.104
687.76	0.103
687.95	0.103
688.15	0.103
688.34	0.103
688.54	0.102
688.74	0.102
688.93	0.102
689.13	0.102
689.33	0.102
689.52	0.101
689.72	0.101
689.91	0.101
690.11	0.100
690.31	0.100
690.50	0.100
690.70	0.100
690.89	0.100
691.09	0.100
691.29	0.100
691.48	0.099
691.68	0.099
691.87	0.099
692.07	0.099
692.27	0.099
692.46	0.099
692.66	0.099
692.85	0.098
693.05	0.098
693.25	0.099
693.44	0.098
693.64	0.098
693.83	0.098
694.03	0.098
694.22	0.097
694.42	0.097
694.62	0.097
694.81	0.098
695.01	0.098
695.20	0.098
695.40	0.097
695.59	0.097
695.79	0.097
695.99	0.097
696.18	0.097
696.38	0.097
696.57	0.096
696.77	0.096
696.96	0.096
697.16	0.096
697.36	0.096
697.55	0.096
697.75	0.096
697.94	0.096
698.14	0.096
698.33	0.095
698.53	0.095
698.72	0.095
698.92	0.095
699.11	0.095
699.31	0.095
699.51	0.095
699.70	0.094
699.90	0.094
700.09	0.094
700.29	0.094
700.48	0.094
700.68	0.094
700.87	0.094
701.07	0.093
701.26	0.093
701.46	0.093
701.65	0.093
701.85	0.093
702.04	0.093
702.24	0.093
702.43	0.093
702.63	0.093
702.82	0.092
703.02	0.092
703.21	0.092
703.41	0.092
703.60	0.092
703.80	0.092
703.99	0.091
704.19	0.092
704.38	0.091
704.58	0.090
704.77	0.090
704.97	0.090
705.16	0.090
705.36	0.090
705.55	0.090
705.75	0.090
705.94	0.090
706.14	0.091
706.33	0.090
706.53	0.091
706.72	0.091
706.92	0.090
707.11	0.090
707.31	0.089
707.50	0.089
707.70	0.090
707.89	0.089
708.09	0.089
708.28	0.089
708.48	0.089
708.67	0.088
708.86	0.089
709.06	0.089
709.25	0.089
709.45	0.089
709.64	0.089
709.84	0.089
710.03	0.089
710.23	0.088
710.42	0.088
710.62	0.088
710.81	0.088
711.00	0.088
711.20	0.088
711.39	0.087
711.59	0.087
711.78	0.087
711.98	0.087
712.17	0.088
712.37	0.088
712.56	0.088
712.75	0.088
712.95	0.088
713.14	0.088
713.34	0.088
713.53	0.088
713.73	0.088
713.92	0.088
714.11	0.088
714.31	0.088
714.50	0.088
714.70	0.088
714.89	0.088
715.08	0.088
715.28	0.088
715.47	0.087
715.67	0.087
715.86	0.087
716.06	0.087
716.25	0.086
716.44	0.086
716.64	0.086
716.83	0.086
717.03	0.086
717.22	0.085
717.41	0.085
717.61	0.085
717.80	0.086
717.99	0.085
718.19	0.085
718.38	0.085
718.58	0.085
718.77	0.085
718.96	0.085
719.16	0.085
719.35	0.085
719.55	0.085
719.74	0.085
719.93	0.084
720.13	0.084
720.32	0.084
720.51	0.084
720.71	0.084
720.90	0.084
721.10	0.084
721.29	0.084
721.48	0.084
721.68	0.084
721.87	0.084
722.06	0.084
722.26	0.084
722.45	0.084
722.64	0.084
722.84	0.083
723.03	0.083
723.22	0.084
723.42	0.084
723.61	0.084
723.80	0.084
724.00	0.084
724.19	0.084
724.38	0.084
724.58	0.084
724.77	0.084
724.96	0.085
725.16	0.085
725.35	0.085
725.54	0.084
725.74	0.084
725.93	0.084
726.12	0.084
726.32	0.084
726.51	0.084
726.70	0.084
726.90	0.084
727.09	0.084
727.28	0.084
727.48	0.084
727.67	0.084
727.86	0.084
728.06	0.084
728.25	0.084
728.44	0.084
728.64	0.084
728.83	0.084
729.02	0.084
729.21	0.084
729.41	0.084
729.60	0.084
729.79	0.083
729.99	0.083
730.18	0.084
730.37	0.083
730.56	0.083
730.76	0.083
730.95	0.084
731.14	0.084
731.34	0.083
731.53	0.084
731.72	0.084
731.91	0.084
732.11	0.084
732.30	0.084
732.49	0.084
732.69	0.085
732.88	0.085
733.07	0.084
733.26	0.085
733.46	0.084
733.65	0.085
733.84	0.084
734.03	0.085
734.23	0.085
734.42	0.084
734.61	0.084
734.80	0.084
735.00	0.084
735.19	0.084
735.38	0.084
735.57	0.084
735.77	0.084
735.96	0.084
736.15	0.084
736.34	0.084
736.54	0.085
736.73	0.085
736.92	0.085
737.11	0.085
737.31	0.085
737.50	0.085
737.69	0.085
737.88	0.085
738.07	0.085
738.27	0.085
738.46	0.085
738.65	0.084
738.84	0.084
739.04	0.084
739.23	0.084
739.42	0.084
739.61	0.084
739.80	0.083
740.00	0.083
740.19	0.084
740.38	0.084
740.57	0.084
740.76	0.084
740.96	0.084
741.15	0.084
741.34	0.084
741.53	0.084
741.72	0.084
741.92	0.083
742.11	0.083
742.30	0.083
742.49	0.083
742.68	0.083
742.88	0.083
743.07	0.083
743.26	0.083
743.45	0.083
743.64	0.082
743.84	0.082
744.03	0.082
744.22	0.082
744.41	0.082
744.60	0.082
744.79	0.082
744.99	0.082
745.18	0.082
745.37	0.082
745.56	0.082
745.75	0.082
745.94	0.082
746.14	0.082
746.33	0.082
746.52	0.082
746.71	0.082
746.90	0.081
747.09	0.081
747.28	0.081
747.48	0.081
747.67	0.081
747.86	0.081
748.05	0.081
748.24	0.080
748.43	0.081
748.62	0.080
748.82	0.080
749.01	0.080
749.20	0.080
749.39	0.080
749.58	0.081
749.77	0.081
749.96	0.080
750.16	0.081
750.35	0.081
750.54	0.081
750.73	0.081
750.92	0.081
751.11	0.081
751.30	0.081
751.49	0.081
751.68	0.081
751.88	0.081
752.07	0.080
752.26	0.080
752.45	0.080
752.64	0.080
752.83	0.080
753.02	0.080
753.21	0.080
753.40	0.079
753.60	0.080
753.79	0.080
753.98	0.080
754.17	0.080
754.36	0.079
754.55	0.079
754.74	0.080
754.93	0.079
755.12	0.079
755.31	0.079
755.50	0.079
755.70	0.079
755.89	0.079
756.08	0.079
756.27	0.078
756.46	0.079
756.65	0.079
756.84	0.079
757.03	0.079
757.22	0.079
757.41	0.079
757.60	0.078
757.79	0.078
757.98	0.078
758.17	0.079
758.36	0.079
758.56	0.078
758.75	0.078
758.94	0.078
759.13	0.078
759.32	0.078
759.51	0.078
759.70	0.079
759.89	0.079
760.08	0.079
760.27	0.078
760.46	0.079
760.65	0.078
760.84	0.078
761.03	0.078
761.22	0.078
761.41	0.078
761.60	0.078
761.79	0.078
761.98	0.078
762.17	0.078
762.36	0.078
762.55	0.077
762.74	0.078
762.93	0.077
763.12	0.078
763.31	0.077
763.50	0.077
763.69	0.077
763.88	0.077
764.07	0.077
764.26	0.077
764.45	0.077
764.64	0.077
764.83	0.076
765.02	0.077
765.21	0.076
765.40	0.077
765.59	0.076
765.78	0.077
765.97	0.077
766.16	0.077
766.35	0.077
766.54	0.077
766.73	0.077
766.92	0.077
767.11	0.076
767.30	0.076
767.49	0.076
767.68	0.076
767.87	0.076
768.06	0.076
768.25	0.075
768.44	0.076
768.63	0.075
768.82	0.075
769.01	0.075
769.20	0.075
769.39	0.076
769.58	0.076
769.77	0.076
769.96	0.076
770.15	0.076
770.34	0.076
770.53	0.076
770.72	0.075
770.91	0.075
771.10	0.075
771.29	0.075
771.47	0.074
771.66	0.074
771.85	0.074
772.04	0.074
772.23	0.074
772.42	0.074
772.61	0.074
772.80	0.074
772.99	0.074
773.18	0.074
773.37	0.074
773.56	0.074
773.75	0.074
773.94	0.074
774.13	0.074
774.31	0.074
774.50	0.074
774.69	0.074
774.88	0.074
775.07	0.075
775.26	0.075
775.45	0.074
775.64	0.074
775.83	0.074
776.02	0.074
776.21	0.074
776.40	0.074
776.58	0.074
776.77	0.074
776.96	0.075
777.15	0.074
777.34	0.074
777.53	0.075
777.72	0.074
777.91	0.074
778.10	0.074
778.28	0.074
778.47	0.074
778.66	0.074
778.85	0.073
779.04	0.073
779.23	0.073
779.42	0.073
779.61	0.073
779.79	0.073
779.98	0.073
780.17	0.073
780.36	0.073
780.55	0.072
780.74	0.072
780.93	0.072
781.12	0.072
781.30	0.072
781.49	0.072
781.68	0.072
781.87	0.072
782.06	0.072
782.25	0.072
782.44	0.072
782.62	0.072
782.81	0.073
783.00	0.073
783.19	0.073
783.38	0.073
783.57	0.073
783.75	0.072
783.94	0.073
784.13	0.072
784.32	0.072
784.51	0.072
784.70	0.072
784.88	0.072
785.07	0.072
785.26	0.072
785.45	0.072
785.64	0.071
785.83	0.071
786.01	0.071
786.20	0.071
786.39	0.071
786.58	0.071
786.77	0.071
786.95	0.071
787.14	0.071
787.33	0.071
787.52	0.071
787.71	0.071
787.90	0.071
788.08	0.071
788.27	0.071
788.46	0.071
788.65	0.071
788.84	0.071
789.02	0.071
789.21	0.071
789.40	0.071
789.59	0.071
789.77	0.071
789.96	0.071
790.15	0.071
790.34	0.071
790.53	0.071
790.71	0.071
790.90	0.071
791.09	0.070
791.28	0.071
791.46	0.071
791.65	0.071
791.84	0.071
792.03	0.070
792.22	0.070
792.40	0.070
792.59	0.070
792.78	0.070
792.97	0.070
793.15	0.070
793.34	0.070
793.53	0.070
793.72	0.070
793.90	0.069
794.09	0.070
794.28	0.070
794.47	0.070
794.65	0.069
794.84	0.069
795.03	0.069
795.22	0.069
795.40	0.069
795.59	0.069
795.78	0.069
795.97	0.069
796.15	0.070
796.34	0.070
796.53	0.070
796.71	0.070
796.90	0.070
797.09	0.070
797.28	0.070
797.46	0.070
797.65	0.070
797.84	0.070
798.02	0.070
798.21	0.070
798.40	0.070
798.59	0.070
798.77	0.069
798.96	0.069
799.15	0.069
799.33	0.069
799.52	0.069
799.71	0.069
799.90	0.069
800.08	0.069
800.27	0.069
800.46	0.068
800.64	0.068
800.83	0.068
801.02	0.069
801.20	0.069
801.39	0.069
801.58	0.068
801.76	0.068
801.95	0.068
802.14	0.068
802.32	0.068
802.51	0.069
802.70	0.068
802.88	0.068
803.07	0.069
803.26	0.068
803.44	0.068
803.63	0.069
803.82	0.068
804.00	0.068
804.19	0.069
804.38	0.069
804.56	0.068
804.75	0.069
804.94	0.069
805.12	0.069
805.31	0.069
805.50	0.069
805.68	0.069
805.87	0.069
806.06	0.069
806.24	0.069
806.43	0.069
806.62	0.069
806.80	0.069
806.99	0.069
807.17	0.069
807.36	0.069
807.55	0.069
807.73	0.069
807.92	0.069
808.11	0.069
808.29	0.069
808.48	0.068
808.66	0.068
808.85	0.068
809.04	0.068
809.22	0.068
809.41	0.068
809.59	0.068
809.78	0.067
809.97	0.067
810.15	0.067
810.34	0.067
810.53	0.067
810.71	0.067
810.90	0.067
811.08	0.067
811.27	0.067
811.45	0.067
811.64	0.067
811.83	0.067
812.01	0.067
812.20	0.067
812.38	0.067
812.57	0.068
812.76	0.068
812.94	0.068
813.13	0.068
813.31	0.068
813.50	0.068
813.68	0.068
813.87	0.068
814.06	0.068
814.24	0.068
814.43	0.068
814.61	0.068
814.80	0.068
814.98	0.068
815.17	0.068
815.36	0.068
815.54	0.068
815.73	0.068
815.91	0.068
816.10	0.068
816.28	0.068
816.47	0.067
816.65	0.068
816.84	0.068
817.03	0.068
817.21	0.068
817.40	0.068
817.58	0.068
817.77	0.068
817.95	0.068
818.14	0.069
818.32	0.069
818.51	0.069
818.69	0.069
818.88	0.069
819.06	0.069
819.25	0.069
819.43	0.068
819.62	0.068
819.80	0.068
819.99	0.068
820.18	0.068
820.36	0.068
820.55	0.068
820.73	0.068
820.92	0.068
821.10	0.068
821.29	0.068
821.47	0.068
821.66	0.068
821.84	0.068
822.03	0.068
822.21	0.068
822.40	0.068
822.58	0.068
822.77	0.068
822.95	0.068
823.14	0.068
823.32	0.068
823.50	0.068
823.69	0.068
823.87	0.068
824.06	0.069
824.24	0.069
824.43	0.069
824.61	0.068
824.80	0.069
824.98	0.069
825.17	0.069
825.35	0.069
825.54	0.069
825.72	0.069
825.91	0.069
826.09	0.069
826.28	0.069
826.46	0.070
826.64	0.070
826.83	0.070
827.01	0.070
827.20	0.070
827.38	0.070
827.57	0.070
827.75	0.070
827.94	0.070
828.12	0.071
828.31	0.070
828.49	0.071
828.67	0.071
828.86	0.071
829.04	0.071
829.23	0.071
829.41	0.071
829.60	0.071
829.78	0.072
829.96	0.072
830.15	0.072
830.33	0.073
830.52	0.073
830.70	0.072
830.88	0.072
831.07	0.073
831.25	0.073
831.44	0.073
831.62	0.073
831.81	0.073
831.99	0.072
832.17	0.072
832.36	0.073
832.54	0.073
832.73	0.073
832.91	0.073
833.09	0.073
833.28	0.073
833.46	0.073
833.65	0.074
833.83	0.074
834.01	0.074
834.20	0.074
834.38	0.074
834.56	0.074
834.75	0.074
834.93	0.074
835.12	0.074
835.30	0.074
835.48	0.074
835.67	0.074
835.85	0.074
836.03	0.074
836.22	0.074
836.40	0.074
836.59	0.074
836.77	0.074
836.95	0.074
837.14	0.074
837.32	0.074
837.50	0.074
837.69	0.074
837.87	0.074
838.05	0.074
838.24	0.074
838.42	0.073
838.60	0.074
838.79	0.075
838.97	0.074
839.15	0.074
839.34	0.074
839.52	0.075
839.70	0.075
839.89	0.075
840.07	0.075
840.25	0.076
840.44	0.076
840.62	0.076
840.80	0.075
840.99	0.076
841.17	0.076
841.35	0.076
841.54	0.075
841.72	0.075
841.90	0.075
842.09	0.075
842.27	0.075
842.45	0.075
842.64	0.075
842.82	0.075
843.00	0.075
843.19	0.075
843.37	0.075
843.55	0.075
843.73	0.075
843.92	0.074
844.10	0.075
844.28	0.075
844.47	0.075
844.65	0.075
844.83	0.076
845.01	0.076
845.20	0.076
845.38	0.076
845.56	0.076
845.75	0.076
845.93	0.076
846.11	0.076
846.29	0.076
846.48	0.076
846.66	0.076
846.84	0.076
847.02	0.075
847.21	0.075
847.39	0.075
847.57	0.075
847.76	0.076
847.94	0.075
848.12	0.075
848.30	0.075
848.49	0.075
848.67	0.075
848.85	0.075
849.03	0.075
849.22	0.075
849.40	0.076
849.58	0.076
849.76	0.076
849.95	0.076
850.13	0.076
850.31	0.076
850.49	0.076
850.67	0.076
850.86	0.076
851.04	0.076
851.22	0.076
851.40	0.076
851.59	0.076
851.77	0.076
851.95	0.076
852.13	0.076
852.31	0.076
852.50	0.077
852.68	0.077
852.86	0.076
853.04	0.076
853.23	0.076
853.41	0.076
853.59	0.076
853.77	0.076
853.95	0.076
854.14	0.076
854.32	0.076
854.50	0.076
854.68	0.076
854.86	0.076
855.04	0.076
855.23	0.076
855.41	0.076
855.59	0.076
855.77	0.076
855.95	0.077
856.14	0.077
856.32	0.077
856.50	0.077
856.68	0.077
856.86	0.077
857.04	0.077
857.23	0.077
857.41	0.077
857.59	0.077
857.77	0.077
857.95	0.077
858.13	0.077
858.32	0.076
858.50	0.077
858.68	0.076
858.86	0.077
859.04	0.077
859.22	0.077
859.41	0.077
859.59	0.077
859.77	0.077
859.95	0.077
860.13	0.077
860.31	0.077
860.49	0.077
860.68	0.077
860.86	0.077
861.04	0.077
861.22	0.077
861.40	0.077
861.58	0.077
861.76	0.077
861.94	0.077
862.13	0.077
862.31	0.077
862.49	0.077
862.67	0.077
862.85	0.078
863.03	0.078
863.21	0.078
863.39	0.078
863.57	0.078
863.76	0.078
863.94	0.078
864.12	0.079
864.30	0.078
864.48	0.078
864.66	0.078
864.84	0.078
865.02	0.078
865.20	0.078
865.38	0.078
865.57	0.078
865.75	0.078
865.93	0.079
866.11	0.078
866.29	0.078
866.47	0.079
866.65	0.079
866.83	0.079
867.01	0.079
867.19	0.079
867.37	0.079
867.55	0.079
867.73	0.079
867.92	0.078
868.10	0.079
868.28	0.078
868.46	0.078
868.64	0.078
868.82	0.079
869.00	0.079
869.18	0.079
869.36	0.079
869.54	0.079
869.72	0.079
869.90	0.079
870.08	0.079
870.26	0.079
870.44	0.079
870.62	0.079
870.80	0.079
870.98	0.079
871.16	0.079
871.34	0.078
871.53	0.078
871.71	0.078
871.89	0.078
872.07	0.079
872.25	0.079
872.43	0.079
872.61	0.079
872.79	0.079
872.97	0.079
873.15	0.079
873.33	0.080
873.51	0.080
873.69	0.080
873.87	0.079
874.05	0.079
874.23	0.079
874.41	0.080
874.59	0.080
874.77	0.079
874.95	0.079
875.13	0.080
875.31	0.079
875.49	0.080
875.67	0.080
875.85	0.080
876.03	0.080
876.21	0.081
876.39	0.081
876.57	0.081
876.75	0.081
876.93	0.080
877.11	0.080
877.29	0.080
877.47	0.080
877.65	0.081
877.82	0.080
878.00	0.080
878.18	0.080
878.36	0.080
878.54	0.080
878.72	0.080
878.90	0.080
879.08	0.080
879.26	0.080
879.44	0.081
879.62	0.080
879.80	0.081
879.98	0.081
880.16	0.081
880.34	0.080
880.52	0.081
880.70	0.080
880.88	0.080
881.06	0.080
881.24	0.080
881.42	0.080
881.59	0.080
881.77	0.080
881.95	0.080
882.13	0.080
882.31	0.081
882.49	0.080
882.67	0.081
882.85	0.080
883.03	0.081
883.21	0.081
883.39	0.081
883.57	0.081
883.75	0.081
883.92	0.081
884.10	0.081
884.28	0.081
884.46	0.082
884.64	0.081
884.82	0.081
885.00	0.081
885.18	0.082
885.36	0.082
885.54	0.081
885.71	0.082
885.89	0.082
886.07	0.082
886.25	0.082
886.43	0.082
886.61	0.082
886.79	0.082
886.97	0.082
887.15	0.082
887.32	0.082
887.50	0.083
887.68	0.083
887.86	0.083
888.04	0.083
888.22	0.083
888.40	0.083
888.57	0.083
888.75	0.083
888.93	0.083
889.11	0.083
889.29	0.083
889.47	0.083
889.65	0.083
889.82	0.083
890.00	0.083
890.18	0.083
890.36	0.083
890.54	0.083
890.72	0.084
890.90	0.084
891.07	0.084
891.25	0.083
891.43	0.083
891.61	0.084
891.79	0.083
891.97	0.083
892.14	0.083
892.32	0.084
892.50	0.084
892.68	0.084
892.86	0.084
893.03	0.084
893.21	0.084
893.39	0.084
893.57	0.084
893.75	0.084
893.93	0.084
894.10	0.084
894.28	0.084
894.46	0.084
894.64	0.084
894.82	0.084
894.99	0.084
895.17	0.084
895.35	0.084
895.53	0.084
895.71	0.084
895.88	0.084
896.06	0.084
896.24	0.084
896.42	0.084
896.59	0.084
896.77	0.084
896.95	0.084
897.13	0.084
897.31	0.085
897.48	0.085
897.66	0.085
897.84	0.085
898.02	0.085
898.19	0.085
898.37	0.085
898.55	0.086
898.73	0.086
898.91	0.086
899.08	0.086
899.26	0.086
899.44	0.086
899.62	0.086
899.79	0.086
899.97	0.086
900.15	0.086
900.33	0.086
900.50	0.086
900.68	0.086
900.86	0.086
901.04	0.086
901.21	0.086
901.39	0.085
901.57	0.086
901.74	0.086
901.92	0.086
902.10	0.086
902.28	0.086
902.45	0.086
902.63	0.086
902.81	0.086
902.99	0.086
903.16	0.086
903.34	0.087
903.52	0.086
903.69	0.086
903.87	0.086
904.05	0.086
904.22	0.087
904.40	0.087
904.58	0.087
904.76	0.087
904.93	0.087
905.11	0.087
905.29	0.087
905.46	0.087
905.64	0.087
905.82	0.088
905.99	0.087
906.17	0.087
906.35	0.088
906.53	0.088
906.70	0.088
906.88	0.088
907.06	0.088
907.23	0.088
907.41	0.088
907.59	0.088
907.76	0.088
907.94	0.088
908.12	0.088
908.29	0.088
908.47	0.088
908.65	0.088
908.82	0.088
909.00	0.089
909.18	0.089
909.35	0.089
909.53	0.089
909.71	0.089
909.88	0.089
910.06	0.089
910.23	0.089
910.41	0.089
910.59	0.089
910.76	0.089
910.94	0.089
911.12	0.089
911.29	0.089
911.47	0.089
911.65	0.089
911.82	0.089
912.00	0.090
912.17	0.090
912.35	0.090
912.53	0.090
912.70	0.090
912.88	0.091
913.06	0.091
913.23	0.091
913.41	0.091
913.58	0.091
913.76	0.091
913.94	0.091
914.11	0.091
914.29	0.091
914.46	0.091
914.64	0.091
914.82	0.091
914.99	0.092
915.17	0.092
915.34	0.092
915.52	0.092
915.70	0.092
915.87	0.093
916.05	0.093
916.22	0.093
916.40	0.093
916.57	0.093
916.75	0.093
916.93	0.093
917.10	0.093
917.28	0.093
917.45	0.093
917.63	0.093
917.80	0.093
917.98	0.093
918.16	0.093
918.33	0.094
918.51	0.094
918.68	0.094
918.86	0.094
919.03	0.095
919.21	0.095
919.39	0.095
919.56	0.096
919.74	0.096
919.91	0.096
920.09	0.096
920.26	0.096
920.44	0.096
920.61	0.097
920.79	0.097
920.96	0.097
921.14	0.097
921.31	0.098
921.49	0.097
921.67	0.097
921.84	0.098
922.02	0.098
922.19	0.098
922.37	0.099
922.54	0.099
922.72	0.099
922.89	0.099
923.07	0.099
923.24	0.100
923.42	0.100
923.59	0.100
923.77	0.100
923.94	0.101
924.12	0.101
924.29	0.101
924.47	0.102
924.64	0.102
924.82	0.102
924.99	0.102
925.17	0.103
925.34	0.103
925.52	0.103
925.69	0.104
925.87	0.104
926.04	0.104
926.22	0.104
926.39	0.104
926.57	0.104
926.74	0.105
926.91	0.105
927.09	0.105
927.26	0.105
927.44	0.105
927.61	0.105
927.79	0.106
927.96	0.107
928.14	0.107
928.31	0.108
928.49	0.108
928.66	0.108
928.84	0.109
929.01	0.109
929.18	0.110
929.36	0.111
929.53	0.111
929.71	0.112
929.88	0.112
930.06	0.113
930.23	0.113
930.41	0.113
930.58	0.114
930.75	0.114
930.93	0.115
931.10	0.115
931.28	0.115
931.45	0.116
931.63	0.116
931.80	0.116
931.97	0.117
932.15	0.118
932.32	0.118
932.50	0.118
932.67	0.118
932.84	0.119
933.02	0.119
933.19	0.119
933.37	0.120
933.54	0.120
933.71	0.121
933.89	0.121
934.06	0.122
934.24	0.122
934.41	0.123
934.58	0.123
934.76	0.124
934.93	0.125
935.11	0.125
935.28	0.125
935.45	0.126
935.63	0.127
935.80	0.127
935.98	0.128
936.15	0.128
936.32	0.128
936.50	0.129
936.67	0.129
936.84	0.129
937.02	0.130
937.19	0.131
937.36	0.131
937.54	0.131
937.71	0.132
937.89	0.133
938.06	0.133
938.23	0.134
938.41	0.135
938.58	0.135
938.75	0.135
938.93	0.136
939.10	0.136
939.27	0.137
939.45	0.138
939.62	0.138
939.79	0.139
939.97	0.139
940.14	0.140
940.31	0.140
940.49	0.141
940.66	0.142
940.83	0.142
941.01	0.143
941.18	0.143
941.35	0.144
941.53	0.145
941.70	0.145
941.87	0.146
942.05	0.146
942.22	0.147
942.39	0.148
942.57	0.149
942.74	0.150
942.91	0.150
943.08	0.151
943.26	0.151
943.43	0.151
943.60	0.152
943.78	0.153
943.95	0.154
944.12	0.154
944.29	0.155
944.47	0.156
944.64	0.157
944.81	0.158
944.99	0.158
945.16	0.159
945.33	0.159
945.50	0.160
945.68	0.161
945.85	0.161
946.02	0.163
946.20	0.164
946.37	0.165
946.54	0.166
946.71	0.167
946.89	0.167
947.06	0.168
947.23	0.169
947.40	0.170
947.58	0.170
947.75	0.172
947.92	0.172
948.09	0.172
948.27	0.173
948.44	0.174
948.61	0.175
948.78	0.176
948.96	0.177
949.13	0.178
949.30	0.179
949.47	0.180
949.65	0.181
949.82	0.183
949.99	0.184
950.16	0.186
950.33	0.186
950.51	0.187
950.68	0.189
950.85	0.190
951.02	0.191
951.20	0.192
951.37	0.193
951.54	0.194
951.71	0.195
951.88	0.197
952.06	0.198
952.23	0.199
952.40	0.201
952.57	0.202
952.74	0.204
952.92	0.204
953.09	0.206
953.26	0.208
953.43	0.209
953.60	0.210
953.77	0.211
953.95	0.211
954.12	0.213
954.29	0.213
954.46	0.216
954.63	0.217
954.81	0.218
954.98	0.218
955.15	0.220
955.32	0.222
955.49	0.222
955.66	0.223
955.84	0.224
956.01	0.225
956.18	0.228
956.35	0.229
956.52	0.229
956.69	0.231
956.87	0.231
957.04	0.232
957.21	0.234
957.38	0.234
957.55	0.236
957.72	0.237
957.89	0.237
958.07	0.237
958.24	0.240
958.41	0.241
958.58	0.241
958.75	0.242
958.92	0.243
959.09	0.242
959.26	0.243
959.44	0.244
959.61	0.245
959.78	0.246
959.95	0.247
960.12	0.248
960.29	0.249
960.46	0.249
960.63	0.249
960.81	0.249
960.98	0.250
961.15	0.251
961.32	0.251
961.49	0.251
961.66	0.252
961.83	0.253
962.00	0.253
962.17	0.254
962.34	0.253
962.52	0.254
962.69	0.255
962.86	0.255
963.03	0.255
963.20	0.255
963.37	0.255
963.54	0.256
963.71	0.256
963.88	0.256
964.05	0.257
964.22	0.258
964.39	0.257
964.56	0.257
964.74	0.258
964.91	0.258
965.08	0.259
965.25	0.259
965.42	0.259
965.59	0.260
965.76	0.259
965.93	0.261
966.10	0.259
966.27	0.260
966.44	0.259
966.61	0.261
966.78	0.260
966.95	0.259
967.12	0.260
967.29	0.262
967.46	0.262
967.63	0.261
967.80	0.261
967.97	0.261
968.14	0.261
968.32	0.262
968.49	0.262
968.66	0.261
968.83	0.262
969.00	0.262
969.17	0.262
969.34	0.263
969.51	0.264
969.68	0.263
969.85	0.263
970.02	0.264
970.19	0.263
970.36	0.264
970.53	0.264
970.70	0.262
970.87	0.263
971.04	0.262
971.21	0.263
971.38	0.263
971.55	0.264
971.72	0.263
971.89	0.264
972.06	0.264
972.23	0.264
972.40	0.264
972.57	0.263
972.74	0.262
972.91	0.264
973.07	0.264
973.24	0.263
973.41	0.263
973.58	0.262
973.75	0.275
973.92	0.263
974.09	0.262
974.26	0.262
974.43	0.261
974.60	0.262
974.77	0.262
974.94	0.262
975.11	0.262
975.28	0.264
975.45	0.262
975.62	0.263
975.79	0.264
975.96	0.263
976.13	0.262
976.30	0.264
976.47	0.262
976.64	0.262
976.80	0.262
976.97	0.262
977.14	0.261
977.31	0.262
977.48	0.262
977.65	0.261
977.82	0.260
977.99	0.262
978.16	0.261
978.33	0.262
978.50	0.261
978.67	0.262
978.83	0.261
979.00	0.262
979.17	0.261
979.34	0.260
979.51	0.261
979.68	0.261
979.85	0.260
980.02	0.261
980.19	0.259
980.36	0.261
980.52	0.262
980.69	0.260
980.86	0.261
981.03	0.260
981.20	0.259
981.37	0.259
981.54	0.260
981.71	0.259
981.88	0.259
982.04	0.258
982.21	0.257
982.38	0.259
982.55	0.258
982.72	0.257
982.89	0.258
983.06	0.257
983.22	0.257
983.39	0.258
983.56	0.257
983.73	0.256
983.90	0.255
984.07	0.257
984.24	0.255
984.40	0.255
984.57	0.253
984.74	0.255
984.91	0.255
985.08	0.253
985.25	0.251
985.41	0.253
985.58	0.253
985.75	0.255
985.92	0.253
986.09	0.252
986.26	0.253
986.42	0.252
986.59	0.251
986.76	0.252
986.93	0.252
987.10	0.252
987.27	0.249
987.43	0.247
987.60	0.249
987.77	0.249
987.94	0.247
988.11	0.248
988.27	0.249
988.44	0.248
988.61	0.247
988.78	0.245
988.95	0.246
989.11	0.246
989.28	0.245
989.45	0.244
989.62	0.243
989.79	0.244
989.95	0.242
990.12	0.243
990.29	0.243
990.46	0.240
990.62	0.239
990.79	0.240
990.96	0.240
991.13	0.241
991.30	0.240
991.46	0.239
991.63	0.237
991.80	0.237
991.97	0.237
992.13	0.237
992.30	0.239
992.47	0.237
992.64	0.236
992.80	0.236
992.97	0.237
993.14	0.234
993.31	0.233
993.47	0.236
993.64	0.234
993.81	0.233
993.98	0.234
994.14	0.232
994.31	0.231
994.48	0.232
994.64	0.233
994.81	0.231
994.98	0.231
995.15	0.229
995.31	0.228
995.48	0.228
995.65	0.231
995.82	0.228
995.98	0.228
996.15	0.229
996.32	0.231
996.48	0.230
996.65	0.230
996.82	0.227
996.99	0.228
997.15	0.228
997.32	0.229
997.49	0.226
997.65	0.227
997.82	0.226
997.99	0.224
998.15	0.224
998.32	0.226
998.49	0.225
998.65	0.225
998.82	0.224
998.99	0.221
999.15	0.222
999.32	0.221
999.49	0.221
999.65	0.221
999.82	0.219
999.99	0.219
1000.15	0.218
1000.32	0.219
1000.49	0.219
1000.65	0.217
1000.82	0.218
1000.99	0.219
1001.15	0.219
1001.32	0.218
1001.49	0.218
1001.65	0.218
1001.82	0.220
1001.99	0.217
1002.15	0.215
1002.32	0.215
1002.49	0.216
1002.65	0.215
1002.82	0.212
1002.99	0.211
1003.15	0.214
1003.32	0.213
1003.48	0.213
1003.65	0.213
1003.82	0.212
1003.98	0.209
1004.15	0.209
1004.32	0.210
1004.48	0.209
1004.65	0.211
1004.81	0.209
1004.98	0.208
1005.15	0.208
1005.31	0.208
1005.48	0.206
1005.64	0.206
1005.81	0.209
1005.98	0.206
1006.14	0.205
1006.31	0.206
1006.47	0.205
1006.64	0.204
1006.81	0.203
1006.97	0.203
1007.14	0.202
1007.30	0.204
1007.47	0.203
1007.63	0.201
1007.80	0.199
1007.97	0.198
1008.13	0.199
1008.30	0.198
1008.46	0.198
1008.63	0.197
1008.79	0.198
1008.96	0.198
1009.13	0.200
1009.29	0.197
1009.46	0.197
1009.62	0.197
1009.79	0.195
1009.95	0.195
1010.12	0.195
1010.28	0.195
1010.45	0.194
1010.62	0.193
1010.78	0.192
1010.95	0.190
1011.11	0.190
1011.28	0.189
1011.44	0.192
1011.61	0.190
1011.77	0.189
1011.94	0.189
1012.10	0.189
1012.27	0.189
1012.43	0.189
1012.60	0.187
1012.76	0.188
1012.93	0.188
1013.10	0.186
1013.26	0.184
1013.43	0.186
1013.59	0.193
1013.76	0.185
1013.92	0.184
1014.09	0.183
1014.25	0.184
1014.42	0.184
1014.58	0.184
1014.75	0.185
1014.91	0.185
1015.08	0.186
1015.24	0.182
1015.41	0.184
1015.57	0.184
1015.73	0.183
1015.90	0.180
1016.06	0.183
1016.23	0.181
1016.39	0.181
1016.56	0.182
1016.72	0.180
1016.89	0.180
1017.05	0.182
1017.22	0.178
1017.38	0.179
1017.55	0.177
1017.71	0.179
1017.88	0.178
1018.04	0.178
1018.21	0.176
1018.37	0.175
1018.53	0.176
1018.70	0.174
1018.86	0.173
1019.03	0.175
1019.19	0.173
1019.36	0.174
1019.52	0.175
1019.69	0.175
1019.85	0.174
1020.01	0.174
1020.18	0.173
1020.34	0.173
1020.51	0.172
1020.67	0.174
1020.84	0.172
1021.00	0.172
1021.16	0.170
1021.33	0.170
1021.49	0.169
1021.66	0.170
1021.82	0.168
1021.98	0.168
1022.15	0.167
1022.31	0.166
1022.48	0.164
1022.64	0.166
1022.80	0.165
1022.97	0.162
1023.13	0.162
1023.30	0.163
1023.46	0.163
1023.62	0.160
1023.79	0.161
1023.95	0.163
1024.12	0.162
1024.28	0.162
1024.44	0.162
1024.61	0.161
1024.77	0.162
1024.93	0.161
1025.10	0.162
1025.26	0.160
1025.43	0.161
1025.59	0.158
1025.75	0.160
1025.92	0.159
1026.08	0.158
1026.24	0.156
1026.41	0.158
1026.57	0.156
1026.73	0.153
1026.90	0.156
1027.06	0.153
1027.23	0.155
1027.39	0.155
1027.55	0.155
1027.72	0.154
1027.88	0.154
1028.04	0.155
1028.21	0.155
1028.37	0.151
1028.53	0.155
1028.70	0.153
1028.86	0.153
1029.02	0.152
1029.19	0.153
1029.35	0.151
1029.51	0.152
1029.67	0.151
1029.84	0.153
1030.00	0.147
1030.16	0.148
1030.33	0.151
1030.49	0.148
1030.65	0.145
1030.82	0.160
1030.98	0.147
1031.14	0.147
1031.31	0.146
1031.47	0.143
1031.63	0.146
1031.79	0.145
1031.96	0.147
1032.12	0.148
1032.28	0.145
1032.45	0.150
1032.61	0.149
1032.77	0.148
1032.93	0.146
1033.10	0.148
1033.26	0.151
1033.42	0.148
1033.58	0.149
1033.75	0.149
1033.91	0.146
1034.07	0.149
1034.24	0.147
1034.40	0.144
1034.56	0.143
1034.72	0.144
1034.89	0.144
1035.05	0.142
1035.21	0.141
1035.37	0.140
1035.54	0.143
1035.70	0.141
1035.86	0.141
1036.02	0.142
1036.19	0.141
1036.35	0.139
1036.51	0.143
1036.67	0.140
1036.83	0.139
1037.00	0.139
1037.16	0.139
1037.32	0.140
1037.48	0.140
1037.65	0.143
1037.81	0.139
1037.97	0.139
1038.13	0.138
1038.29	0.136
1038.46	0.134
1038.62	0.137
1038.78	0.135
1038.94	0.130
1039.10	0.133
1039.27	0.130
1039.43	0.132
1039.59	0.132
1039.75	0.131
1039.91	0.132
1040.08	0.132
1040.24	0.135
1040.40	0.137
1040.56	0.136
1040.72	0.131
1040.89	0.135
1041.05	0.136
1041.21	0.134
1041.37	0.131
1041.53	0.138
1041.69	0.135
1041.86	0.133
1042.02	0.129
1042.18	0.129
1042.34	0.129
1042.50	0.134
1042.66	0.129
1042.83	0.127
1042.99	0.131
1043.15	0.127
1043.31	0.126
1043.47	0.131
1043.63	0.128
1043.79	0.128
1043.96	0.129
1044.12	0.133
1044.28	0.130
1044.44	0.133
1044.60	0.128
1044.76	0.126
1044.92	0.129
1045.09	0.129
1045.25	0.125
1045.41	0.126
1045.57	0.120
1045.73	0.121
1045.89	0.123
1046.05	0.123
1046.21	0.127
1046.38	0.119
1046.54	0.127
1046.70	0.133
1046.86	0.114
>>>>>End Processed Spectral Data<<<<<
