SpectraSuite Data File
++++++++++++++++++++++++++++++++++++
Date: Mon May 20 12:10:56 CDT 2013
User: Students
Dark Spectrum Present: Yes
Reference Spectrum Present: Yes
Number of Sampled Component Spectra: 1
Spectrometers: USB4H00887
Integration Time (usec): 60000 (USB4H00887)
Spectra Averaged: 5 (USB4H00887)
Boxcar Smoothing: 5 (USB4H00887)
Correct for Electrical Dark: No (USB4H00887)
Strobe/Lamp Enabled: No (USB4H00887)
Correct for Detector Non-linearity: No (USB4H00887)
Correct for Stray Light: No (USB4H00887)
Number of Pixels in Processed Spectrum: 3648
>>>>>Begin Processed Spectral Data<<<<<
345.83	-0.089
346.05	-0.089
346.26	-0.089
346.48	-0.000
346.70	0.372
346.92	0.013
347.14	0.032
347.35	0.028
347.57	0.136
347.79	-0.140
348.01	-0.124
348.23	-0.219
348.44	-0.000
348.66	0.207
348.88	-0.348
349.10	-0.058
349.32	0.043
349.53	-0.003
349.75	-0.011
349.97	0.012
350.19	0.039
350.41	0.007
350.62	-0.019
350.84	0.004
351.06	0.014
351.28	-0.012
351.50	-0.202
351.71	-0.151
351.93	-0.097
352.15	-0.025
352.37	-0.120
352.58	-0.020
352.80	0.013
353.02	0.040
353.24	0.051
353.46	0.120
353.67	-0.098
353.89	0.033
354.11	0.037
354.33	0.040
354.54	0.099
354.76	0.147
354.98	0.238
355.20	0.179
355.41	0.084
355.63	0.169
355.85	0.070
356.07	0.797
356.28	0.079
356.50	0.115
356.72	0.044
356.94	0.057
357.15	0.101
357.37	-0.000
357.59	0.053
357.81	0.009
358.02	0.033
358.24	0.045
358.46	0.097
358.68	0.109
358.89	0.076
359.11	-0.000
359.33	0.083
359.55	-0.593
359.76	0.126
359.98	0.148
360.20	0.138
360.42	0.105
360.63	0.109
360.85	0.054
361.07	0.170
361.29	0.037
361.50	0.128
361.72	0.063
361.94	0.152
362.15	0.060
362.37	0.044
362.59	0.065
362.81	0.110
363.02	0.182
363.24	0.369
363.46	0.205
363.68	0.281
363.89	0.164
364.11	0.214
364.33	0.324
364.54	0.202
364.76	0.240
364.98	0.223
365.20	0.266
365.41	0.179
365.63	0.209
365.85	0.142
366.06	0.375
366.28	0.448
366.50	0.280
366.71	0.090
366.93	0.115
367.15	0.094
367.37	0.091
367.58	0.121
367.80	0.133
368.02	0.331
368.23	0.123
368.45	0.138
368.67	0.107
368.88	0.103
369.10	-0.000
369.32	0.127
369.53	0.085
369.75	0.133
369.97	0.356
370.19	0.193
370.40	0.077
370.62	0.238
370.84	0.104
371.05	0.636
371.27	0.157
371.49	0.188
371.70	0.195
371.92	0.289
372.14	0.126
372.35	0.122
372.57	0.155
372.79	0.414
373.00	0.096
373.22	0.124
373.44	0.133
373.65	0.106
373.87	0.147
374.09	0.652
374.30	0.120
374.52	0.145
374.74	0.100
374.95	0.396
375.17	0.117
375.39	-0.000
375.60	0.135
375.82	0.270
376.04	0.110
376.25	0.125
376.47	0.079
376.68	0.213
376.90	0.123
377.12	0.307
377.33	0.141
377.55	0.381
377.77	0.201
377.98	0.280
378.20	0.139
378.42	0.171
378.63	0.209
378.85	-0.000
379.07	0.137
379.28	0.478
379.50	0.268
379.71	0.152
379.93	0.104
380.15	0.141
380.36	0.216
380.58	0.145
380.80	0.387
381.01	0.145
381.23	0.130
381.44	0.126
381.66	0.144
381.88	0.190
382.09	-0.083
382.31	0.118
382.53	0.130
382.74	0.650
382.96	0.185
383.17	0.165
383.39	0.212
383.61	0.258
383.82	0.198
384.04	0.239
384.25	0.277
384.47	0.261
384.69	0.257
384.90	0.224
385.12	0.466
385.33	0.297
385.55	0.219
385.77	0.348
385.98	0.177
386.20	0.232
386.41	0.191
386.63	0.223
386.85	0.196
387.06	0.238
387.28	0.399
387.49	0.276
387.71	0.189
387.93	0.162
388.14	0.458
388.36	0.201
388.57	0.182
388.79	0.210
389.01	-0.000
389.22	0.295
389.44	0.257
389.65	0.204
389.87	0.200
390.08	0.240
390.30	0.187
390.52	0.352
390.73	0.358
390.95	0.258
391.16	0.251
391.38	-0.000
391.59	0.248
391.81	0.209
392.03	0.190
392.24	0.219
392.46	0.194
392.67	0.174
392.89	0.245
393.10	0.385
393.32	0.261
393.53	0.307
393.75	0.207
393.97	0.230
394.18	0.318
394.40	0.276
394.61	0.289
394.83	0.246
395.04	0.293
395.26	0.194
395.47	0.283
395.69	0.236
395.91	0.241
396.12	0.296
396.34	0.298
396.55	0.196
396.77	0.295
396.98	1.062
397.20	0.374
397.41	0.412
397.63	0.304
397.84	0.263
398.06	0.252
398.27	0.263
398.49	0.297
398.71	0.217
398.92	0.261
399.14	0.337
399.35	0.415
399.57	0.375
399.78	0.261
400.00	0.242
400.21	0.314
400.43	0.250
400.64	0.255
400.86	0.545
401.07	0.334
401.29	0.290
401.50	0.305
401.72	0.442
401.93	0.280
402.15	0.333
402.36	0.306
402.58	0.262
402.79	0.282
403.01	0.455
403.22	0.346
403.44	0.227
403.65	0.348
403.87	0.385
404.08	0.320
404.30	0.515
404.51	0.296
404.73	0.346
404.94	0.288
405.16	0.310
405.37	0.252
405.59	0.435
405.80	0.282
406.02	0.346
406.23	0.342
406.45	0.355
406.66	0.356
406.88	0.246
407.09	0.364
407.31	0.300
407.52	0.366
407.74	0.299
407.95	0.361
408.17	0.337
408.38	0.345
408.60	0.234
408.81	0.393
409.03	0.307
409.24	0.300
409.45	0.358
409.67	0.349
409.88	0.308
410.10	0.403
410.31	0.328
410.53	0.311
410.74	0.448
410.96	0.432
411.17	0.441
411.39	0.350
411.60	0.323
411.82	0.363
412.03	0.340
412.24	0.330
412.46	0.460
412.67	0.388
412.89	0.385
413.10	0.373
413.32	0.344
413.53	0.407
413.75	0.425
413.96	0.337
414.17	0.449
414.39	0.467
414.60	0.384
414.82	0.494
415.03	0.388
415.25	0.426
415.46	0.300
415.68	0.422
415.89	0.703
416.10	0.592
416.32	0.338
416.53	0.395
416.75	0.369
416.96	0.436
417.18	0.379
417.39	0.369
417.60	0.365
417.82	0.508
418.03	0.447
418.25	0.382
418.46	0.393
418.67	0.364
418.89	0.388
419.10	0.401
419.32	0.528
419.53	0.480
419.75	0.414
419.96	0.374
420.17	0.446
420.39	0.428
420.60	0.445
420.82	0.525
421.03	0.426
421.24	0.362
421.46	0.398
421.67	0.431
421.89	0.388
422.10	0.421
422.31	0.416
422.53	0.579
422.74	0.440
422.96	0.353
423.17	0.392
423.38	0.470
423.60	0.404
423.81	0.489
424.03	0.420
424.24	0.451
424.45	0.444
424.67	0.443
424.88	0.409
425.09	0.432
425.31	0.403
425.52	0.427
425.74	0.479
425.95	0.510
426.16	0.407
426.38	0.470
426.59	0.439
426.80	0.496
427.02	0.513
427.23	0.407
427.45	0.521
427.66	0.514
427.87	0.411
428.09	0.436
428.30	0.482
428.51	0.474
428.73	0.511
428.94	0.452
429.15	0.443
429.37	0.430
429.58	0.453
429.79	0.421
430.01	0.489
430.22	0.477
430.44	0.484
430.65	0.437
430.86	0.471
431.08	0.458
431.29	0.426
431.50	0.488
431.72	0.605
431.93	0.510
432.14	0.401
432.36	0.433
432.57	0.443
432.78	0.454
433.00	0.428
433.21	0.424
433.42	0.516
433.64	0.463
433.85	0.511
434.06	0.430
434.28	0.448
434.49	0.460
434.70	0.470
434.92	0.481
435.13	0.510
435.34	0.511
435.56	0.486
435.77	0.482
435.98	0.589
436.20	0.518
436.41	0.455
436.62	0.451
436.83	0.508
437.05	0.557
437.26	0.505
437.47	0.464
437.69	0.506
437.90	0.470
438.11	0.463
438.33	0.502
438.54	0.519
438.75	0.643
438.97	0.634
439.18	0.489
439.39	0.513
439.60	0.537
439.82	0.503
440.03	0.465
440.24	0.627
440.46	0.498
440.67	0.477
440.88	0.503
441.10	0.476
441.31	0.473
441.52	0.512
441.73	0.561
441.95	0.514
442.16	0.481
442.37	0.694
442.58	0.480
442.80	0.471
443.01	0.589
443.22	0.551
443.44	0.481
443.65	0.554
443.86	0.549
444.07	0.580
444.29	0.516
444.50	0.632
444.71	0.503
444.92	0.478
445.14	0.586
445.35	0.617
445.56	0.507
445.78	0.578
445.99	0.575
446.20	0.503
446.41	0.555
446.63	0.562
446.84	0.536
447.05	0.538
447.26	0.623
447.48	0.544
447.69	0.519
447.90	0.572
448.11	0.523
448.33	0.544
448.54	0.567
448.75	0.589
448.96	0.594
449.18	0.610
449.39	0.558
449.60	0.548
449.81	0.633
450.03	0.563
450.24	0.600
450.45	0.570
450.66	0.558
450.87	0.577
451.09	0.547
451.30	0.532
451.51	0.578
451.72	0.584
451.94	0.590
452.15	0.642
452.36	0.556
452.57	0.569
452.78	0.574
453.00	0.598
453.21	0.565
453.42	0.545
453.63	0.609
453.85	0.593
454.06	0.591
454.27	0.673
454.48	0.609
454.69	0.562
454.91	0.611
455.12	0.540
455.33	0.595
455.54	0.608
455.75	0.592
455.97	0.607
456.18	0.602
456.39	0.605
456.60	0.625
456.81	0.589
457.03	0.598
457.24	0.593
457.45	0.651
457.66	0.612
457.87	0.584
458.09	0.596
458.30	0.539
458.51	0.619
458.72	0.635
458.93	0.641
459.15	0.579
459.36	0.617
459.57	0.635
459.78	0.668
459.99	0.614
460.20	0.591
460.42	0.648
460.63	0.622
460.84	0.608
461.05	0.622
461.26	0.659
461.47	0.607
461.69	0.645
461.90	0.671
462.11	0.643
462.32	0.679
462.53	0.639
462.74	0.696
462.96	0.619
463.17	0.616
463.38	0.641
463.59	0.716
463.80	0.615
464.01	0.625
464.23	0.675
464.44	0.650
464.65	0.656
464.86	0.668
465.07	0.673
465.28	0.651
465.49	0.665
465.71	0.637
465.92	0.659
466.13	0.691
466.34	0.651
466.55	0.687
466.76	0.662
466.97	0.674
467.19	0.669
467.40	0.693
467.61	0.696
467.82	0.643
468.03	0.636
468.24	0.675
468.45	0.696
468.66	0.690
468.88	0.697
469.09	0.699
469.30	0.729
469.51	0.684
469.72	0.711
469.93	0.693
470.14	0.681
470.35	0.730
470.57	0.704
470.78	0.666
470.99	0.744
471.20	0.707
471.41	0.682
471.62	0.714
471.83	0.699
472.04	0.716
472.25	0.743
472.47	0.693
472.68	0.698
472.89	0.703
473.10	0.730
473.31	0.700
473.52	0.733
473.73	0.747
473.94	0.698
474.15	0.712
474.36	0.711
474.57	0.726
474.79	0.710
475.00	0.711
475.21	0.700
475.42	0.752
475.63	0.695
475.84	0.716
476.05	0.720
476.26	0.706
476.47	0.726
476.68	0.754
476.89	0.712
477.10	0.745
477.32	0.737
477.53	0.771
477.74	0.724
477.95	0.748
478.16	0.717
478.37	0.743
478.58	0.742
478.79	0.751
479.00	0.752
479.21	0.728
479.42	0.751
479.63	0.757
479.84	0.733
480.05	0.732
480.26	0.751
480.47	0.762
480.69	0.763
480.90	0.742
481.11	0.743
481.32	0.779
481.53	0.746
481.74	0.777
481.95	0.755
482.16	0.769
482.37	0.774
482.58	0.754
482.79	0.766
483.00	0.783
483.21	0.752
483.42	0.734
483.63	0.780
483.84	0.793
484.05	0.787
484.26	0.772
484.47	0.770
484.68	0.747
484.89	0.751
485.10	0.778
485.31	0.767
485.52	0.770
485.73	0.771
485.94	0.792
486.15	0.762
486.37	0.771
486.58	0.750
486.79	0.756
487.00	0.786
487.21	0.782
487.42	0.779
487.63	0.783
487.84	0.794
488.05	0.793
488.26	0.770
488.47	0.775
488.68	0.793
488.89	0.778
489.10	0.774
489.31	0.783
489.52	0.802
489.73	0.784
489.94	0.802
490.15	0.777
490.36	0.802
490.57	0.776
490.78	0.767
490.99	0.791
491.20	0.833
491.41	0.810
491.62	0.775
491.83	0.792
492.04	0.790
492.25	0.795
492.45	0.795
492.66	0.808
492.87	0.801
493.08	0.792
493.29	0.781
493.50	0.777
493.71	0.782
493.92	0.780
494.13	0.790
494.34	0.801
494.55	0.805
494.76	0.823
494.97	0.818
495.18	0.797
495.39	0.808
495.60	0.780
495.81	0.782
496.02	0.794
496.23	0.789
496.44	0.806
496.65	0.801
496.86	0.805
497.07	0.821
497.28	0.817
497.49	0.788
497.70	0.789
497.91	0.800
498.12	0.790
498.32	0.817
498.53	0.809
498.74	0.805
498.95	0.821
499.16	0.795
499.37	0.796
499.58	0.804
499.79	0.822
500.00	0.818
500.21	0.835
500.42	0.801
500.63	0.799
500.84	0.810
501.05	0.797
501.26	0.811
501.46	0.833
501.67	0.812
501.88	0.812
502.09	0.796
502.30	0.802
502.51	0.831
502.72	0.807
502.93	0.816
503.14	0.828
503.35	0.812
503.56	0.810
503.77	0.828
503.97	0.815
504.18	0.815
504.39	0.837
504.60	0.818
504.81	0.834
505.02	0.825
505.23	0.828
505.44	0.818
505.65	0.820
505.86	0.811
506.07	0.849
506.27	0.827
506.48	0.830
506.69	0.821
506.90	0.834
507.11	0.832
507.32	0.818
507.53	0.824
507.74	0.818
507.95	0.827
508.15	0.829
508.36	0.831
508.57	0.837
508.78	0.830
508.99	0.831
509.20	0.815
509.41	0.828
509.62	0.822
509.82	0.822
510.03	0.827
510.24	0.828
510.45	0.839
510.66	0.832
510.87	0.829
511.08	0.805
511.29	0.827
511.49	0.815
511.70	0.842
511.91	0.804
512.12	0.801
512.33	0.821
512.54	0.830
512.75	0.822
512.95	0.838
513.16	0.833
513.37	0.818
513.58	0.839
513.79	0.820
514.00	0.825
514.20	0.833
514.41	0.827
514.62	0.809
514.83	0.830
515.04	0.825
515.25	0.814
515.46	0.821
515.66	0.822
515.87	0.830
516.08	0.810
516.29	0.824
516.50	0.814
516.71	0.810
516.91	0.814
517.12	0.825
517.33	0.817
517.54	0.808
517.75	0.810
517.95	0.818
518.16	0.824
518.37	0.805
518.58	0.808
518.79	0.792
519.00	0.810
519.20	0.815
519.41	0.798
519.62	0.810
519.83	0.815
520.04	0.794
520.24	0.791
520.45	0.797
520.66	0.809
520.87	0.788
521.08	0.787
521.28	0.788
521.49	0.798
521.70	0.782
521.91	0.789
522.12	0.778
522.32	0.790
522.53	0.779
522.74	0.771
522.95	0.778
523.16	0.778
523.36	0.783
523.57	0.772
523.78	0.768
523.99	0.769
524.20	0.765
524.40	0.771
524.61	0.775
524.82	0.760
525.03	0.763
525.23	0.762
525.44	0.752
525.65	0.751
525.86	0.764
526.06	0.747
526.27	0.748
526.48	0.753
526.69	0.743
526.90	0.745
527.10	0.767
527.31	0.738
527.52	0.734
527.73	0.730
527.93	0.737
528.14	0.740
528.35	0.734
528.56	0.734
528.76	0.730
528.97	0.722
529.18	0.717
529.39	0.716
529.59	0.718
529.80	0.737
530.01	0.719
530.22	0.718
530.42	0.698
530.63	0.708
530.84	0.694
531.05	0.702
531.25	0.705
531.46	0.699
531.67	0.685
531.88	0.697
532.08	0.692
532.29	0.689
532.50	0.684
532.70	0.680
532.91	0.674
533.12	0.675
533.33	0.690
533.53	0.671
533.74	0.670
533.95	0.674
534.15	0.666
534.36	0.667
534.57	0.655
534.78	0.655
534.98	0.661
535.19	0.642
535.40	0.642
535.60	0.654
535.81	0.641
536.02	0.642
536.23	0.636
536.43	0.638
536.64	0.628
536.85	0.634
537.05	0.640
537.26	0.626
537.47	0.628
537.67	0.620
537.88	0.617
538.09	0.622
538.30	0.615
538.50	0.609
538.71	0.616
538.92	0.608
539.12	0.605
539.33	0.602
539.54	0.602
539.74	0.604
539.95	0.598
540.16	0.595
540.36	0.589
540.57	0.589
540.78	0.584
540.98	0.583
541.19	0.581
541.40	0.573
541.60	0.580
541.81	0.576
542.02	0.576
542.22	0.569
542.43	0.566
542.64	0.563
542.84	0.563
543.05	0.557
543.26	0.557
543.46	0.559
543.67	0.558
543.88	0.555
544.08	0.548
544.29	0.543
544.50	0.544
544.70	0.544
544.91	0.538
545.12	0.538
545.32	0.534
545.53	0.537
545.74	0.529
545.94	0.526
546.15	0.524
546.35	0.522
546.56	0.519
546.77	0.518
546.97	0.516
547.18	0.510
547.39	0.511
547.59	0.510
547.80	0.507
548.01	0.510
548.21	0.507
548.42	0.501
548.62	0.500
548.83	0.498
549.04	0.496
549.24	0.490
549.45	0.490
549.65	0.487
549.86	0.483
550.07	0.482
550.27	0.481
550.48	0.487
550.69	0.476
550.89	0.476
551.10	0.473
551.30	0.471
551.51	0.472
551.72	0.463
551.92	0.465
552.13	0.465
552.33	0.465
552.54	0.461
552.75	0.455
552.95	0.457
553.16	0.453
553.36	0.452
553.57	0.451
553.78	0.449
553.98	0.449
554.19	0.442
554.39	0.439
554.60	0.442
554.80	0.442
555.01	0.436
555.22	0.439
555.42	0.436
555.63	0.431
555.83	0.435
556.04	0.430
556.25	0.433
556.45	0.426
556.66	0.425
556.86	0.427
557.07	0.425
557.27	0.425
557.48	0.420
557.68	0.419
557.89	0.419
558.10	0.416
558.30	0.413
558.51	0.412
558.71	0.410
558.92	0.406
559.12	0.408
559.33	0.411
559.54	0.407
559.74	0.404
559.95	0.402
560.15	0.402
560.36	0.400
560.56	0.396
560.77	0.396
560.97	0.396
561.18	0.392
561.38	0.390
561.59	0.392
561.79	0.389
562.00	0.387
562.21	0.385
562.41	0.384
562.62	0.383
562.82	0.382
563.03	0.379
563.23	0.379
563.44	0.379
563.64	0.376
563.85	0.378
564.05	0.372
564.26	0.372
564.46	0.372
564.67	0.373
564.87	0.369
565.08	0.367
565.28	0.367
565.49	0.368
565.69	0.366
565.90	0.363
566.10	0.366
566.31	0.360
566.51	0.362
566.72	0.363
566.92	0.358
567.13	0.357
567.33	0.356
567.54	0.356
567.74	0.355
567.95	0.351
568.15	0.352
568.36	0.352
568.56	0.351
568.77	0.347
568.97	0.345
569.18	0.345
569.38	0.345
569.59	0.345
569.79	0.343
570.00	0.341
570.20	0.340
570.41	0.339
570.61	0.337
570.82	0.339
571.02	0.335
571.23	0.337
571.43	0.333
571.64	0.332
571.84	0.332
572.05	0.330
572.25	0.330
572.45	0.329
572.66	0.326
572.86	0.326
573.07	0.324
573.27	0.324
573.48	0.324
573.68	0.320
573.89	0.319
574.09	0.320
574.30	0.319
574.50	0.317
574.70	0.318
574.91	0.316
575.11	0.316
575.32	0.316
575.52	0.313
575.73	0.313
575.93	0.313
576.14	0.312
576.34	0.311
576.54	0.310
576.75	0.308
576.95	0.307
577.16	0.305
577.36	0.304
577.57	0.304
577.77	0.302
577.97	0.300
578.18	0.302
578.38	0.298
578.59	0.297
578.79	0.295
579.00	0.296
579.20	0.296
579.40	0.295
579.61	0.295
579.81	0.294
580.02	0.292
580.22	0.291
580.42	0.290
580.63	0.290
580.83	0.289
581.04	0.288
581.24	0.287
581.45	0.286
581.65	0.285
581.85	0.285
582.06	0.283
582.26	0.283
582.47	0.282
582.67	0.282
582.87	0.281
583.08	0.280
583.28	0.280
583.48	0.279
583.69	0.276
583.89	0.277
584.10	0.278
584.30	0.276
584.50	0.275
584.71	0.275
584.91	0.274
585.12	0.272
585.32	0.273
585.52	0.271
585.73	0.270
585.93	0.270
586.13	0.269
586.34	0.268
586.54	0.267
586.75	0.266
586.95	0.265
587.15	0.265
587.36	0.265
587.56	0.264
587.76	0.263
587.97	0.263
588.17	0.261
588.37	0.261
588.58	0.262
588.78	0.259
588.98	0.260
589.19	0.259
589.39	0.257
589.60	0.259
589.80	0.256
590.00	0.255
590.21	0.255
590.41	0.254
590.61	0.254
590.82	0.253
591.02	0.253
591.22	0.251
591.43	0.252
591.63	0.251
591.83	0.250
592.04	0.249
592.24	0.250
592.44	0.248
592.65	0.246
592.85	0.247
593.05	0.247
593.26	0.246
593.46	0.245
593.66	0.246
593.86	0.244
594.07	0.242
594.27	0.242
594.47	0.241
594.68	0.240
594.88	0.241
595.08	0.241
595.29	0.241
595.49	0.239
595.69	0.238
595.90	0.237
596.10	0.238
596.30	0.238
596.50	0.237
596.71	0.237
596.91	0.236
597.11	0.236
597.32	0.236
597.52	0.235
597.72	0.234
597.93	0.234
598.13	0.233
598.33	0.233
598.53	0.232
598.74	0.232
598.94	0.231
599.14	0.231
599.35	0.231
599.55	0.230
599.75	0.229
599.95	0.229
600.16	0.229
600.36	0.227
600.56	0.228
600.76	0.227
600.97	0.225
601.17	0.225
601.37	0.225
601.58	0.224
601.78	0.224
601.98	0.223
602.18	0.222
602.39	0.222
602.59	0.222
602.79	0.221
602.99	0.221
603.20	0.220
603.40	0.220
603.60	0.219
603.80	0.219
604.01	0.219
604.21	0.218
604.41	0.217
604.61	0.216
604.82	0.216
605.02	0.216
605.22	0.216
605.42	0.216
605.62	0.216
605.83	0.215
606.03	0.214
606.23	0.215
606.43	0.214
606.64	0.214
606.84	0.213
607.04	0.213
607.24	0.213
607.45	0.213
607.65	0.212
607.85	0.213
608.05	0.211
608.25	0.210
608.46	0.210
608.66	0.210
608.86	0.209
609.06	0.208
609.26	0.207
609.47	0.208
609.67	0.206
609.87	0.207
610.07	0.207
610.28	0.206
610.48	0.206
610.68	0.206
610.88	0.205
611.08	0.206
611.29	0.204
611.49	0.204
611.69	0.204
611.89	0.202
612.09	0.202
612.29	0.202
612.50	0.201
612.70	0.201
612.90	0.200
613.10	0.200
613.30	0.199
613.51	0.199
613.71	0.199
613.91	0.203
614.11	0.199
614.31	0.198
614.51	0.198
614.72	0.198
614.92	0.198
615.12	0.197
615.32	0.198
615.52	0.198
615.72	0.198
615.93	0.198
616.13	0.197
616.33	0.197
616.53	0.197
616.73	0.197
616.93	0.195
617.14	0.196
617.34	0.196
617.54	0.195
617.74	0.196
617.94	0.195
618.14	0.194
618.34	0.194
618.55	0.193
618.75	0.193
618.95	0.194
619.15	0.194
619.35	0.192
619.55	0.191
619.75	0.192
619.96	0.190
620.16	0.191
620.36	0.191
620.56	0.190
620.76	0.190
620.96	0.189
621.16	0.189
621.36	0.189
621.57	0.189
621.77	0.190
621.97	0.189
622.17	0.188
622.37	0.188
622.57	0.188
622.77	0.188
622.97	0.187
623.18	0.187
623.38	0.187
623.58	0.186
623.78	0.186
623.98	0.185
624.18	0.184
624.38	0.184
624.58	0.184
624.78	0.185
624.98	0.185
625.19	0.184
625.39	0.184
625.59	0.184
625.79	0.185
625.99	0.184
626.19	0.184
626.39	0.184
626.59	0.184
626.79	0.183
626.99	0.183
627.19	0.183
627.40	0.183
627.60	0.183
627.80	0.183
628.00	0.182
628.20	0.182
628.40	0.182
628.60	0.182
628.80	0.181
629.00	0.181
629.20	0.180
629.40	0.180
629.60	0.179
629.80	0.179
630.00	0.179
630.20	0.179
630.41	0.178
630.61	0.178
630.81	0.178
631.01	0.178
631.21	0.177
631.41	0.177
631.61	0.177
631.81	0.176
632.01	0.176
632.21	0.176
632.41	0.175
632.61	0.175
632.81	0.175
633.01	0.176
633.21	0.175
633.41	0.176
633.61	0.175
633.81	0.175
634.01	0.174
634.21	0.174
634.41	0.174
634.61	0.174
634.81	0.173
635.01	0.173
635.22	0.173
635.42	0.172
635.62	0.172
635.82	0.173
636.02	0.172
636.22	0.172
636.42	0.171
636.62	0.171
636.82	0.171
637.02	0.171
637.22	0.171
637.42	0.170
637.62	0.169
637.82	0.170
638.02	0.169
638.22	0.169
638.42	0.168
638.62	0.168
638.82	0.168
639.02	0.167
639.22	0.167
639.42	0.166
639.62	0.166
639.82	0.165
640.02	0.166
640.22	0.165
640.42	0.165
640.62	0.165
640.82	0.165
641.02	0.165
641.22	0.165
641.42	0.164
641.61	0.165
641.81	0.165
642.01	0.165
642.21	0.165
642.41	0.165
642.61	0.164
642.81	0.164
643.01	0.164
643.21	0.163
643.41	0.163
643.61	0.163
643.81	0.162
644.01	0.161
644.21	0.161
644.41	0.161
644.61	0.161
644.81	0.161
645.01	0.161
645.21	0.161
645.41	0.160
645.61	0.160
645.81	0.160
646.01	0.160
646.21	0.161
646.40	0.159
646.60	0.159
646.80	0.160
647.00	0.159
647.20	0.158
647.40	0.158
647.60	0.158
647.80	0.158
648.00	0.158
648.20	0.157
648.40	0.157
648.60	0.156
648.80	0.156
649.00	0.156
649.20	0.156
649.39	0.155
649.59	0.154
649.79	0.154
649.99	0.154
650.19	0.153
650.39	0.153
650.59	0.153
650.79	0.153
650.99	0.153
651.19	0.152
651.39	0.152
651.58	0.152
651.78	0.152
651.98	0.152
652.18	0.151
652.38	0.151
652.58	0.151
652.78	0.150
652.98	0.150
653.18	0.151
653.38	0.151
653.57	0.150
653.77	0.151
653.97	0.150
654.17	0.150
654.37	0.149
654.57	0.149
654.77	0.149
654.97	0.149
655.16	0.149
655.36	0.148
655.56	0.148
655.76	0.147
655.96	0.148
656.16	0.147
656.36	0.147
656.56	0.147
656.75	0.147
656.95	0.146
657.15	0.146
657.35	0.146
657.55	0.145
657.75	0.145
657.95	0.146
658.14	0.145
658.34	0.145
658.54	0.144
658.74	0.144
658.94	0.143
659.14	0.143
659.34	0.143
659.53	0.143
659.73	0.142
659.93	0.142
660.13	0.141
660.33	0.141
660.53	0.141
660.72	0.142
660.92	0.142
661.12	0.141
661.32	0.141
661.52	0.140
661.72	0.140
661.91	0.140
662.11	0.140
662.31	0.140
662.51	0.140
662.71	0.139
662.90	0.139
663.10	0.139
663.30	0.138
663.50	0.139
663.70	0.138
663.90	0.138
664.09	0.138
664.29	0.137
664.49	0.137
664.69	0.137
664.89	0.137
665.08	0.137
665.28	0.136
665.48	0.136
665.68	0.135
665.88	0.135
666.07	0.134
666.27	0.134
666.47	0.134
666.67	0.134
666.87	0.134
667.06	0.133
667.26	0.133
667.46	0.133
667.66	0.133
667.85	0.133
668.05	0.133
668.25	0.133
668.45	0.133
668.65	0.132
668.84	0.132
669.04	0.132
669.24	0.132
669.44	0.131
669.63	0.131
669.83	0.131
670.03	0.130
670.23	0.129
670.42	0.129
670.62	0.129
670.82	0.128
671.02	0.128
671.22	0.128
671.41	0.127
671.61	0.128
671.81	0.128
672.01	0.128
672.20	0.127
672.40	0.127
672.60	0.127
672.80	0.127
672.99	0.127
673.19	0.126
673.39	0.127
673.58	0.127
673.78	0.126
673.98	0.126
674.18	0.126
674.37	0.125
674.57	0.125
674.77	0.126
674.97	0.125
675.16	0.125
675.36	0.124
675.56	0.124
675.75	0.123
675.95	0.123
676.15	0.123
676.35	0.123
676.54	0.122
676.74	0.122
676.94	0.122
677.13	0.121
677.33	0.120
677.53	0.121
677.73	0.121
677.92	0.121
678.12	0.121
678.32	0.120
678.51	0.120
678.71	0.121
678.91	0.120
679.11	0.120
679.30	0.120
679.50	0.120
679.70	0.119
679.89	0.119
680.09	0.119
680.29	0.119
680.48	0.118
680.68	0.118
680.88	0.118
681.07	0.118
681.27	0.118
681.47	0.117
681.66	0.117
681.86	0.116
682.06	0.116
682.25	0.116
682.45	0.116
682.65	0.116
682.84	0.115
683.04	0.115
683.24	0.115
683.43	0.115
683.63	0.114
683.83	0.114
684.02	0.114
684.22	0.114
684.42	0.114
684.61	0.114
684.81	0.114
685.01	0.113
685.20	0.113
685.40	0.113
685.60	0.113
685.79	0.113
685.99	0.113
686.19	0.113
686.38	0.113
686.58	0.113
686.77	0.113
686.97	0.113
687.17	0.113
687.36	0.112
687.56	0.112
687.76	0.112
687.95	0.112
688.15	0.111
688.34	0.111
688.54	0.110
688.74	0.110
688.93	0.110
689.13	0.110
689.33	0.110
689.52	0.109
689.72	0.109
689.91	0.109
690.11	0.108
690.31	0.108
690.50	0.109
690.70	0.109
690.89	0.108
691.09	0.107
691.29	0.108
691.48	0.107
691.68	0.107
691.87	0.107
692.07	0.107
692.27	0.107
692.46	0.107
692.66	0.107
692.85	0.106
693.05	0.106
693.25	0.106
693.44	0.105
693.64	0.105
693.83	0.105
694.03	0.104
694.22	0.104
694.42	0.104
694.62	0.104
694.81	0.104
695.01	0.104
695.20	0.104
695.40	0.103
695.59	0.103
695.79	0.102
695.99	0.102
696.18	0.102
696.38	0.102
696.57	0.102
696.77	0.101
696.96	0.102
697.16	0.102
697.36	0.102
697.55	0.102
697.75	0.102
697.94	0.101
698.14	0.101
698.33	0.101
698.53	0.101
698.72	0.101
698.92	0.101
699.11	0.101
699.31	0.100
699.51	0.100
699.70	0.100
699.90	0.100
700.09	0.100
700.29	0.099
700.48	0.099
700.68	0.099
700.87	0.099
701.07	0.098
701.26	0.098
701.46	0.098
701.65	0.098
701.85	0.098
702.04	0.098
702.24	0.098
702.43	0.098
702.63	0.098
702.82	0.098
703.02	0.097
703.21	0.097
703.41	0.097
703.60	0.097
703.80	0.097
703.99	0.096
704.19	0.096
704.38	0.096
704.58	0.095
704.77	0.096
704.97	0.096
705.16	0.096
705.36	0.096
705.55	0.096
705.75	0.096
705.94	0.096
706.14	0.096
706.33	0.096
706.53	0.096
706.72	0.096
706.92	0.095
707.11	0.095
707.31	0.095
707.50	0.095
707.70	0.095
707.89	0.095
708.09	0.095
708.28	0.094
708.48	0.094
708.67	0.094
708.86	0.094
709.06	0.094
709.25	0.094
709.45	0.094
709.64	0.093
709.84	0.093
710.03	0.093
710.23	0.092
710.42	0.092
710.62	0.092
710.81	0.092
711.00	0.092
711.20	0.092
711.39	0.091
711.59	0.091
711.78	0.092
711.98	0.092
712.17	0.092
712.37	0.092
712.56	0.092
712.75	0.092
712.95	0.092
713.14	0.092
713.34	0.092
713.53	0.092
713.73	0.092
713.92	0.092
714.11	0.092
714.31	0.092
714.50	0.091
714.70	0.091
714.89	0.091
715.08	0.091
715.28	0.091
715.47	0.090
715.67	0.090
715.86	0.090
716.06	0.091
716.25	0.090
716.44	0.090
716.64	0.090
716.83	0.090
717.03	0.090
717.22	0.089
717.41	0.089
717.61	0.089
717.80	0.089
717.99	0.089
718.19	0.089
718.38	0.090
718.58	0.089
718.77	0.089
718.96	0.089
719.16	0.089
719.35	0.089
719.55	0.089
719.74	0.089
719.93	0.088
720.13	0.088
720.32	0.088
720.51	0.088
720.71	0.088
720.90	0.088
721.10	0.087
721.29	0.087
721.48	0.087
721.68	0.087
721.87	0.087
722.06	0.087
722.26	0.087
722.45	0.087
722.64	0.088
722.84	0.087
723.03	0.088
723.22	0.088
723.42	0.087
723.61	0.087
723.80	0.087
724.00	0.088
724.19	0.088
724.38	0.087
724.58	0.087
724.77	0.087
724.96	0.087
725.16	0.087
725.35	0.087
725.54	0.087
725.74	0.087
725.93	0.087
726.12	0.087
726.32	0.087
726.51	0.087
726.70	0.087
726.90	0.087
727.09	0.087
727.28	0.087
727.48	0.087
727.67	0.087
727.86	0.087
728.06	0.087
728.25	0.087
728.44	0.087
728.64	0.086
728.83	0.086
729.02	0.086
729.21	0.087
729.41	0.086
729.60	0.086
729.79	0.086
729.99	0.086
730.18	0.086
730.37	0.086
730.56	0.086
730.76	0.085
730.95	0.086
731.14	0.086
731.34	0.086
731.53	0.086
731.72	0.086
731.91	0.086
732.11	0.086
732.30	0.086
732.49	0.087
732.69	0.087
732.88	0.087
733.07	0.087
733.26	0.087
733.46	0.086
733.65	0.086
733.84	0.086
734.03	0.086
734.23	0.086
734.42	0.086
734.61	0.086
734.80	0.085
735.00	0.086
735.19	0.086
735.38	0.085
735.57	0.085
735.77	0.085
735.96	0.085
736.15	0.085
736.34	0.085
736.54	0.086
736.73	0.085
736.92	0.085
737.11	0.085
737.31	0.085
737.50	0.086
737.69	0.086
737.88	0.086
738.07	0.086
738.27	0.086
738.46	0.086
738.65	0.086
738.84	0.086
739.04	0.086
739.23	0.086
739.42	0.085
739.61	0.085
739.80	0.085
740.00	0.085
740.19	0.085
740.38	0.085
740.57	0.085
740.76	0.084
740.96	0.084
741.15	0.084
741.34	0.084
741.53	0.084
741.72	0.084
741.92	0.084
742.11	0.084
742.30	0.084
742.49	0.084
742.68	0.084
742.88	0.084
743.07	0.084
743.26	0.084
743.45	0.084
743.64	0.083
743.84	0.083
744.03	0.083
744.22	0.083
744.41	0.082
744.60	0.082
744.79	0.082
744.99	0.082
745.18	0.082
745.37	0.082
745.56	0.082
745.75	0.082
745.94	0.082
746.14	0.082
746.33	0.082
746.52	0.083
746.71	0.082
746.90	0.082
747.09	0.082
747.28	0.082
747.48	0.082
747.67	0.081
747.86	0.082
748.05	0.082
748.24	0.082
748.43	0.081
748.62	0.081
748.82	0.081
749.01	0.081
749.20	0.081
749.39	0.081
749.58	0.081
749.77	0.082
749.96	0.081
750.16	0.081
750.35	0.081
750.54	0.081
750.73	0.081
750.92	0.081
751.11	0.081
751.30	0.081
751.49	0.081
751.68	0.081
751.88	0.081
752.07	0.080
752.26	0.081
752.45	0.081
752.64	0.080
752.83	0.081
753.02	0.081
753.21	0.081
753.40	0.080
753.60	0.080
753.79	0.080
753.98	0.080
754.17	0.080
754.36	0.079
754.55	0.079
754.74	0.079
754.93	0.079
755.12	0.079
755.31	0.079
755.50	0.079
755.70	0.078
755.89	0.078
756.08	0.078
756.27	0.078
756.46	0.079
756.65	0.078
756.84	0.078
757.03	0.078
757.22	0.078
757.41	0.078
757.60	0.078
757.79	0.078
757.98	0.078
758.17	0.078
758.36	0.078
758.56	0.077
758.75	0.077
758.94	0.077
759.13	0.077
759.32	0.077
759.51	0.077
759.70	0.077
759.89	0.077
760.08	0.078
760.27	0.077
760.46	0.078
760.65	0.078
760.84	0.078
761.03	0.078
761.22	0.078
761.41	0.078
761.60	0.078
761.79	0.078
761.98	0.078
762.17	0.077
762.36	0.077
762.55	0.077
762.74	0.077
762.93	0.077
763.12	0.077
763.31	0.076
763.50	0.076
763.69	0.077
763.88	0.076
764.07	0.076
764.26	0.076
764.45	0.076
764.64	0.076
764.83	0.076
765.02	0.076
765.21	0.075
765.40	0.076
765.59	0.075
765.78	0.075
765.97	0.076
766.16	0.076
766.35	0.076
766.54	0.076
766.73	0.076
766.92	0.076
767.11	0.075
767.30	0.075
767.49	0.075
767.68	0.075
767.87	0.075
768.06	0.075
768.25	0.075
768.44	0.075
768.63	0.074
768.82	0.074
769.01	0.074
769.20	0.075
769.39	0.075
769.58	0.075
769.77	0.075
769.96	0.075
770.15	0.075
770.34	0.075
770.53	0.074
770.72	0.075
770.91	0.074
771.10	0.074
771.29	0.074
771.47	0.073
771.66	0.073
771.85	0.074
772.04	0.074
772.23	0.074
772.42	0.073
772.61	0.074
772.80	0.074
772.99	0.074
773.18	0.073
773.37	0.074
773.56	0.074
773.75	0.074
773.94	0.074
774.13	0.073
774.31	0.074
774.50	0.074
774.69	0.074
774.88	0.073
775.07	0.073
775.26	0.073
775.45	0.073
775.64	0.073
775.83	0.073
776.02	0.073
776.21	0.073
776.40	0.073
776.58	0.072
776.77	0.073
776.96	0.073
777.15	0.073
777.34	0.073
777.53	0.073
777.72	0.073
777.91	0.073
778.10	0.073
778.28	0.072
778.47	0.073
778.66	0.072
778.85	0.072
779.04	0.072
779.23	0.071
779.42	0.071
779.61	0.071
779.79	0.071
779.98	0.070
780.17	0.071
780.36	0.070
780.55	0.070
780.74	0.070
780.93	0.070
781.12	0.070
781.30	0.070
781.49	0.070
781.68	0.070
781.87	0.071
782.06	0.071
782.25	0.070
782.44	0.071
782.62	0.071
782.81	0.072
783.00	0.071
783.19	0.071
783.38	0.071
783.57	0.071
783.75	0.071
783.94	0.071
784.13	0.071
784.32	0.071
784.51	0.070
784.70	0.071
784.88	0.070
785.07	0.070
785.26	0.070
785.45	0.070
785.64	0.070
785.83	0.070
786.01	0.070
786.20	0.070
786.39	0.070
786.58	0.070
786.77	0.069
786.95	0.069
787.14	0.069
787.33	0.069
787.52	0.069
787.71	0.069
787.90	0.069
788.08	0.069
788.27	0.069
788.46	0.069
788.65	0.069
788.84	0.069
789.02	0.069
789.21	0.069
789.40	0.069
789.59	0.069
789.77	0.070
789.96	0.069
790.15	0.070
790.34	0.070
790.53	0.070
790.71	0.069
790.90	0.069
791.09	0.069
791.28	0.069
791.46	0.069
791.65	0.069
791.84	0.069
792.03	0.068
792.22	0.068
792.40	0.068
792.59	0.068
792.78	0.068
792.97	0.069
793.15	0.069
793.34	0.069
793.53	0.069
793.72	0.069
793.90	0.069
794.09	0.069
794.28	0.069
794.47	0.069
794.65	0.069
794.84	0.069
795.03	0.069
795.22	0.069
795.40	0.069
795.59	0.068
795.78	0.068
795.97	0.069
796.15	0.069
796.34	0.069
796.53	0.069
796.71	0.069
796.90	0.069
797.09	0.069
797.28	0.069
797.46	0.069
797.65	0.069
797.84	0.069
798.02	0.069
798.21	0.068
798.40	0.068
798.59	0.068
798.77	0.067
798.96	0.067
799.15	0.067
799.33	0.067
799.52	0.066
799.71	0.066
799.90	0.066
800.08	0.066
800.27	0.066
800.46	0.066
800.64	0.066
800.83	0.066
801.02	0.066
801.20	0.066
801.39	0.066
801.58	0.066
801.76	0.066
801.95	0.066
802.14	0.066
802.32	0.066
802.51	0.066
802.70	0.066
802.88	0.066
803.07	0.066
803.26	0.066
803.44	0.066
803.63	0.066
803.82	0.066
804.00	0.066
804.19	0.066
804.38	0.066
804.56	0.066
804.75	0.066
804.94	0.066
805.12	0.066
805.31	0.066
805.50	0.067
805.68	0.067
805.87	0.067
806.06	0.066
806.24	0.067
806.43	0.066
806.62	0.067
806.80	0.066
806.99	0.066
807.17	0.066
807.36	0.066
807.55	0.066
807.73	0.066
807.92	0.066
808.11	0.066
808.29	0.066
808.48	0.065
808.66	0.066
808.85	0.065
809.04	0.065
809.22	0.065
809.41	0.066
809.59	0.065
809.78	0.065
809.97	0.065
810.15	0.065
810.34	0.065
810.53	0.065
810.71	0.064
810.90	0.065
811.08	0.065
811.27	0.065
811.45	0.065
811.64	0.065
811.83	0.065
812.01	0.064
812.20	0.064
812.38	0.065
812.57	0.065
812.76	0.065
812.94	0.065
813.13	0.065
813.31	0.065
813.50	0.065
813.68	0.065
813.87	0.065
814.06	0.065
814.24	0.065
814.43	0.065
814.61	0.065
814.80	0.065
814.98	0.065
815.17	0.065
815.36	0.065
815.54	0.065
815.73	0.065
815.91	0.065
816.10	0.065
816.28	0.065
816.47	0.065
816.65	0.065
816.84	0.065
817.03	0.065
817.21	0.065
817.40	0.065
817.58	0.065
817.77	0.066
817.95	0.065
818.14	0.066
818.32	0.066
818.51	0.066
818.69	0.066
818.88	0.066
819.06	0.066
819.25	0.066
819.43	0.065
819.62	0.065
819.80	0.065
819.99	0.066
820.18	0.066
820.36	0.066
820.55	0.066
820.73	0.065
820.92	0.065
821.10	0.065
821.29	0.065
821.47	0.066
821.66	0.066
821.84	0.066
822.03	0.066
822.21	0.065
822.40	0.065
822.58	0.065
822.77	0.065
822.95	0.065
823.14	0.065
823.32	0.065
823.50	0.065
823.69	0.065
823.87	0.065
824.06	0.065
824.24	0.066
824.43	0.065
824.61	0.065
824.80	0.066
824.98	0.066
825.17	0.067
825.35	0.067
825.54	0.067
825.72	0.066
825.91	0.067
826.09	0.066
826.28	0.066
826.46	0.067
826.64	0.067
826.83	0.067
827.01	0.067
827.20	0.067
827.38	0.067
827.57	0.067
827.75	0.067
827.94	0.068
828.12	0.068
828.31	0.068
828.49	0.068
828.67	0.068
828.86	0.068
829.04	0.068
829.23	0.068
829.41	0.068
829.60	0.069
829.78	0.069
829.96	0.069
830.15	0.069
830.33	0.070
830.52	0.070
830.70	0.070
830.88	0.070
831.07	0.070
831.25	0.070
831.44	0.070
831.62	0.070
831.81	0.070
831.99	0.070
832.17	0.070
832.36	0.070
832.54	0.070
832.73	0.070
832.91	0.070
833.09	0.070
833.28	0.070
833.46	0.070
833.65	0.070
833.83	0.070
834.01	0.070
834.20	0.070
834.38	0.070
834.56	0.071
834.75	0.071
834.93	0.071
835.12	0.071
835.30	0.071
835.48	0.072
835.67	0.072
835.85	0.072
836.03	0.072
836.22	0.072
836.40	0.072
836.59	0.072
836.77	0.072
836.95	0.072
837.14	0.072
837.32	0.071
837.50	0.071
837.69	0.071
837.87	0.071
838.05	0.071
838.24	0.071
838.42	0.071
838.60	0.071
838.79	0.072
838.97	0.071
839.15	0.072
839.34	0.072
839.52	0.072
839.70	0.072
839.89	0.072
840.07	0.072
840.25	0.072
840.44	0.072
840.62	0.072
840.80	0.072
840.99	0.072
841.17	0.072
841.35	0.072
841.54	0.072
841.72	0.072
841.90	0.073
842.09	0.073
842.27	0.073
842.45	0.073
842.64	0.073
842.82	0.073
843.00	0.074
843.19	0.073
843.37	0.073
843.55	0.073
843.73	0.073
843.92	0.073
844.10	0.072
844.28	0.072
844.47	0.073
844.65	0.072
844.83	0.073
845.01	0.073
845.20	0.073
845.38	0.073
845.56	0.073
845.75	0.073
845.93	0.073
846.11	0.073
846.29	0.073
846.48	0.073
846.66	0.073
846.84	0.073
847.02	0.073
847.21	0.072
847.39	0.073
847.57	0.073
847.76	0.073
847.94	0.073
848.12	0.073
848.30	0.073
848.49	0.073
848.67	0.073
848.85	0.073
849.03	0.073
849.22	0.073
849.40	0.073
849.58	0.073
849.76	0.074
849.95	0.074
850.13	0.074
850.31	0.074
850.49	0.074
850.67	0.074
850.86	0.074
851.04	0.074
851.22	0.074
851.40	0.073
851.59	0.073
851.77	0.073
851.95	0.073
852.13	0.073
852.31	0.073
852.50	0.074
852.68	0.074
852.86	0.074
853.04	0.074
853.23	0.074
853.41	0.074
853.59	0.074
853.77	0.074
853.95	0.074
854.14	0.074
854.32	0.073
854.50	0.073
854.68	0.073
854.86	0.074
855.04	0.074
855.23	0.074
855.41	0.074
855.59	0.074
855.77	0.074
855.95	0.075
856.14	0.075
856.32	0.074
856.50	0.074
856.68	0.074
856.86	0.075
857.04	0.074
857.23	0.074
857.41	0.074
857.59	0.073
857.77	0.073
857.95	0.073
858.13	0.073
858.32	0.074
858.50	0.074
858.68	0.073
858.86	0.073
859.04	0.074
859.22	0.074
859.41	0.074
859.59	0.074
859.77	0.074
859.95	0.074
860.13	0.074
860.31	0.074
860.49	0.074
860.68	0.074
860.86	0.074
861.04	0.074
861.22	0.074
861.40	0.074
861.58	0.074
861.76	0.073
861.94	0.074
862.13	0.074
862.31	0.074
862.49	0.074
862.67	0.074
862.85	0.074
863.03	0.074
863.21	0.075
863.39	0.075
863.57	0.075
863.76	0.075
863.94	0.075
864.12	0.075
864.30	0.075
864.48	0.075
864.66	0.075
864.84	0.075
865.02	0.075
865.20	0.075
865.38	0.075
865.57	0.075
865.75	0.075
865.93	0.075
866.11	0.075
866.29	0.075
866.47	0.076
866.65	0.076
866.83	0.076
867.01	0.076
867.19	0.075
867.37	0.075
867.55	0.075
867.73	0.075
867.92	0.075
868.10	0.075
868.28	0.075
868.46	0.075
868.64	0.074
868.82	0.075
869.00	0.075
869.18	0.075
869.36	0.075
869.54	0.075
869.72	0.075
869.90	0.076
870.08	0.075
870.26	0.075
870.44	0.076
870.62	0.076
870.80	0.076
870.98	0.076
871.16	0.076
871.34	0.075
871.53	0.076
871.71	0.075
871.89	0.075
872.07	0.076
872.25	0.076
872.43	0.076
872.61	0.076
872.79	0.076
872.97	0.076
873.15	0.076
873.33	0.077
873.51	0.077
873.69	0.077
873.87	0.077
874.05	0.077
874.23	0.077
874.41	0.077
874.59	0.077
874.77	0.077
874.95	0.077
875.13	0.077
875.31	0.077
875.49	0.077
875.67	0.077
875.85	0.077
876.03	0.077
876.21	0.077
876.39	0.077
876.57	0.077
876.75	0.077
876.93	0.077
877.11	0.077
877.29	0.077
877.47	0.077
877.65	0.078
877.82	0.078
878.00	0.078
878.18	0.078
878.36	0.078
878.54	0.079
878.72	0.078
878.90	0.078
879.08	0.078
879.26	0.078
879.44	0.079
879.62	0.079
879.80	0.078
879.98	0.079
880.16	0.078
880.34	0.078
880.52	0.078
880.70	0.078
880.88	0.078
881.06	0.078
881.24	0.078
881.42	0.077
881.59	0.077
881.77	0.077
881.95	0.077
882.13	0.077
882.31	0.077
882.49	0.077
882.67	0.078
882.85	0.077
883.03	0.077
883.21	0.078
883.39	0.078
883.57	0.078
883.75	0.078
883.92	0.078
884.10	0.078
884.28	0.078
884.46	0.079
884.64	0.079
884.82	0.079
885.00	0.079
885.18	0.079
885.36	0.079
885.54	0.079
885.71	0.080
885.89	0.080
886.07	0.079
886.25	0.080
886.43	0.079
886.61	0.079
886.79	0.079
886.97	0.079
887.15	0.079
887.32	0.079
887.50	0.079
887.68	0.079
887.86	0.079
888.04	0.079
888.22	0.079
888.40	0.079
888.57	0.080
888.75	0.080
888.93	0.080
889.11	0.080
889.29	0.081
889.47	0.081
889.65	0.081
889.82	0.081
890.00	0.081
890.18	0.081
890.36	0.081
890.54	0.081
890.72	0.081
890.90	0.081
891.07	0.081
891.25	0.081
891.43	0.080
891.61	0.080
891.79	0.080
891.97	0.080
892.14	0.080
892.32	0.080
892.50	0.080
892.68	0.080
892.86	0.081
893.03	0.081
893.21	0.081
893.39	0.081
893.57	0.082
893.75	0.082
893.93	0.082
894.10	0.082
894.28	0.082
894.46	0.082
894.64	0.082
894.82	0.082
894.99	0.082
895.17	0.082
895.35	0.082
895.53	0.081
895.71	0.081
895.88	0.081
896.06	0.081
896.24	0.082
896.42	0.082
896.59	0.082
896.77	0.082
896.95	0.082
897.13	0.082
897.31	0.082
897.48	0.082
897.66	0.082
897.84	0.082
898.02	0.082
898.19	0.082
898.37	0.082
898.55	0.082
898.73	0.082
898.91	0.082
899.08	0.082
899.26	0.082
899.44	0.082
899.62	0.083
899.79	0.083
899.97	0.083
900.15	0.083
900.33	0.083
900.50	0.083
900.68	0.083
900.86	0.083
901.04	0.083
901.21	0.083
901.39	0.083
901.57	0.083
901.74	0.083
901.92	0.082
902.10	0.083
902.28	0.083
902.45	0.083
902.63	0.083
902.81	0.083
902.99	0.083
903.16	0.083
903.34	0.084
903.52	0.084
903.69	0.084
903.87	0.084
904.05	0.084
904.22	0.084
904.40	0.084
904.58	0.084
904.76	0.084
904.93	0.084
905.11	0.084
905.29	0.084
905.46	0.084
905.64	0.084
905.82	0.085
905.99	0.084
906.17	0.084
906.35	0.085
906.53	0.085
906.70	0.085
906.88	0.085
907.06	0.085
907.23	0.085
907.41	0.085
907.59	0.085
907.76	0.085
907.94	0.085
908.12	0.085
908.29	0.085
908.47	0.085
908.65	0.086
908.82	0.086
909.00	0.085
909.18	0.086
909.35	0.086
909.53	0.086
909.71	0.085
909.88	0.086
910.06	0.086
910.23	0.085
910.41	0.086
910.59	0.086
910.76	0.085
910.94	0.086
911.12	0.086
911.29	0.086
911.47	0.086
911.65	0.086
911.82	0.086
912.00	0.086
912.17	0.086
912.35	0.087
912.53	0.087
912.70	0.087
912.88	0.088
913.06	0.088
913.23	0.088
913.41	0.088
913.58	0.089
913.76	0.089
913.94	0.088
914.11	0.089
914.29	0.088
914.46	0.089
914.64	0.089
914.82	0.088
914.99	0.089
915.17	0.089
915.34	0.089
915.52	0.089
915.70	0.089
915.87	0.089
916.05	0.089
916.22	0.090
916.40	0.090
916.57	0.090
916.75	0.090
916.93	0.090
917.10	0.090
917.28	0.090
917.45	0.090
917.63	0.090
917.80	0.090
917.98	0.090
918.16	0.090
918.33	0.090
918.51	0.090
918.68	0.090
918.86	0.091
919.03	0.091
919.21	0.091
919.39	0.091
919.56	0.092
919.74	0.092
919.91	0.092
920.09	0.093
920.26	0.093
920.44	0.093
920.61	0.093
920.79	0.093
920.96	0.093
921.14	0.093
921.31	0.093
921.49	0.094
921.67	0.094
921.84	0.094
922.02	0.094
922.19	0.095
922.37	0.095
922.54	0.096
922.72	0.096
922.89	0.096
923.07	0.096
923.24	0.097
923.42	0.097
923.59	0.097
923.77	0.097
923.94	0.098
924.12	0.098
924.29	0.098
924.47	0.098
924.64	0.099
924.82	0.099
924.99	0.099
925.17	0.100
925.34	0.100
925.52	0.100
925.69	0.100
925.87	0.101
926.04	0.101
926.22	0.101
926.39	0.101
926.57	0.102
926.74	0.102
926.91	0.103
927.09	0.103
927.26	0.103
927.44	0.103
927.61	0.104
927.79	0.104
927.96	0.104
928.14	0.105
928.31	0.105
928.49	0.105
928.66	0.106
928.84	0.106
929.01	0.107
929.18	0.107
929.36	0.108
929.53	0.108
929.71	0.109
929.88	0.109
930.06	0.109
930.23	0.110
930.41	0.110
930.58	0.111
930.75	0.111
930.93	0.111
931.10	0.111
931.28	0.112
931.45	0.112
931.63	0.113
931.80	0.113
931.97	0.113
932.15	0.114
932.32	0.114
932.50	0.114
932.67	0.115
932.84	0.116
933.02	0.117
933.19	0.117
933.37	0.118
933.54	0.118
933.71	0.118
933.89	0.120
934.06	0.120
934.24	0.120
934.41	0.121
934.58	0.121
934.76	0.121
934.93	0.122
935.11	0.122
935.28	0.122
935.45	0.122
935.63	0.123
935.80	0.123
935.98	0.124
936.15	0.123
936.32	0.124
936.50	0.125
936.67	0.125
936.84	0.125
937.02	0.126
937.19	0.127
937.36	0.128
937.54	0.128
937.71	0.129
937.89	0.129
938.06	0.130
938.23	0.130
938.41	0.131
938.58	0.131
938.75	0.132
938.93	0.132
939.10	0.132
939.27	0.132
939.45	0.133
939.62	0.133
939.79	0.135
939.97	0.135
940.14	0.136
940.31	0.137
940.49	0.137
940.66	0.138
940.83	0.139
941.01	0.140
941.18	0.141
941.35	0.141
941.53	0.142
941.70	0.143
941.87	0.143
942.05	0.144
942.22	0.144
942.39	0.146
942.57	0.146
942.74	0.147
942.91	0.147
943.08	0.148
943.26	0.148
943.43	0.149
943.60	0.149
943.78	0.149
943.95	0.150
944.12	0.150
944.29	0.151
944.47	0.152
944.64	0.153
944.81	0.154
944.99	0.154
945.16	0.155
945.33	0.155
945.50	0.157
945.68	0.158
945.85	0.158
946.02	0.160
946.20	0.161
946.37	0.162
946.54	0.162
946.71	0.163
946.89	0.163
947.06	0.164
947.23	0.165
947.40	0.166
947.58	0.166
947.75	0.168
947.92	0.169
948.09	0.169
948.27	0.170
948.44	0.172
948.61	0.172
948.78	0.173
948.96	0.175
949.13	0.175
949.30	0.177
949.47	0.177
949.65	0.179
949.82	0.181
949.99	0.181
950.16	0.183
950.33	0.183
950.51	0.185
950.68	0.186
950.85	0.187
951.02	0.188
951.20	0.189
951.37	0.190
951.54	0.190
951.71	0.191
951.88	0.193
952.06	0.194
952.23	0.195
952.40	0.197
952.57	0.198
952.74	0.199
952.92	0.200
953.09	0.201
953.26	0.203
953.43	0.204
953.60	0.205
953.77	0.206
953.95	0.207
954.12	0.209
954.29	0.209
954.46	0.212
954.63	0.213
954.81	0.214
954.98	0.215
955.15	0.217
955.32	0.218
955.49	0.218
955.66	0.220
955.84	0.222
956.01	0.222
956.18	0.224
956.35	0.225
956.52	0.226
956.69	0.227
956.87	0.228
957.04	0.229
957.21	0.231
957.38	0.231
957.55	0.232
957.72	0.233
957.89	0.234
958.07	0.234
958.24	0.236
958.41	0.238
958.58	0.238
958.75	0.239
958.92	0.240
959.09	0.240
959.26	0.241
959.44	0.241
959.61	0.243
959.78	0.243
959.95	0.244
960.12	0.244
960.29	0.246
960.46	0.246
960.63	0.246
960.81	0.247
960.98	0.247
961.15	0.248
961.32	0.249
961.49	0.248
961.66	0.250
961.83	0.250
962.00	0.250
962.17	0.251
962.34	0.250
962.52	0.251
962.69	0.252
962.86	0.251
963.03	0.252
963.20	0.253
963.37	0.252
963.54	0.253
963.71	0.253
963.88	0.253
964.05	0.254
964.22	0.256
964.39	0.255
964.56	0.255
964.74	0.256
964.91	0.256
965.08	0.256
965.25	0.256
965.42	0.256
965.59	0.257
965.76	0.256
965.93	0.258
966.10	0.256
966.27	0.257
966.44	0.257
966.61	0.258
966.78	0.258
966.95	0.257
967.12	0.258
967.29	0.260
967.46	0.259
967.63	0.259
967.80	0.260
967.97	0.259
968.14	0.259
968.32	0.260
968.49	0.260
968.66	0.259
968.83	0.260
969.00	0.260
969.17	0.260
969.34	0.261
969.51	0.262
969.68	0.260
969.85	0.261
970.02	0.262
970.19	0.260
970.36	0.261
970.53	0.261
970.70	0.259
970.87	0.259
971.04	0.259
971.21	0.259
971.38	0.259
971.55	0.260
971.72	0.260
971.89	0.260
972.06	0.260
972.23	0.260
972.40	0.260
972.57	0.260
972.74	0.260
972.91	0.261
973.07	0.261
973.24	0.261
973.41	0.261
973.58	0.259
973.75	0.272
973.92	0.260
974.09	0.260
974.26	0.259
974.43	0.259
974.60	0.260
974.77	0.261
974.94	0.260
975.11	0.260
975.28	0.261
975.45	0.260
975.62	0.260
975.79	0.261
975.96	0.260
976.13	0.259
976.30	0.260
976.47	0.258
976.64	0.258
976.80	0.259
976.97	0.258
977.14	0.258
977.31	0.258
977.48	0.258
977.65	0.257
977.82	0.256
977.99	0.258
978.16	0.257
978.33	0.257
978.50	0.257
978.67	0.257
978.83	0.257
979.00	0.258
979.17	0.257
979.34	0.257
979.51	0.256
979.68	0.257
979.85	0.256
980.02	0.257
980.19	0.255
980.36	0.256
980.52	0.257
980.69	0.255
980.86	0.256
981.03	0.256
981.20	0.254
981.37	0.255
981.54	0.256
981.71	0.255
981.88	0.256
982.04	0.255
982.21	0.255
982.38	0.257
982.55	0.256
982.72	0.255
982.89	0.256
983.06	0.255
983.22	0.255
983.39	0.255
983.56	0.254
983.73	0.253
983.90	0.252
984.07	0.254
984.24	0.252
984.40	0.251
984.57	0.249
984.74	0.251
984.91	0.252
985.08	0.250
985.25	0.248
985.41	0.249
985.58	0.250
985.75	0.251
985.92	0.250
986.09	0.249
986.26	0.249
986.42	0.249
986.59	0.247
986.76	0.249
986.93	0.249
987.10	0.249
987.27	0.246
987.43	0.245
987.60	0.247
987.77	0.246
987.94	0.245
988.11	0.246
988.27	0.247
988.44	0.246
988.61	0.245
988.78	0.243
988.95	0.244
989.11	0.245
989.28	0.243
989.45	0.242
989.62	0.242
989.79	0.242
989.95	0.241
990.12	0.242
990.29	0.242
990.46	0.240
990.62	0.238
990.79	0.238
990.96	0.239
991.13	0.240
991.30	0.239
991.46	0.238
991.63	0.236
991.80	0.235
991.97	0.235
992.13	0.236
992.30	0.237
992.47	0.235
992.64	0.235
992.80	0.236
992.97	0.236
993.14	0.234
993.31	0.231
993.47	0.234
993.64	0.232
993.81	0.232
993.98	0.232
994.14	0.231
994.31	0.230
994.48	0.230
994.64	0.230
994.81	0.229
994.98	0.229
995.15	0.228
995.31	0.228
995.48	0.228
995.65	0.230
995.82	0.226
995.98	0.226
996.15	0.227
996.32	0.229
996.48	0.227
996.65	0.226
996.82	0.224
996.99	0.224
997.15	0.224
997.32	0.224
997.49	0.222
997.65	0.223
997.82	0.223
997.99	0.221
998.15	0.222
998.32	0.223
998.49	0.221
998.65	0.221
998.82	0.221
998.99	0.219
999.15	0.220
999.32	0.219
999.49	0.218
999.65	0.218
999.82	0.216
999.99	0.216
1000.15	0.216
1000.32	0.217
1000.49	0.217
1000.65	0.214
1000.82	0.214
1000.99	0.214
1001.15	0.214
1001.32	0.213
1001.49	0.213
1001.65	0.212
1001.82	0.214
1001.99	0.212
1002.15	0.211
1002.32	0.211
1002.49	0.212
1002.65	0.211
1002.82	0.209
1002.99	0.209
1003.15	0.210
1003.32	0.209
1003.48	0.210
1003.65	0.209
1003.82	0.208
1003.98	0.205
1004.15	0.205
1004.32	0.205
1004.48	0.205
1004.65	0.206
1004.81	0.203
1004.98	0.202
1005.15	0.203
1005.31	0.203
1005.48	0.201
1005.64	0.201
1005.81	0.204
1005.98	0.201
1006.14	0.200
1006.31	0.201
1006.47	0.200
1006.64	0.199
1006.81	0.198
1006.97	0.198
1007.14	0.197
1007.30	0.199
1007.47	0.199
1007.63	0.197
1007.80	0.196
1007.97	0.196
1008.13	0.196
1008.30	0.196
1008.46	0.197
1008.63	0.195
1008.79	0.196
1008.96	0.196
1009.13	0.197
1009.29	0.194
1009.46	0.193
1009.62	0.193
1009.79	0.191
1009.95	0.191
1010.12	0.192
1010.28	0.192
1010.45	0.191
1010.62	0.190
1010.78	0.189
1010.95	0.188
1011.11	0.189
1011.28	0.188
1011.44	0.190
1011.61	0.188
1011.77	0.188
1011.94	0.187
1012.10	0.186
1012.27	0.187
1012.43	0.187
1012.60	0.185
1012.76	0.185
1012.93	0.185
1013.10	0.184
1013.26	0.181
1013.43	0.182
1013.59	0.189
1013.76	0.182
1013.92	0.181
1014.09	0.179
1014.25	0.179
1014.42	0.180
1014.58	0.180
1014.75	0.181
1014.91	0.180
1015.08	0.182
1015.24	0.178
1015.41	0.179
1015.57	0.179
1015.73	0.179
1015.90	0.177
1016.06	0.179
1016.23	0.177
1016.39	0.177
1016.56	0.178
1016.72	0.177
1016.89	0.177
1017.05	0.178
1017.22	0.175
1017.38	0.175
1017.55	0.173
1017.71	0.175
1017.88	0.175
1018.04	0.176
1018.21	0.173
1018.37	0.173
1018.53	0.173
1018.70	0.171
1018.86	0.171
1019.03	0.173
1019.19	0.171
1019.36	0.171
1019.52	0.172
1019.69	0.172
1019.85	0.171
1020.01	0.171
1020.18	0.170
1020.34	0.169
1020.51	0.169
1020.67	0.170
1020.84	0.169
1021.00	0.170
1021.16	0.167
1021.33	0.168
1021.49	0.166
1021.66	0.167
1021.82	0.165
1021.98	0.166
1022.15	0.166
1022.31	0.166
1022.48	0.164
1022.64	0.165
1022.80	0.164
1022.97	0.162
1023.13	0.161
1023.30	0.162
1023.46	0.162
1023.62	0.159
1023.79	0.160
1023.95	0.160
1024.12	0.158
1024.28	0.157
1024.44	0.158
1024.61	0.157
1024.77	0.156
1024.93	0.156
1025.10	0.157
1025.26	0.156
1025.43	0.157
1025.59	0.153
1025.75	0.157
1025.92	0.156
1026.08	0.156
1026.24	0.155
1026.41	0.157
1026.57	0.156
1026.73	0.153
1026.90	0.155
1027.06	0.151
1027.23	0.152
1027.39	0.152
1027.55	0.153
1027.72	0.151
1027.88	0.150
1028.04	0.151
1028.21	0.151
1028.37	0.145
1028.53	0.150
1028.70	0.149
1028.86	0.148
1029.02	0.148
1029.19	0.149
1029.35	0.147
1029.51	0.148
1029.67	0.148
1029.84	0.150
1030.00	0.145
1030.16	0.146
1030.33	0.149
1030.49	0.146
1030.65	0.144
1030.82	0.158
1030.98	0.145
1031.14	0.145
1031.31	0.144
1031.47	0.142
1031.63	0.144
1031.79	0.143
1031.96	0.144
1032.12	0.145
1032.28	0.143
1032.45	0.147
1032.61	0.146
1032.77	0.146
1032.93	0.144
1033.10	0.145
1033.26	0.148
1033.42	0.145
1033.58	0.145
1033.75	0.146
1033.91	0.144
1034.07	0.147
1034.24	0.144
1034.40	0.143
1034.56	0.142
1034.72	0.141
1034.89	0.141
1035.05	0.139
1035.21	0.140
1035.37	0.139
1035.54	0.141
1035.70	0.138
1035.86	0.137
1036.02	0.138
1036.19	0.136
1036.35	0.134
1036.51	0.139
1036.67	0.136
1036.83	0.134
1037.00	0.133
1037.16	0.134
1037.32	0.135
1037.48	0.135
1037.65	0.139
1037.81	0.135
1037.97	0.136
1038.13	0.138
1038.29	0.134
1038.46	0.131
1038.62	0.136
1038.78	0.133
1038.94	0.130
1039.10	0.134
1039.27	0.129
1039.43	0.131
1039.59	0.130
1039.75	0.129
1039.91	0.127
1040.08	0.129
1040.24	0.133
1040.40	0.134
1040.56	0.134
1040.72	0.127
1040.89	0.129
1041.05	0.132
1041.21	0.130
1041.37	0.129
1041.53	0.136
1041.69	0.134
1041.86	0.132
1042.02	0.128
1042.18	0.127
1042.34	0.128
1042.50	0.132
1042.66	0.129
1042.83	0.127
1042.99	0.129
1043.15	0.124
1043.31	0.124
1043.47	0.128
1043.63	0.126
1043.79	0.126
1043.96	0.128
1044.12	0.131
1044.28	0.128
1044.44	0.128
1044.60	0.124
1044.76	0.125
1044.92	0.127
1045.09	0.128
1045.25	0.125
1045.41	0.126
1045.57	0.123
1045.73	0.123
1045.89	0.123
1046.05	0.125
1046.21	0.133
1046.38	0.132
1046.54	0.127
1046.70	0.125
1046.86	0.121
>>>>>End Processed Spectral Data<<<<<
