SpectraSuite Data File
++++++++++++++++++++++++++++++++++++
Date: Mon May 20 12:11:32 CDT 2013
User: Students
Dark Spectrum Present: Yes
Reference Spectrum Present: Yes
Number of Sampled Component Spectra: 1
Spectrometers: USB4H00887
Integration Time (usec): 60000 (USB4H00887)
Spectra Averaged: 5 (USB4H00887)
Boxcar Smoothing: 5 (USB4H00887)
Correct for Electrical Dark: No (USB4H00887)
Strobe/Lamp Enabled: No (USB4H00887)
Correct for Detector Non-linearity: No (USB4H00887)
Correct for Stray Light: No (USB4H00887)
Number of Pixels in Processed Spectrum: 3648
>>>>>Begin Processed Spectral Data<<<<<
345.83	0.620
346.05	0.620
346.26	0.620
346.48	-0.000
346.70	1.519
346.92	-0.030
347.14	0.028
347.35	0.033
347.57	0.342
347.79	-0.285
348.01	-0.234
348.23	-0.416
348.44	-0.000
348.66	0.432
348.88	-0.451
349.10	-0.227
349.32	0.120
349.53	-0.024
349.75	-0.040
349.97	-0.015
350.19	0.035
350.41	0.067
350.62	-0.202
350.84	0.023
351.06	0.037
351.28	0.043
351.50	0.052
351.71	0.099
351.93	0.116
352.15	0.024
352.37	0.093
352.58	0.041
352.80	0.055
353.02	0.106
353.24	0.143
353.46	1.504
353.67	-0.247
353.89	0.085
354.11	0.076
354.33	0.084
354.54	0.145
354.76	0.283
354.98	0.475
355.20	0.331
355.41	0.100
355.63	0.167
355.85	0.065
356.07	0.415
356.28	0.067
356.50	0.101
356.72	0.041
356.94	0.091
357.15	0.203
357.37	-0.000
357.59	0.124
357.81	0.088
358.02	0.183
358.24	0.153
358.46	0.302
358.68	0.287
358.89	0.161
359.11	-0.000
359.33	0.127
359.55	-0.595
359.76	0.130
359.98	0.145
360.20	0.147
360.42	0.103
360.63	0.107
360.85	0.092
361.07	0.380
361.29	0.075
361.50	0.254
361.72	0.109
361.94	0.485
362.15	0.197
362.37	0.104
362.59	0.121
362.81	0.185
363.02	0.322
363.24	0.503
363.46	0.299
363.68	0.444
363.89	0.248
364.11	0.361
364.33	0.473
364.54	0.263
364.76	0.326
364.98	0.323
365.20	0.434
365.41	0.206
365.63	0.257
365.85	0.158
366.06	0.387
366.28	0.379
366.50	0.255
366.71	0.106
366.93	0.166
367.15	0.148
367.37	0.165
367.58	0.180
367.80	0.243
368.02	1.042
368.23	0.215
368.45	0.242
368.67	0.221
368.88	0.182
369.10	-0.000
369.32	0.173
369.53	0.094
369.75	0.134
369.97	0.398
370.19	0.258
370.40	0.084
370.62	0.231
370.84	0.096
371.05	0.621
371.27	0.159
371.49	0.171
371.70	0.187
371.92	0.316
372.14	0.140
372.35	0.154
372.57	0.164
372.79	0.573
373.00	0.124
373.22	0.218
373.44	0.196
373.65	0.162
373.87	0.238
374.09	-0.000
374.30	0.194
374.52	0.201
374.74	0.138
374.95	0.802
375.17	0.174
375.39	-0.000
375.60	0.178
375.82	0.326
376.04	0.128
376.25	0.150
376.47	0.083
376.68	0.220
376.90	0.139
377.12	0.319
377.33	0.162
377.55	0.409
377.77	0.193
377.98	0.288
378.20	0.148
378.42	0.180
378.63	0.227
378.85	-0.000
379.07	0.157
379.28	0.600
379.50	0.313
379.71	0.147
379.93	0.099
380.15	0.119
380.36	0.177
380.58	0.124
380.80	0.347
381.01	0.108
381.23	0.095
381.44	0.095
381.66	0.117
381.88	0.158
382.09	-0.084
382.31	0.134
382.53	0.153
382.74	1.290
382.96	0.243
383.17	0.184
383.39	0.264
383.61	0.386
383.82	0.268
384.04	0.305
384.25	0.368
384.47	0.361
384.69	0.353
384.90	0.312
385.12	0.776
385.33	0.433
385.55	0.319
385.77	0.527
385.98	0.239
386.20	0.325
386.41	0.286
386.63	0.350
386.85	0.265
387.06	0.339
387.28	0.594
387.49	0.347
387.71	0.233
387.93	0.197
388.14	0.618
388.36	0.233
388.57	0.217
388.79	0.242
389.01	-0.000
389.22	0.312
389.44	0.257
389.65	0.206
389.87	0.202
390.08	0.244
390.30	0.200
390.52	0.412
390.73	0.422
390.95	0.291
391.16	0.283
391.38	-0.000
391.59	0.320
391.81	0.261
392.03	0.248
392.24	0.283
392.46	0.237
392.67	0.222
392.89	0.324
393.10	0.531
393.32	0.326
393.53	0.374
393.75	0.235
393.97	0.272
394.18	0.389
394.40	0.326
394.61	0.349
394.83	0.299
395.04	0.347
395.26	0.221
395.47	0.334
395.69	0.278
395.91	0.302
396.12	0.373
396.34	0.350
396.55	0.230
396.77	0.357
396.98	-0.000
397.20	0.472
397.41	0.512
397.63	0.343
397.84	0.296
398.06	0.285
398.27	0.294
398.49	0.346
398.71	0.256
398.92	0.304
399.14	0.402
399.35	0.491
399.57	0.457
399.78	0.311
400.00	0.321
400.21	0.416
400.43	0.330
400.64	0.347
400.86	0.897
401.07	0.436
401.29	0.374
401.50	0.393
401.72	0.596
401.93	0.354
402.15	0.431
402.36	0.371
402.58	0.299
402.79	0.326
403.01	0.529
403.22	0.405
403.44	0.272
403.65	0.417
403.87	0.472
404.08	0.365
404.30	0.606
404.51	0.328
404.73	0.399
404.94	0.355
405.16	0.377
405.37	0.294
405.59	0.532
405.80	0.329
406.02	0.431
406.23	0.413
406.45	0.465
406.66	0.507
406.88	0.324
407.09	0.530
407.31	0.418
407.52	0.523
407.74	0.409
407.95	0.504
408.17	0.458
408.38	0.487
408.60	0.321
408.81	0.573
409.03	0.413
409.24	0.408
409.45	0.475
409.67	0.443
409.88	0.392
410.10	0.521
410.31	0.420
410.53	0.400
410.74	0.563
410.96	0.541
411.17	0.572
411.39	0.419
411.60	0.391
411.82	0.442
412.03	0.431
412.24	0.406
412.46	0.590
412.67	0.493
412.89	0.488
413.10	0.478
413.32	0.444
413.53	0.501
413.75	0.525
413.96	0.401
414.17	0.559
414.39	0.564
414.60	0.456
414.82	0.630
415.03	0.466
415.25	0.520
415.46	0.356
415.68	0.497
415.89	1.027
416.10	0.791
416.32	0.409
416.53	0.470
416.75	0.436
416.96	0.535
417.18	0.451
417.39	0.425
417.60	0.433
417.82	0.631
418.03	0.551
418.25	0.443
418.46	0.458
418.67	0.412
418.89	0.447
419.10	0.466
419.32	0.615
419.53	0.551
419.75	0.475
419.96	0.419
420.17	0.512
420.39	0.486
420.60	0.503
420.82	0.615
421.03	0.494
421.24	0.423
421.46	0.474
421.67	0.518
421.89	0.459
422.10	0.491
422.31	0.483
422.53	0.703
422.74	0.508
422.96	0.412
423.17	0.459
423.38	0.572
423.60	0.477
423.81	0.590
424.03	0.502
424.24	0.551
424.45	0.547
424.67	0.529
424.88	0.470
425.09	0.510
425.31	0.482
425.52	0.519
425.74	0.580
425.95	0.623
426.16	0.492
426.38	0.570
426.59	0.532
426.80	0.621
427.02	0.659
427.23	0.512
427.45	0.674
427.66	0.644
427.87	0.489
428.09	0.528
428.30	0.589
428.51	0.569
428.73	0.633
428.94	0.552
429.15	0.536
429.37	0.513
429.58	0.532
429.79	0.493
430.01	0.587
430.22	0.582
430.44	0.594
430.65	0.530
430.86	0.572
431.08	0.556
431.29	0.509
431.50	0.604
431.72	0.824
431.93	0.665
432.14	0.500
432.36	0.543
432.57	0.550
432.78	0.563
433.00	0.517
433.21	0.510
433.42	0.625
433.64	0.552
433.85	0.607
434.06	0.491
434.28	0.517
434.49	0.531
434.70	0.546
434.92	0.562
435.13	0.598
435.34	0.602
435.56	0.575
435.77	0.573
435.98	0.724
436.20	0.627
436.41	0.543
436.62	0.535
436.83	0.610
437.05	0.688
437.26	0.611
437.47	0.548
437.69	0.608
437.90	0.555
438.11	0.545
438.33	0.589
438.54	0.596
438.75	0.752
438.97	0.731
439.18	0.551
439.39	0.572
439.60	0.605
439.82	0.575
440.03	0.531
440.24	0.752
440.46	0.584
440.67	0.567
440.88	0.612
441.10	0.575
441.31	0.579
441.52	0.631
441.73	0.701
441.95	0.622
442.16	0.567
442.37	0.854
442.58	0.558
442.80	0.540
443.01	0.687
443.22	0.627
443.44	0.539
443.65	0.621
443.86	0.616
444.07	0.656
444.29	0.577
444.50	0.716
444.71	0.557
444.92	0.520
445.14	0.647
445.35	0.679
445.56	0.548
445.78	0.636
445.99	0.640
446.20	0.556
446.41	0.615
446.63	0.615
446.84	0.584
447.05	0.592
447.26	0.694
447.48	0.602
447.69	0.571
447.90	0.643
448.11	0.577
448.33	0.593
448.54	0.611
448.75	0.644
448.96	0.654
449.18	0.689
449.39	0.624
449.60	0.611
449.81	0.718
450.03	0.634
450.24	0.681
450.45	0.644
450.66	0.634
450.87	0.660
451.09	0.612
451.30	0.596
451.51	0.654
451.72	0.659
451.94	0.668
452.15	0.721
452.36	0.610
452.57	0.624
452.78	0.625
453.00	0.646
453.21	0.615
453.42	0.598
453.63	0.672
453.85	0.649
454.06	0.641
454.27	0.744
454.48	0.674
454.69	0.616
454.91	0.672
455.12	0.593
455.33	0.660
455.54	0.670
455.75	0.648
455.97	0.672
456.18	0.660
456.39	0.665
456.60	0.685
456.81	0.635
457.03	0.646
457.24	0.645
457.45	0.711
457.66	0.668
457.87	0.636
458.09	0.649
458.30	0.579
458.51	0.676
458.72	0.691
458.93	0.696
459.15	0.625
459.36	0.669
459.57	0.686
459.78	0.718
459.99	0.652
460.20	0.623
460.42	0.682
460.63	0.648
460.84	0.636
461.05	0.648
461.26	0.684
461.47	0.629
461.69	0.672
461.90	0.697
462.11	0.668
462.32	0.707
462.53	0.662
462.74	0.729
462.96	0.653
463.17	0.641
463.38	0.672
463.59	0.749
463.80	0.641
464.01	0.654
464.23	0.711
464.44	0.685
464.65	0.694
464.86	0.706
465.07	0.705
465.28	0.674
465.49	0.689
465.71	0.659
465.92	0.684
466.13	0.714
466.34	0.672
466.55	0.706
466.76	0.681
466.97	0.696
467.19	0.690
467.40	0.718
467.61	0.726
467.82	0.672
468.03	0.661
468.24	0.708
468.45	0.730
468.66	0.713
468.88	0.718
469.09	0.717
469.30	0.745
469.51	0.703
469.72	0.728
469.93	0.705
470.14	0.691
470.35	0.746
470.57	0.714
470.78	0.674
470.99	0.757
471.20	0.721
471.41	0.692
471.62	0.725
471.83	0.701
472.04	0.719
472.25	0.746
472.47	0.692
472.68	0.695
472.89	0.700
473.10	0.725
473.31	0.697
473.52	0.734
473.73	0.747
473.94	0.696
474.15	0.711
474.36	0.711
474.57	0.726
474.79	0.710
475.00	0.710
475.21	0.701
475.42	0.751
475.63	0.692
475.84	0.708
476.05	0.712
476.26	0.694
476.47	0.713
476.68	0.737
476.89	0.696
477.10	0.723
477.32	0.716
477.53	0.745
477.74	0.703
477.95	0.722
478.16	0.694
478.37	0.718
478.58	0.720
478.79	0.728
479.00	0.730
479.21	0.704
479.42	0.727
479.63	0.728
479.84	0.705
480.05	0.702
480.26	0.719
480.47	0.726
480.69	0.725
480.90	0.709
481.11	0.706
481.32	0.738
481.53	0.710
481.74	0.739
481.95	0.721
482.16	0.730
482.37	0.736
482.58	0.717
482.79	0.728
483.00	0.744
483.21	0.712
483.42	0.697
483.63	0.738
483.84	0.747
484.05	0.740
484.26	0.723
484.47	0.722
484.68	0.703
484.89	0.710
485.10	0.732
485.31	0.722
485.52	0.726
485.73	0.726
485.94	0.747
486.15	0.722
486.37	0.728
486.58	0.711
486.79	0.718
487.00	0.744
487.21	0.737
487.42	0.736
487.63	0.737
487.84	0.745
488.05	0.743
488.26	0.723
488.47	0.725
488.68	0.744
488.89	0.731
489.10	0.727
489.31	0.730
489.52	0.747
489.73	0.730
489.94	0.748
490.15	0.726
490.36	0.746
490.57	0.720
490.78	0.713
490.99	0.731
491.20	0.767
491.41	0.747
491.62	0.718
491.83	0.731
492.04	0.728
492.25	0.732
492.45	0.733
492.66	0.743
492.87	0.737
493.08	0.729
493.29	0.721
493.50	0.717
493.71	0.721
493.92	0.720
494.13	0.726
494.34	0.736
494.55	0.739
494.76	0.753
494.97	0.749
495.18	0.734
495.39	0.744
495.60	0.720
495.81	0.720
496.02	0.729
496.23	0.727
496.44	0.744
496.65	0.741
496.86	0.743
497.07	0.755
497.28	0.752
497.49	0.727
497.70	0.727
497.91	0.737
498.12	0.726
498.32	0.748
498.53	0.740
498.74	0.737
498.95	0.750
499.16	0.727
499.37	0.730
499.58	0.734
499.79	0.747
500.00	0.745
500.21	0.759
500.42	0.732
500.63	0.732
500.84	0.740
501.05	0.729
501.26	0.740
501.46	0.758
501.67	0.741
501.88	0.741
502.09	0.729
502.30	0.732
502.51	0.755
502.72	0.734
502.93	0.742
503.14	0.751
503.35	0.737
503.56	0.735
503.77	0.751
503.97	0.739
504.18	0.740
504.39	0.756
504.60	0.742
504.81	0.752
505.02	0.747
505.23	0.748
505.44	0.741
505.65	0.745
505.86	0.736
506.07	0.765
506.27	0.746
506.48	0.748
506.69	0.740
506.90	0.750
507.11	0.750
507.32	0.738
507.53	0.743
507.74	0.737
507.95	0.744
508.15	0.745
508.36	0.748
508.57	0.753
508.78	0.746
508.99	0.747
509.20	0.736
509.41	0.747
509.62	0.742
509.82	0.740
510.03	0.745
510.24	0.744
510.45	0.755
510.66	0.750
510.87	0.748
511.08	0.729
511.29	0.749
511.49	0.737
511.70	0.758
511.91	0.728
512.12	0.726
512.33	0.742
512.54	0.750
512.75	0.740
512.95	0.752
513.16	0.746
513.37	0.736
513.58	0.752
513.79	0.736
514.00	0.739
514.20	0.748
514.41	0.742
514.62	0.726
514.83	0.744
515.04	0.741
515.25	0.732
515.46	0.739
515.66	0.739
515.87	0.745
516.08	0.731
516.29	0.742
516.50	0.732
516.71	0.730
516.91	0.735
517.12	0.742
517.33	0.734
517.54	0.728
517.75	0.728
517.95	0.736
518.16	0.738
518.37	0.724
518.58	0.726
518.79	0.714
519.00	0.727
519.20	0.731
519.41	0.720
519.62	0.729
519.83	0.733
520.04	0.716
520.24	0.713
520.45	0.718
520.66	0.728
520.87	0.709
521.08	0.708
521.28	0.710
521.49	0.717
521.70	0.702
521.91	0.709
522.12	0.701
522.32	0.712
522.53	0.704
522.74	0.698
522.95	0.703
523.16	0.705
523.36	0.711
523.57	0.703
523.78	0.700
523.99	0.703
524.20	0.699
524.40	0.704
524.61	0.706
524.82	0.694
525.03	0.696
525.23	0.698
525.44	0.689
525.65	0.687
525.86	0.697
526.06	0.683
526.27	0.684
526.48	0.689
526.69	0.680
526.90	0.682
527.10	0.699
527.31	0.677
527.52	0.672
527.73	0.669
527.93	0.674
528.14	0.677
528.35	0.671
528.56	0.672
528.76	0.668
528.97	0.663
529.18	0.658
529.39	0.657
529.59	0.659
529.80	0.677
530.01	0.663
530.22	0.663
530.42	0.647
530.63	0.656
530.84	0.644
531.05	0.652
531.25	0.654
531.46	0.651
531.67	0.639
531.88	0.650
532.08	0.645
532.29	0.644
532.50	0.640
532.70	0.636
532.91	0.631
533.12	0.633
533.33	0.648
533.53	0.632
533.74	0.632
533.95	0.635
534.15	0.629
534.36	0.629
534.57	0.619
534.78	0.620
534.98	0.626
535.19	0.609
535.40	0.610
535.60	0.620
535.81	0.608
536.02	0.611
536.23	0.606
536.43	0.608
536.64	0.602
536.85	0.608
537.05	0.613
537.26	0.600
537.47	0.603
537.67	0.596
537.88	0.595
538.09	0.600
538.30	0.593
538.50	0.588
538.71	0.596
538.92	0.587
539.12	0.585
539.33	0.582
539.54	0.582
539.74	0.585
539.95	0.579
540.16	0.577
540.36	0.572
540.57	0.573
540.78	0.569
540.98	0.569
541.19	0.568
541.40	0.559
541.60	0.566
541.81	0.563
542.02	0.564
542.22	0.558
542.43	0.556
542.64	0.552
542.84	0.552
543.05	0.546
543.26	0.548
543.46	0.550
543.67	0.551
543.88	0.549
544.08	0.543
544.29	0.540
544.50	0.542
544.70	0.543
544.91	0.538
545.12	0.540
545.32	0.538
545.53	0.541
545.74	0.534
545.94	0.532
546.15	0.531
546.35	0.530
546.56	0.529
546.77	0.527
546.97	0.526
547.18	0.521
547.39	0.523
547.59	0.522
547.80	0.519
548.01	0.523
548.21	0.520
548.42	0.514
548.62	0.514
548.83	0.512
549.04	0.510
549.24	0.505
549.45	0.505
549.65	0.503
549.86	0.500
550.07	0.501
550.27	0.500
550.48	0.507
550.69	0.497
550.89	0.498
551.10	0.496
551.30	0.495
551.51	0.495
551.72	0.487
551.92	0.489
552.13	0.490
552.33	0.492
552.54	0.489
552.75	0.484
552.95	0.486
553.16	0.482
553.36	0.481
553.57	0.480
553.78	0.480
553.98	0.481
554.19	0.474
554.39	0.472
554.60	0.475
554.80	0.475
555.01	0.469
555.22	0.472
555.42	0.470
555.63	0.465
555.83	0.469
556.04	0.464
556.25	0.467
556.45	0.460
556.66	0.459
556.86	0.463
557.07	0.462
557.27	0.462
557.48	0.457
557.68	0.456
557.89	0.458
558.10	0.455
558.30	0.453
558.51	0.452
558.71	0.450
558.92	0.446
559.12	0.448
559.33	0.451
559.54	0.448
559.74	0.445
559.95	0.444
560.15	0.444
560.36	0.443
560.56	0.438
560.77	0.440
560.97	0.441
561.18	0.438
561.38	0.437
561.59	0.441
561.79	0.438
562.00	0.436
562.21	0.434
562.41	0.433
562.62	0.433
562.82	0.432
563.03	0.429
563.23	0.430
563.44	0.430
563.64	0.427
563.85	0.429
564.05	0.423
564.26	0.423
564.46	0.423
564.67	0.425
564.87	0.421
565.08	0.418
565.28	0.419
565.49	0.421
565.69	0.418
565.90	0.416
566.10	0.420
566.31	0.413
566.51	0.417
566.72	0.418
566.92	0.412
567.13	0.412
567.33	0.412
567.54	0.411
567.74	0.411
567.95	0.407
568.15	0.409
568.36	0.409
568.56	0.409
568.77	0.404
568.97	0.403
569.18	0.403
569.38	0.402
569.59	0.404
569.79	0.402
570.00	0.400
570.20	0.399
570.41	0.397
570.61	0.396
570.82	0.398
571.02	0.394
571.23	0.397
571.43	0.393
571.64	0.393
571.84	0.392
572.05	0.391
572.25	0.391
572.45	0.390
572.66	0.388
572.86	0.388
573.07	0.387
573.27	0.388
573.48	0.388
573.68	0.384
573.89	0.384
574.09	0.386
574.30	0.384
574.50	0.383
574.70	0.384
574.91	0.382
575.11	0.383
575.32	0.383
575.52	0.379
575.73	0.379
575.93	0.379
576.14	0.378
576.34	0.377
576.54	0.376
576.75	0.374
576.95	0.374
577.16	0.373
577.36	0.372
577.57	0.373
577.77	0.371
577.97	0.368
578.18	0.371
578.38	0.368
578.59	0.367
578.79	0.366
579.00	0.368
579.20	0.366
579.40	0.365
579.61	0.365
579.81	0.364
580.02	0.361
580.22	0.362
580.42	0.361
580.63	0.361
580.83	0.361
581.04	0.359
581.24	0.358
581.45	0.358
581.65	0.359
581.85	0.358
582.06	0.355
582.26	0.357
582.47	0.356
582.67	0.356
582.87	0.356
583.08	0.354
583.28	0.354
583.48	0.353
583.69	0.350
583.89	0.350
584.10	0.352
584.30	0.350
584.50	0.348
584.71	0.348
584.91	0.347
585.12	0.345
585.32	0.347
585.52	0.344
585.73	0.343
585.93	0.343
586.13	0.342
586.34	0.342
586.54	0.341
586.75	0.340
586.95	0.339
587.15	0.341
587.36	0.339
587.56	0.339
587.76	0.338
587.97	0.338
588.17	0.337
588.37	0.338
588.58	0.339
588.78	0.335
588.98	0.336
589.19	0.335
589.39	0.333
589.60	0.336
589.80	0.333
590.00	0.333
590.21	0.333
590.41	0.332
590.61	0.331
590.82	0.331
591.02	0.331
591.22	0.329
591.43	0.331
591.63	0.329
591.83	0.329
592.04	0.326
592.24	0.329
592.44	0.326
592.65	0.325
592.85	0.326
593.05	0.327
593.26	0.325
593.46	0.325
593.66	0.325
593.86	0.324
594.07	0.322
594.27	0.323
594.47	0.322
594.68	0.321
594.88	0.323
595.08	0.322
595.29	0.323
595.49	0.320
595.69	0.320
595.90	0.318
596.10	0.320
596.30	0.319
596.50	0.318
596.71	0.318
596.91	0.317
597.11	0.316
597.32	0.316
597.52	0.315
597.72	0.316
597.93	0.315
598.13	0.313
598.33	0.314
598.53	0.313
598.74	0.313
598.94	0.312
599.14	0.312
599.35	0.313
599.55	0.312
599.75	0.311
599.95	0.310
600.16	0.311
600.36	0.308
600.56	0.309
600.76	0.308
600.97	0.307
601.17	0.307
601.37	0.308
601.58	0.306
601.78	0.307
601.98	0.306
602.18	0.305
602.39	0.306
602.59	0.307
602.79	0.305
602.99	0.306
603.20	0.304
603.40	0.305
603.60	0.305
603.80	0.304
604.01	0.304
604.21	0.303
604.41	0.303
604.61	0.301
604.82	0.301
605.02	0.302
605.22	0.301
605.42	0.301
605.62	0.301
605.83	0.299
606.03	0.299
606.23	0.299
606.43	0.298
606.64	0.299
606.84	0.298
607.04	0.298
607.24	0.298
607.45	0.298
607.65	0.297
607.85	0.298
608.05	0.297
608.25	0.296
608.46	0.296
608.66	0.297
608.86	0.295
609.06	0.293
609.26	0.292
609.47	0.294
609.67	0.292
609.87	0.294
610.07	0.293
610.28	0.292
610.48	0.292
610.68	0.292
610.88	0.290
611.08	0.291
611.29	0.290
611.49	0.289
611.69	0.290
611.89	0.287
612.09	0.288
612.29	0.287
612.50	0.287
612.70	0.287
612.90	0.286
613.10	0.286
613.30	0.286
613.51	0.287
613.71	0.286
613.91	0.293
614.11	0.286
614.31	0.285
614.51	0.285
614.72	0.284
614.92	0.284
615.12	0.284
615.32	0.285
615.52	0.284
615.72	0.284
615.93	0.284
616.13	0.283
616.33	0.283
616.53	0.282
616.73	0.283
616.93	0.281
617.14	0.282
617.34	0.282
617.54	0.282
617.74	0.282
617.94	0.281
618.14	0.280
618.34	0.280
618.55	0.280
618.75	0.281
618.95	0.280
619.15	0.281
619.35	0.279
619.55	0.278
619.75	0.280
619.96	0.278
620.16	0.279
620.36	0.279
620.56	0.278
620.76	0.278
620.96	0.277
621.16	0.277
621.36	0.277
621.57	0.277
621.77	0.277
621.97	0.275
622.17	0.275
622.37	0.275
622.57	0.276
622.77	0.275
622.97	0.273
623.18	0.274
623.38	0.274
623.58	0.273
623.78	0.273
623.98	0.273
624.18	0.272
624.38	0.271
624.58	0.271
624.78	0.272
624.98	0.272
625.19	0.272
625.39	0.272
625.59	0.272
625.79	0.272
625.99	0.271
626.19	0.272
626.39	0.272
626.59	0.272
626.79	0.271
626.99	0.272
627.19	0.271
627.40	0.272
627.60	0.270
627.80	0.270
628.00	0.271
628.20	0.269
628.40	0.270
628.60	0.270
628.80	0.268
629.00	0.269
629.20	0.268
629.40	0.269
629.60	0.267
629.80	0.267
630.00	0.267
630.20	0.267
630.41	0.265
630.61	0.265
630.81	0.265
631.01	0.266
631.21	0.265
631.41	0.265
631.61	0.266
631.81	0.265
632.01	0.265
632.21	0.265
632.41	0.263
632.61	0.264
632.81	0.264
633.01	0.264
633.21	0.263
633.41	0.264
633.61	0.262
633.81	0.262
634.01	0.261
634.21	0.261
634.41	0.261
634.61	0.261
634.81	0.260
635.01	0.260
635.22	0.261
635.42	0.260
635.62	0.260
635.82	0.260
636.02	0.259
636.22	0.259
636.42	0.258
636.62	0.259
636.82	0.258
637.02	0.258
637.22	0.258
637.42	0.257
637.62	0.257
637.82	0.258
638.02	0.257
638.22	0.257
638.42	0.256
638.62	0.255
638.82	0.256
639.02	0.255
639.22	0.255
639.42	0.254
639.62	0.254
639.82	0.253
640.02	0.254
640.22	0.254
640.42	0.254
640.62	0.254
640.82	0.254
641.02	0.253
641.22	0.254
641.42	0.253
641.61	0.253
641.81	0.253
642.01	0.252
642.21	0.253
642.41	0.253
642.61	0.252
642.81	0.250
643.01	0.251
643.21	0.250
643.41	0.251
643.61	0.251
643.81	0.250
644.01	0.249
644.21	0.249
644.41	0.250
644.61	0.249
644.81	0.250
645.01	0.250
645.21	0.249
645.41	0.249
645.61	0.248
645.81	0.247
646.01	0.247
646.21	0.248
646.40	0.247
646.60	0.247
646.80	0.248
647.00	0.247
647.20	0.246
647.40	0.245
647.60	0.246
647.80	0.245
648.00	0.245
648.20	0.245
648.40	0.245
648.60	0.244
648.80	0.244
649.00	0.243
649.20	0.244
649.39	0.242
649.59	0.242
649.79	0.242
649.99	0.242
650.19	0.241
650.39	0.241
650.59	0.241
650.79	0.241
650.99	0.241
651.19	0.240
651.39	0.240
651.58	0.240
651.78	0.240
651.98	0.239
652.18	0.239
652.38	0.239
652.58	0.239
652.78	0.239
652.98	0.238
653.18	0.239
653.38	0.239
653.57	0.238
653.77	0.239
653.97	0.238
654.17	0.238
654.37	0.237
654.57	0.238
654.77	0.238
654.97	0.237
655.16	0.237
655.36	0.237
655.56	0.236
655.76	0.235
655.96	0.237
656.16	0.234
656.36	0.235
656.56	0.234
656.75	0.235
656.95	0.234
657.15	0.234
657.35	0.234
657.55	0.233
657.75	0.234
657.95	0.234
658.14	0.233
658.34	0.233
658.54	0.233
658.74	0.233
658.94	0.232
659.14	0.232
659.34	0.232
659.53	0.231
659.73	0.231
659.93	0.231
660.13	0.231
660.33	0.230
660.53	0.230
660.72	0.231
660.92	0.230
661.12	0.230
661.32	0.230
661.52	0.229
661.72	0.229
661.91	0.229
662.11	0.229
662.31	0.228
662.51	0.228
662.71	0.228
662.90	0.227
663.10	0.226
663.30	0.226
663.50	0.226
663.70	0.225
663.90	0.224
664.09	0.225
664.29	0.224
664.49	0.224
664.69	0.224
664.89	0.223
665.08	0.223
665.28	0.223
665.48	0.223
665.68	0.222
665.88	0.222
666.07	0.222
666.27	0.222
666.47	0.222
666.67	0.222
666.87	0.222
667.06	0.221
667.26	0.221
667.46	0.221
667.66	0.222
667.85	0.221
668.05	0.221
668.25	0.221
668.45	0.221
668.65	0.220
668.84	0.220
669.04	0.220
669.24	0.220
669.44	0.219
669.63	0.219
669.83	0.219
670.03	0.218
670.23	0.217
670.42	0.217
670.62	0.217
670.82	0.217
671.02	0.216
671.22	0.215
671.41	0.215
671.61	0.216
671.81	0.215
672.01	0.216
672.20	0.215
672.40	0.215
672.60	0.215
672.80	0.215
672.99	0.214
673.19	0.213
673.39	0.214
673.58	0.214
673.78	0.213
673.98	0.213
674.18	0.213
674.37	0.212
674.57	0.212
674.77	0.212
674.97	0.212
675.16	0.212
675.36	0.211
675.56	0.210
675.75	0.210
675.95	0.210
676.15	0.210
676.35	0.210
676.54	0.210
676.74	0.209
676.94	0.210
677.13	0.209
677.33	0.209
677.53	0.210
677.73	0.210
677.92	0.209
678.12	0.210
678.32	0.208
678.51	0.209
678.71	0.209
678.91	0.208
679.11	0.207
679.30	0.207
679.50	0.207
679.70	0.206
679.89	0.206
680.09	0.206
680.29	0.205
680.48	0.205
680.68	0.204
680.88	0.204
681.07	0.204
681.27	0.204
681.47	0.204
681.66	0.204
681.86	0.203
682.06	0.203
682.25	0.202
682.45	0.202
682.65	0.202
682.84	0.201
683.04	0.201
683.24	0.201
683.43	0.202
683.63	0.201
683.83	0.201
684.02	0.201
684.22	0.201
684.42	0.200
684.61	0.201
684.81	0.201
685.01	0.200
685.20	0.199
685.40	0.199
685.60	0.199
685.79	0.199
685.99	0.199
686.19	0.198
686.38	0.198
686.58	0.199
686.77	0.199
686.97	0.198
687.17	0.199
687.36	0.199
687.56	0.198
687.76	0.198
687.95	0.198
688.15	0.197
688.34	0.198
688.54	0.197
688.74	0.196
688.93	0.196
689.13	0.196
689.33	0.196
689.52	0.195
689.72	0.196
689.91	0.195
690.11	0.195
690.31	0.194
690.50	0.194
690.70	0.194
690.89	0.194
691.09	0.193
691.29	0.193
691.48	0.193
691.68	0.192
691.87	0.193
692.07	0.193
692.27	0.192
692.46	0.192
692.66	0.192
692.85	0.192
693.05	0.192
693.25	0.192
693.44	0.191
693.64	0.191
693.83	0.191
694.03	0.190
694.22	0.190
694.42	0.190
694.62	0.190
694.81	0.191
695.01	0.191
695.20	0.190
695.40	0.189
695.59	0.189
695.79	0.188
695.99	0.189
696.18	0.189
696.38	0.189
696.57	0.189
696.77	0.188
696.96	0.189
697.16	0.188
697.36	0.188
697.55	0.188
697.75	0.187
697.94	0.187
698.14	0.187
698.33	0.187
698.53	0.186
698.72	0.186
698.92	0.186
699.11	0.186
699.31	0.186
699.51	0.186
699.70	0.186
699.90	0.186
700.09	0.186
700.29	0.185
700.48	0.186
700.68	0.186
700.87	0.186
701.07	0.185
701.26	0.184
701.46	0.184
701.65	0.184
701.85	0.184
702.04	0.184
702.24	0.183
702.43	0.184
702.63	0.183
702.82	0.183
703.02	0.183
703.21	0.183
703.41	0.183
703.60	0.183
703.80	0.183
703.99	0.182
704.19	0.183
704.38	0.182
704.58	0.181
704.77	0.181
704.97	0.181
705.16	0.182
705.36	0.182
705.55	0.182
705.75	0.181
705.94	0.181
706.14	0.181
706.33	0.181
706.53	0.181
706.72	0.181
706.92	0.180
707.11	0.180
707.31	0.179
707.50	0.180
707.70	0.180
707.89	0.180
708.09	0.180
708.28	0.180
708.48	0.180
708.67	0.179
708.86	0.180
709.06	0.180
709.25	0.180
709.45	0.180
709.64	0.180
709.84	0.180
710.03	0.179
710.23	0.179
710.42	0.178
710.62	0.179
710.81	0.178
711.00	0.179
711.20	0.178
711.39	0.178
711.59	0.178
711.78	0.178
711.98	0.178
712.17	0.177
712.37	0.177
712.56	0.177
712.75	0.178
712.95	0.178
713.14	0.177
713.34	0.177
713.53	0.177
713.73	0.177
713.92	0.178
714.11	0.178
714.31	0.178
714.50	0.177
714.70	0.177
714.89	0.176
715.08	0.177
715.28	0.177
715.47	0.176
715.67	0.176
715.86	0.176
716.06	0.176
716.25	0.176
716.44	0.176
716.64	0.175
716.83	0.176
717.03	0.175
717.22	0.175
717.41	0.174
717.61	0.174
717.80	0.175
717.99	0.175
718.19	0.174
718.38	0.175
718.58	0.174
718.77	0.174
718.96	0.173
719.16	0.173
719.35	0.173
719.55	0.173
719.74	0.173
719.93	0.173
720.13	0.172
720.32	0.172
720.51	0.173
720.71	0.173
720.90	0.173
721.10	0.172
721.29	0.172
721.48	0.172
721.68	0.172
721.87	0.172
722.06	0.172
722.26	0.172
722.45	0.172
722.64	0.172
722.84	0.172
723.03	0.172
723.22	0.172
723.42	0.172
723.61	0.172
723.80	0.172
724.00	0.173
724.19	0.172
724.38	0.172
724.58	0.172
724.77	0.172
724.96	0.172
725.16	0.172
725.35	0.172
725.54	0.172
725.74	0.172
725.93	0.172
726.12	0.171
726.32	0.172
726.51	0.172
726.70	0.172
726.90	0.172
727.09	0.172
727.28	0.171
727.48	0.172
727.67	0.171
727.86	0.171
728.06	0.171
728.25	0.172
728.44	0.172
728.64	0.171
728.83	0.171
729.02	0.171
729.21	0.171
729.41	0.171
729.60	0.171
729.79	0.171
729.99	0.171
730.18	0.171
730.37	0.170
730.56	0.170
730.76	0.170
730.95	0.170
731.14	0.170
731.34	0.170
731.53	0.171
731.72	0.170
731.91	0.171
732.11	0.170
732.30	0.171
732.49	0.171
732.69	0.171
732.88	0.171
733.07	0.170
733.26	0.170
733.46	0.169
733.65	0.170
733.84	0.169
734.03	0.170
734.23	0.169
734.42	0.170
734.61	0.169
734.80	0.169
735.00	0.170
735.19	0.170
735.38	0.170
735.57	0.170
735.77	0.171
735.96	0.170
736.15	0.170
736.34	0.170
736.54	0.171
736.73	0.171
736.92	0.171
737.11	0.171
737.31	0.170
737.50	0.171
737.69	0.171
737.88	0.171
738.07	0.171
738.27	0.170
738.46	0.171
738.65	0.170
738.84	0.170
739.04	0.170
739.23	0.170
739.42	0.170
739.61	0.170
739.80	0.169
740.00	0.169
740.19	0.170
740.38	0.169
740.57	0.169
740.76	0.169
740.96	0.169
741.15	0.169
741.34	0.169
741.53	0.169
741.72	0.169
741.92	0.168
742.11	0.168
742.30	0.168
742.49	0.168
742.68	0.168
742.88	0.169
743.07	0.168
743.26	0.169
743.45	0.169
743.64	0.168
743.84	0.168
744.03	0.168
744.22	0.168
744.41	0.167
744.60	0.167
744.79	0.167
744.99	0.167
745.18	0.167
745.37	0.166
745.56	0.166
745.75	0.166
745.94	0.165
746.14	0.165
746.33	0.166
746.52	0.166
746.71	0.166
746.90	0.166
747.09	0.166
747.28	0.166
747.48	0.166
747.67	0.166
747.86	0.166
748.05	0.167
748.24	0.166
748.43	0.166
748.62	0.166
748.82	0.166
749.01	0.165
749.20	0.165
749.39	0.165
749.58	0.166
749.77	0.165
749.96	0.165
750.16	0.165
750.35	0.165
750.54	0.165
750.73	0.165
750.92	0.165
751.11	0.164
751.30	0.165
751.49	0.164
751.68	0.164
751.88	0.164
752.07	0.163
752.26	0.164
752.45	0.164
752.64	0.164
752.83	0.164
753.02	0.164
753.21	0.164
753.40	0.164
753.60	0.164
753.79	0.164
753.98	0.164
754.17	0.164
754.36	0.163
754.55	0.163
754.74	0.163
754.93	0.163
755.12	0.163
755.31	0.163
755.50	0.162
755.70	0.162
755.89	0.162
756.08	0.162
756.27	0.162
756.46	0.162
756.65	0.162
756.84	0.162
757.03	0.162
757.22	0.161
757.41	0.161
757.60	0.161
757.79	0.161
757.98	0.162
758.17	0.161
758.36	0.162
758.56	0.161
758.75	0.161
758.94	0.161
759.13	0.161
759.32	0.161
759.51	0.161
759.70	0.161
759.89	0.161
760.08	0.161
760.27	0.161
760.46	0.161
760.65	0.160
760.84	0.160
761.03	0.160
761.22	0.161
761.41	0.161
761.60	0.161
761.79	0.160
761.98	0.160
762.17	0.160
762.36	0.160
762.55	0.160
762.74	0.159
762.93	0.159
763.12	0.159
763.31	0.158
763.50	0.158
763.69	0.158
763.88	0.158
764.07	0.158
764.26	0.158
764.45	0.158
764.64	0.159
764.83	0.158
765.02	0.159
765.21	0.158
765.40	0.159
765.59	0.159
765.78	0.159
765.97	0.159
766.16	0.159
766.35	0.159
766.54	0.159
766.73	0.159
766.92	0.159
767.11	0.158
767.30	0.159
767.49	0.159
767.68	0.159
767.87	0.158
768.06	0.158
768.25	0.158
768.44	0.159
768.63	0.158
768.82	0.158
769.01	0.157
769.20	0.157
769.39	0.158
769.58	0.158
769.77	0.158
769.96	0.158
770.15	0.158
770.34	0.158
770.53	0.158
770.72	0.158
770.91	0.157
771.10	0.158
771.29	0.157
771.47	0.157
771.66	0.156
771.85	0.157
772.04	0.156
772.23	0.156
772.42	0.156
772.61	0.157
772.80	0.157
772.99	0.157
773.18	0.156
773.37	0.157
773.56	0.157
773.75	0.157
773.94	0.157
774.13	0.156
774.31	0.157
774.50	0.157
774.69	0.157
774.88	0.157
775.07	0.157
775.26	0.157
775.45	0.156
775.64	0.157
775.83	0.156
776.02	0.156
776.21	0.156
776.40	0.157
776.58	0.156
776.77	0.156
776.96	0.157
777.15	0.157
777.34	0.157
777.53	0.157
777.72	0.157
777.91	0.156
778.10	0.156
778.28	0.156
778.47	0.156
778.66	0.155
778.85	0.155
779.04	0.154
779.23	0.154
779.42	0.154
779.61	0.154
779.79	0.153
779.98	0.153
780.17	0.154
780.36	0.153
780.55	0.153
780.74	0.153
780.93	0.153
781.12	0.154
781.30	0.154
781.49	0.154
781.68	0.154
781.87	0.154
782.06	0.154
782.25	0.154
782.44	0.155
782.62	0.154
782.81	0.155
783.00	0.154
783.19	0.154
783.38	0.154
783.57	0.154
783.75	0.154
783.94	0.154
784.13	0.154
784.32	0.153
784.51	0.153
784.70	0.153
784.88	0.153
785.07	0.153
785.26	0.153
785.45	0.154
785.64	0.153
785.83	0.154
786.01	0.153
786.20	0.153
786.39	0.153
786.58	0.153
786.77	0.153
786.95	0.153
787.14	0.153
787.33	0.153
787.52	0.153
787.71	0.153
787.90	0.153
788.08	0.153
788.27	0.153
788.46	0.152
788.65	0.152
788.84	0.152
789.02	0.152
789.21	0.153
789.40	0.153
789.59	0.153
789.77	0.153
789.96	0.152
790.15	0.153
790.34	0.153
790.53	0.153
790.71	0.153
790.90	0.153
791.09	0.152
791.28	0.153
791.46	0.153
791.65	0.152
791.84	0.152
792.03	0.152
792.22	0.152
792.40	0.152
792.59	0.152
792.78	0.152
792.97	0.152
793.15	0.152
793.34	0.152
793.53	0.152
793.72	0.152
793.90	0.151
794.09	0.152
794.28	0.152
794.47	0.152
794.65	0.151
794.84	0.151
795.03	0.151
795.22	0.151
795.40	0.151
795.59	0.151
795.78	0.150
795.97	0.151
796.15	0.151
796.34	0.151
796.53	0.151
796.71	0.151
796.90	0.151
797.09	0.151
797.28	0.151
797.46	0.150
797.65	0.150
797.84	0.150
798.02	0.150
798.21	0.150
798.40	0.150
798.59	0.149
798.77	0.149
798.96	0.149
799.15	0.149
799.33	0.150
799.52	0.149
799.71	0.149
799.90	0.150
800.08	0.150
800.27	0.149
800.46	0.149
800.64	0.149
800.83	0.149
801.02	0.149
801.20	0.149
801.39	0.149
801.58	0.149
801.76	0.149
801.95	0.149
802.14	0.149
802.32	0.149
802.51	0.149
802.70	0.149
802.88	0.149
803.07	0.149
803.26	0.149
803.44	0.148
803.63	0.149
803.82	0.149
804.00	0.149
804.19	0.149
804.38	0.149
804.56	0.149
804.75	0.149
804.94	0.149
805.12	0.149
805.31	0.149
805.50	0.150
805.68	0.149
805.87	0.149
806.06	0.149
806.24	0.149
806.43	0.149
806.62	0.149
806.80	0.149
806.99	0.149
807.17	0.149
807.36	0.149
807.55	0.149
807.73	0.149
807.92	0.150
808.11	0.150
808.29	0.149
808.48	0.149
808.66	0.149
808.85	0.149
809.04	0.149
809.22	0.149
809.41	0.149
809.59	0.149
809.78	0.148
809.97	0.148
810.15	0.148
810.34	0.148
810.53	0.148
810.71	0.148
810.90	0.148
811.08	0.148
811.27	0.148
811.45	0.148
811.64	0.148
811.83	0.148
812.01	0.148
812.20	0.148
812.38	0.148
812.57	0.147
812.76	0.147
812.94	0.147
813.13	0.147
813.31	0.147
813.50	0.148
813.68	0.148
813.87	0.147
814.06	0.148
814.24	0.147
814.43	0.147
814.61	0.148
814.80	0.147
814.98	0.148
815.17	0.148
815.36	0.147
815.54	0.147
815.73	0.147
815.91	0.147
816.10	0.148
816.28	0.147
816.47	0.147
816.65	0.147
816.84	0.148
817.03	0.148
817.21	0.148
817.40	0.148
817.58	0.148
817.77	0.148
817.95	0.148
818.14	0.148
818.32	0.148
818.51	0.148
818.69	0.148
818.88	0.148
819.06	0.147
819.25	0.147
819.43	0.147
819.62	0.148
819.80	0.147
819.99	0.148
820.18	0.148
820.36	0.147
820.55	0.148
820.73	0.148
820.92	0.148
821.10	0.148
821.29	0.149
821.47	0.148
821.66	0.148
821.84	0.148
822.03	0.148
822.21	0.148
822.40	0.148
822.58	0.148
822.77	0.148
822.95	0.148
823.14	0.148
823.32	0.148
823.50	0.148
823.69	0.148
823.87	0.148
824.06	0.149
824.24	0.149
824.43	0.148
824.61	0.149
824.80	0.149
824.98	0.149
825.17	0.149
825.35	0.150
825.54	0.150
825.72	0.150
825.91	0.149
826.09	0.149
826.28	0.149
826.46	0.150
826.64	0.150
826.83	0.150
827.01	0.150
827.20	0.149
827.38	0.149
827.57	0.150
827.75	0.150
827.94	0.150
828.12	0.151
828.31	0.151
828.49	0.151
828.67	0.151
828.86	0.151
829.04	0.151
829.23	0.151
829.41	0.152
829.60	0.151
829.78	0.152
829.96	0.152
830.15	0.153
830.33	0.153
830.52	0.153
830.70	0.153
830.88	0.153
831.07	0.153
831.25	0.153
831.44	0.153
831.62	0.153
831.81	0.153
831.99	0.153
832.17	0.153
832.36	0.153
832.54	0.153
832.73	0.153
832.91	0.153
833.09	0.153
833.28	0.153
833.46	0.154
833.65	0.154
833.83	0.154
834.01	0.154
834.20	0.154
834.38	0.153
834.56	0.154
834.75	0.154
834.93	0.154
835.12	0.154
835.30	0.154
835.48	0.154
835.67	0.154
835.85	0.154
836.03	0.154
836.22	0.154
836.40	0.154
836.59	0.154
836.77	0.154
836.95	0.155
837.14	0.154
837.32	0.154
837.50	0.154
837.69	0.154
837.87	0.154
838.05	0.154
838.24	0.154
838.42	0.154
838.60	0.154
838.79	0.156
838.97	0.155
839.15	0.155
839.34	0.155
839.52	0.155
839.70	0.155
839.89	0.155
840.07	0.155
840.25	0.155
840.44	0.154
840.62	0.154
840.80	0.154
840.99	0.154
841.17	0.154
841.35	0.154
841.54	0.154
841.72	0.154
841.90	0.154
842.09	0.155
842.27	0.155
842.45	0.155
842.64	0.156
842.82	0.155
843.00	0.155
843.19	0.155
843.37	0.155
843.55	0.155
843.73	0.155
843.92	0.155
844.10	0.155
844.28	0.155
844.47	0.155
844.65	0.154
844.83	0.155
845.01	0.155
845.20	0.156
845.38	0.156
845.56	0.156
845.75	0.156
845.93	0.156
846.11	0.156
846.29	0.156
846.48	0.156
846.66	0.157
846.84	0.156
847.02	0.155
847.21	0.155
847.39	0.156
847.57	0.155
847.76	0.156
847.94	0.156
848.12	0.156
848.30	0.156
848.49	0.156
848.67	0.156
848.85	0.156
849.03	0.156
849.22	0.156
849.40	0.157
849.58	0.157
849.76	0.156
849.95	0.157
850.13	0.157
850.31	0.157
850.49	0.157
850.67	0.157
850.86	0.157
851.04	0.157
851.22	0.156
851.40	0.156
851.59	0.156
851.77	0.157
851.95	0.157
852.13	0.157
852.31	0.156
852.50	0.157
852.68	0.158
852.86	0.157
853.04	0.157
853.23	0.157
853.41	0.157
853.59	0.157
853.77	0.157
853.95	0.157
854.14	0.157
854.32	0.157
854.50	0.157
854.68	0.156
854.86	0.157
855.04	0.157
855.23	0.157
855.41	0.157
855.59	0.157
855.77	0.157
855.95	0.158
856.14	0.157
856.32	0.157
856.50	0.157
856.68	0.157
856.86	0.157
857.04	0.156
857.23	0.156
857.41	0.156
857.59	0.156
857.77	0.156
857.95	0.156
858.13	0.156
858.32	0.156
858.50	0.157
858.68	0.156
858.86	0.157
859.04	0.157
859.22	0.157
859.41	0.157
859.59	0.157
859.77	0.157
859.95	0.157
860.13	0.158
860.31	0.157
860.49	0.157
860.68	0.157
860.86	0.157
861.04	0.157
861.22	0.157
861.40	0.157
861.58	0.157
861.76	0.156
861.94	0.157
862.13	0.157
862.31	0.157
862.49	0.157
862.67	0.157
862.85	0.157
863.03	0.158
863.21	0.158
863.39	0.158
863.57	0.158
863.76	0.158
863.94	0.158
864.12	0.158
864.30	0.158
864.48	0.158
864.66	0.158
864.84	0.158
865.02	0.158
865.20	0.158
865.38	0.158
865.57	0.158
865.75	0.158
865.93	0.158
866.11	0.158
866.29	0.158
866.47	0.159
866.65	0.158
866.83	0.159
867.01	0.158
867.19	0.159
867.37	0.158
867.55	0.159
867.73	0.159
867.92	0.159
868.10	0.159
868.28	0.159
868.46	0.158
868.64	0.158
868.82	0.159
869.00	0.159
869.18	0.159
869.36	0.159
869.54	0.159
869.72	0.159
869.90	0.159
870.08	0.159
870.26	0.159
870.44	0.159
870.62	0.160
870.80	0.159
870.98	0.160
871.16	0.160
871.34	0.159
871.53	0.159
871.71	0.159
871.89	0.159
872.07	0.159
872.25	0.159
872.43	0.159
872.61	0.159
872.79	0.159
872.97	0.159
873.15	0.159
873.33	0.160
873.51	0.160
873.69	0.160
873.87	0.160
874.05	0.160
874.23	0.160
874.41	0.160
874.59	0.161
874.77	0.160
874.95	0.159
875.13	0.160
875.31	0.159
875.49	0.160
875.67	0.160
875.85	0.160
876.03	0.160
876.21	0.161
876.39	0.161
876.57	0.161
876.75	0.161
876.93	0.161
877.11	0.161
877.29	0.161
877.47	0.160
877.65	0.161
877.82	0.161
878.00	0.161
878.18	0.161
878.36	0.161
878.54	0.161
878.72	0.161
878.90	0.161
879.08	0.161
879.26	0.161
879.44	0.161
879.62	0.161
879.80	0.161
879.98	0.161
880.16	0.161
880.34	0.161
880.52	0.161
880.70	0.161
880.88	0.161
881.06	0.161
881.24	0.161
881.42	0.161
881.59	0.161
881.77	0.161
881.95	0.161
882.13	0.161
882.31	0.161
882.49	0.161
882.67	0.162
882.85	0.161
883.03	0.161
883.21	0.162
883.39	0.162
883.57	0.162
883.75	0.162
883.92	0.162
884.10	0.162
884.28	0.161
884.46	0.162
884.64	0.161
884.82	0.162
885.00	0.162
885.18	0.162
885.36	0.162
885.54	0.162
885.71	0.162
885.89	0.163
886.07	0.163
886.25	0.163
886.43	0.163
886.61	0.163
886.79	0.163
886.97	0.163
887.15	0.163
887.32	0.162
887.50	0.163
887.68	0.163
887.86	0.162
888.04	0.163
888.22	0.163
888.40	0.163
888.57	0.163
888.75	0.163
888.93	0.163
889.11	0.163
889.29	0.164
889.47	0.164
889.65	0.163
889.82	0.163
890.00	0.164
890.18	0.163
890.36	0.163
890.54	0.164
890.72	0.163
890.90	0.163
891.07	0.163
891.25	0.163
891.43	0.162
891.61	0.163
891.79	0.163
891.97	0.163
892.14	0.163
892.32	0.163
892.50	0.163
892.68	0.163
892.86	0.164
893.03	0.164
893.21	0.164
893.39	0.164
893.57	0.164
893.75	0.164
893.93	0.164
894.10	0.164
894.28	0.164
894.46	0.164
894.64	0.164
894.82	0.164
894.99	0.164
895.17	0.164
895.35	0.164
895.53	0.164
895.71	0.164
895.88	0.164
896.06	0.164
896.24	0.165
896.42	0.164
896.59	0.165
896.77	0.165
896.95	0.165
897.13	0.165
897.31	0.165
897.48	0.165
897.66	0.165
897.84	0.165
898.02	0.165
898.19	0.165
898.37	0.165
898.55	0.165
898.73	0.165
898.91	0.165
899.08	0.165
899.26	0.164
899.44	0.165
899.62	0.165
899.79	0.165
899.97	0.166
900.15	0.165
900.33	0.165
900.50	0.165
900.68	0.165
900.86	0.165
901.04	0.165
901.21	0.165
901.39	0.166
901.57	0.165
901.74	0.165
901.92	0.165
902.10	0.166
902.28	0.166
902.45	0.166
902.63	0.166
902.81	0.166
902.99	0.166
903.16	0.166
903.34	0.166
903.52	0.167
903.69	0.167
903.87	0.167
904.05	0.167
904.22	0.167
904.40	0.168
904.58	0.167
904.76	0.168
904.93	0.168
905.11	0.168
905.29	0.168
905.46	0.168
905.64	0.168
905.82	0.168
905.99	0.167
906.17	0.168
906.35	0.168
906.53	0.168
906.70	0.168
906.88	0.169
907.06	0.168
907.23	0.168
907.41	0.169
907.59	0.168
907.76	0.169
907.94	0.169
908.12	0.169
908.29	0.169
908.47	0.169
908.65	0.170
908.82	0.169
909.00	0.169
909.18	0.170
909.35	0.169
909.53	0.169
909.71	0.169
909.88	0.170
910.06	0.170
910.23	0.169
910.41	0.170
910.59	0.169
910.76	0.170
910.94	0.170
911.12	0.170
911.29	0.170
911.47	0.170
911.65	0.171
911.82	0.171
912.00	0.171
912.17	0.171
912.35	0.172
912.53	0.172
912.70	0.172
912.88	0.172
913.06	0.172
913.23	0.172
913.41	0.172
913.58	0.173
913.76	0.172
913.94	0.172
914.11	0.172
914.29	0.172
914.46	0.172
914.64	0.172
914.82	0.172
914.99	0.173
915.17	0.172
915.34	0.173
915.52	0.172
915.70	0.173
915.87	0.173
916.05	0.173
916.22	0.173
916.40	0.173
916.57	0.174
916.75	0.174
916.93	0.174
917.10	0.174
917.28	0.174
917.45	0.174
917.63	0.174
917.80	0.174
917.98	0.174
918.16	0.174
918.33	0.175
918.51	0.175
918.68	0.175
918.86	0.175
919.03	0.175
919.21	0.176
919.39	0.176
919.56	0.176
919.74	0.177
919.91	0.177
920.09	0.177
920.26	0.177
920.44	0.177
920.61	0.177
920.79	0.178
920.96	0.178
921.14	0.178
921.31	0.178
921.49	0.178
921.67	0.178
921.84	0.179
922.02	0.178
922.19	0.179
922.37	0.179
922.54	0.179
922.72	0.179
922.89	0.180
923.07	0.180
923.24	0.181
923.42	0.181
923.59	0.181
923.77	0.182
923.94	0.182
924.12	0.182
924.29	0.182
924.47	0.183
924.64	0.183
924.82	0.183
924.99	0.183
925.17	0.184
925.34	0.184
925.52	0.184
925.69	0.184
925.87	0.185
926.04	0.185
926.22	0.186
926.39	0.186
926.57	0.186
926.74	0.186
926.91	0.187
927.09	0.187
927.26	0.187
927.44	0.187
927.61	0.188
927.79	0.188
927.96	0.189
928.14	0.189
928.31	0.190
928.49	0.189
928.66	0.190
928.84	0.191
929.01	0.191
929.18	0.192
929.36	0.192
929.53	0.193
929.71	0.193
929.88	0.193
930.06	0.193
930.23	0.194
930.41	0.194
930.58	0.195
930.75	0.196
930.93	0.196
931.10	0.196
931.28	0.196
931.45	0.197
931.63	0.197
931.80	0.197
931.97	0.198
932.15	0.199
932.32	0.200
932.50	0.200
932.67	0.200
932.84	0.201
933.02	0.202
933.19	0.202
933.37	0.202
933.54	0.203
933.71	0.203
933.89	0.205
934.06	0.205
934.24	0.205
934.41	0.205
934.58	0.206
934.76	0.206
934.93	0.207
935.11	0.207
935.28	0.207
935.45	0.207
935.63	0.207
935.80	0.208
935.98	0.208
936.15	0.208
936.32	0.209
936.50	0.210
936.67	0.210
936.84	0.210
937.02	0.212
937.19	0.213
937.36	0.213
937.54	0.214
937.71	0.215
937.89	0.215
938.06	0.216
938.23	0.216
938.41	0.218
938.58	0.218
938.75	0.218
938.93	0.219
939.10	0.219
939.27	0.219
939.45	0.220
939.62	0.220
939.79	0.221
939.97	0.221
940.14	0.222
940.31	0.223
940.49	0.223
940.66	0.224
940.83	0.224
941.01	0.225
941.18	0.226
941.35	0.226
941.53	0.227
941.70	0.228
941.87	0.228
942.05	0.229
942.22	0.230
942.39	0.231
942.57	0.231
942.74	0.233
942.91	0.232
943.08	0.233
943.26	0.232
943.43	0.233
943.60	0.233
943.78	0.234
943.95	0.235
944.12	0.236
944.29	0.237
944.47	0.237
944.64	0.238
944.81	0.240
944.99	0.240
945.16	0.241
945.33	0.241
945.50	0.242
945.68	0.243
945.85	0.243
946.02	0.245
946.20	0.246
946.37	0.247
946.54	0.247
946.71	0.249
946.89	0.249
947.06	0.250
947.23	0.251
947.40	0.253
947.58	0.252
947.75	0.254
947.92	0.254
948.09	0.255
948.27	0.256
948.44	0.257
948.61	0.258
948.78	0.259
948.96	0.260
949.13	0.261
949.30	0.262
949.47	0.263
949.65	0.264
949.82	0.266
949.99	0.265
950.16	0.268
950.33	0.268
950.51	0.270
950.68	0.272
950.85	0.273
951.02	0.275
951.20	0.275
951.37	0.277
951.54	0.277
951.71	0.279
951.88	0.280
952.06	0.282
952.23	0.282
952.40	0.284
952.57	0.286
952.74	0.287
952.92	0.287
953.09	0.289
953.26	0.290
953.43	0.291
953.60	0.291
953.77	0.292
953.95	0.293
954.12	0.295
954.29	0.296
954.46	0.299
954.63	0.299
954.81	0.300
954.98	0.300
955.15	0.303
955.32	0.304
955.49	0.304
955.66	0.307
955.84	0.308
956.01	0.307
956.18	0.310
956.35	0.311
956.52	0.311
956.69	0.313
956.87	0.314
957.04	0.314
957.21	0.317
957.38	0.317
957.55	0.318
957.72	0.319
957.89	0.320
958.07	0.320
958.24	0.323
958.41	0.325
958.58	0.325
958.75	0.326
958.92	0.327
959.09	0.327
959.26	0.327
959.44	0.328
959.61	0.329
959.78	0.330
959.95	0.331
960.12	0.331
960.29	0.334
960.46	0.333
960.63	0.333
960.81	0.333
960.98	0.334
961.15	0.335
961.32	0.335
961.49	0.334
961.66	0.337
961.83	0.337
962.00	0.337
962.17	0.338
962.34	0.337
962.52	0.338
962.69	0.339
962.86	0.339
963.03	0.339
963.20	0.340
963.37	0.339
963.54	0.340
963.71	0.339
963.88	0.339
964.05	0.340
964.22	0.342
964.39	0.340
964.56	0.341
964.74	0.342
964.91	0.342
965.08	0.343
965.25	0.343
965.42	0.343
965.59	0.345
965.76	0.344
965.93	0.346
966.10	0.343
966.27	0.345
966.44	0.344
966.61	0.346
966.78	0.345
966.95	0.344
967.12	0.347
967.29	0.349
967.46	0.348
967.63	0.347
967.80	0.348
967.97	0.348
968.14	0.347
968.32	0.348
968.49	0.348
968.66	0.346
968.83	0.347
969.00	0.346
969.17	0.346
969.34	0.347
969.51	0.348
969.68	0.347
969.85	0.348
970.02	0.348
970.19	0.348
970.36	0.349
970.53	0.349
970.70	0.347
970.87	0.348
971.04	0.347
971.21	0.349
971.38	0.349
971.55	0.349
971.72	0.348
971.89	0.350
972.06	0.348
972.23	0.349
972.40	0.349
972.57	0.347
972.74	0.347
972.91	0.349
973.07	0.348
973.24	0.348
973.41	0.348
973.58	0.346
973.75	0.365
973.92	0.348
974.09	0.347
974.26	0.346
974.43	0.345
974.60	0.347
974.77	0.347
974.94	0.347
975.11	0.348
975.28	0.350
975.45	0.347
975.62	0.349
975.79	0.351
975.96	0.348
976.13	0.347
976.30	0.350
976.47	0.347
976.64	0.347
976.80	0.348
976.97	0.347
977.14	0.347
977.31	0.347
977.48	0.347
977.65	0.346
977.82	0.345
977.99	0.347
978.16	0.346
978.33	0.346
978.50	0.346
978.67	0.346
978.83	0.346
979.00	0.346
979.17	0.346
979.34	0.345
979.51	0.346
979.68	0.346
979.85	0.345
980.02	0.346
980.19	0.343
980.36	0.345
980.52	0.347
980.69	0.345
980.86	0.345
981.03	0.345
981.20	0.343
981.37	0.344
981.54	0.345
981.71	0.343
981.88	0.344
982.04	0.343
982.21	0.342
982.38	0.344
982.55	0.341
982.72	0.340
982.89	0.342
983.06	0.340
983.22	0.340
983.39	0.340
983.56	0.340
983.73	0.339
983.90	0.338
984.07	0.340
984.24	0.338
984.40	0.338
984.57	0.336
984.74	0.339
984.91	0.341
985.08	0.337
985.25	0.335
985.41	0.336
985.58	0.336
985.75	0.338
985.92	0.337
986.09	0.335
986.26	0.336
986.42	0.334
986.59	0.332
986.76	0.334
986.93	0.334
987.10	0.335
987.27	0.331
987.43	0.329
987.60	0.333
987.77	0.332
987.94	0.330
988.11	0.332
988.27	0.332
988.44	0.332
988.61	0.330
988.78	0.328
988.95	0.329
989.11	0.332
989.28	0.331
989.45	0.329
989.62	0.329
989.79	0.329
989.95	0.328
990.12	0.330
990.29	0.331
990.46	0.327
990.62	0.326
990.79	0.326
990.96	0.327
991.13	0.327
991.30	0.325
991.46	0.324
991.63	0.323
991.80	0.321
991.97	0.322
992.13	0.323
992.30	0.324
992.47	0.322
992.64	0.322
992.80	0.322
992.97	0.324
993.14	0.320
993.31	0.317
993.47	0.321
993.64	0.318
993.81	0.318
993.98	0.319
994.14	0.318
994.31	0.316
994.48	0.318
994.64	0.318
994.81	0.316
994.98	0.317
995.15	0.314
995.31	0.314
995.48	0.314
995.65	0.318
995.82	0.313
995.98	0.312
996.15	0.315
996.32	0.317
996.48	0.315
996.65	0.315
996.82	0.311
996.99	0.312
997.15	0.311
997.32	0.313
997.49	0.310
997.65	0.312
997.82	0.311
997.99	0.308
998.15	0.309
998.32	0.311
998.49	0.309
998.65	0.309
998.82	0.308
998.99	0.305
999.15	0.305
999.32	0.304
999.49	0.303
999.65	0.304
999.82	0.300
999.99	0.301
1000.15	0.301
1000.32	0.301
1000.49	0.302
1000.65	0.299
1000.82	0.299
1000.99	0.301
1001.15	0.301
1001.32	0.300
1001.49	0.300
1001.65	0.300
1001.82	0.304
1001.99	0.299
1002.15	0.297
1002.32	0.296
1002.49	0.298
1002.65	0.296
1002.82	0.293
1002.99	0.292
1003.15	0.296
1003.32	0.294
1003.48	0.294
1003.65	0.294
1003.82	0.293
1003.98	0.289
1004.15	0.290
1004.32	0.290
1004.48	0.291
1004.65	0.293
1004.81	0.290
1004.98	0.288
1005.15	0.290
1005.31	0.290
1005.48	0.288
1005.64	0.287
1005.81	0.291
1005.98	0.287
1006.14	0.286
1006.31	0.287
1006.47	0.285
1006.64	0.284
1006.81	0.283
1006.97	0.283
1007.14	0.283
1007.30	0.285
1007.47	0.285
1007.63	0.282
1007.80	0.280
1007.97	0.279
1008.13	0.280
1008.30	0.279
1008.46	0.281
1008.63	0.278
1008.79	0.279
1008.96	0.280
1009.13	0.282
1009.29	0.278
1009.46	0.279
1009.62	0.278
1009.79	0.277
1009.95	0.277
1010.12	0.278
1010.28	0.278
1010.45	0.278
1010.62	0.278
1010.78	0.276
1010.95	0.274
1011.11	0.275
1011.28	0.273
1011.44	0.278
1011.61	0.275
1011.77	0.274
1011.94	0.275
1012.10	0.274
1012.27	0.274
1012.43	0.274
1012.60	0.272
1012.76	0.273
1012.93	0.273
1013.10	0.272
1013.26	0.267
1013.43	0.269
1013.59	0.281
1013.76	0.268
1013.92	0.267
1014.09	0.264
1014.25	0.267
1014.42	0.268
1014.58	0.267
1014.75	0.270
1014.91	0.266
1015.08	0.269
1015.24	0.264
1015.41	0.267
1015.57	0.266
1015.73	0.264
1015.90	0.261
1016.06	0.264
1016.23	0.262
1016.39	0.262
1016.56	0.264
1016.72	0.263
1016.89	0.263
1017.05	0.266
1017.22	0.261
1017.38	0.262
1017.55	0.260
1017.71	0.262
1017.88	0.262
1018.04	0.264
1018.21	0.260
1018.37	0.259
1018.53	0.259
1018.70	0.257
1018.86	0.255
1019.03	0.259
1019.19	0.255
1019.36	0.255
1019.52	0.258
1019.69	0.258
1019.85	0.255
1020.01	0.255
1020.18	0.254
1020.34	0.254
1020.51	0.254
1020.67	0.256
1020.84	0.255
1021.00	0.257
1021.16	0.253
1021.33	0.253
1021.49	0.252
1021.66	0.255
1021.82	0.252
1021.98	0.252
1022.15	0.251
1022.31	0.250
1022.48	0.247
1022.64	0.249
1022.80	0.248
1022.97	0.246
1023.13	0.246
1023.30	0.246
1023.46	0.247
1023.62	0.244
1023.79	0.247
1023.95	0.248
1024.12	0.248
1024.28	0.247
1024.44	0.248
1024.61	0.245
1024.77	0.245
1024.93	0.243
1025.10	0.246
1025.26	0.242
1025.43	0.243
1025.59	0.237
1025.75	0.243
1025.92	0.241
1026.08	0.240
1026.24	0.240
1026.41	0.242
1026.57	0.239
1026.73	0.237
1026.90	0.240
1027.06	0.236
1027.23	0.239
1027.39	0.238
1027.55	0.239
1027.72	0.237
1027.88	0.236
1028.04	0.237
1028.21	0.238
1028.37	0.229
1028.53	0.238
1028.70	0.235
1028.86	0.234
1029.02	0.234
1029.19	0.236
1029.35	0.232
1029.51	0.233
1029.67	0.232
1029.84	0.235
1030.00	0.226
1030.16	0.229
1030.33	0.233
1030.49	0.230
1030.65	0.226
1030.82	0.253
1030.98	0.230
1031.14	0.230
1031.31	0.230
1031.47	0.226
1031.63	0.230
1031.79	0.229
1031.96	0.231
1032.12	0.232
1032.28	0.227
1032.45	0.235
1032.61	0.232
1032.77	0.230
1032.93	0.226
1033.10	0.228
1033.26	0.231
1033.42	0.227
1033.58	0.227
1033.75	0.230
1033.91	0.226
1034.07	0.231
1034.24	0.228
1034.40	0.225
1034.56	0.225
1034.72	0.228
1034.89	0.229
1035.05	0.225
1035.21	0.226
1035.37	0.223
1035.54	0.229
1035.70	0.226
1035.86	0.225
1036.02	0.227
1036.19	0.225
1036.35	0.222
1036.51	0.228
1036.67	0.224
1036.83	0.223
1037.00	0.222
1037.16	0.223
1037.32	0.223
1037.48	0.222
1037.65	0.230
1037.81	0.221
1037.97	0.221
1038.13	0.221
1038.29	0.218
1038.46	0.213
1038.62	0.223
1038.78	0.219
1038.94	0.213
1039.10	0.222
1039.27	0.215
1039.43	0.218
1039.59	0.219
1039.75	0.218
1039.91	0.215
1040.08	0.215
1040.24	0.221
1040.40	0.223
1040.56	0.220
1040.72	0.210
1040.89	0.214
1041.05	0.218
1041.21	0.213
1041.37	0.209
1041.53	0.221
1041.69	0.218
1041.86	0.219
1042.02	0.211
1042.18	0.209
1042.34	0.212
1042.50	0.220
1042.66	0.214
1042.83	0.213
1042.99	0.221
1043.15	0.211
1043.31	0.211
1043.47	0.218
1043.63	0.211
1043.79	0.212
1043.96	0.213
1044.12	0.220
1044.28	0.213
1044.44	0.218
1044.60	0.208
1044.76	0.204
1044.92	0.209
1045.09	0.214
1045.25	0.210
1045.41	0.212
1045.57	0.205
1045.73	0.207
1045.89	0.208
1046.05	0.212
1046.21	0.230
1046.38	0.207
1046.54	0.224
1046.70	0.204
1046.86	0.209
>>>>>End Processed Spectral Data<<<<<
