SpectraSuite Data File
++++++++++++++++++++++++++++++++++++
Date: Mon May 20 12:12:45 CDT 2013
User: Students
Dark Spectrum Present: Yes
Reference Spectrum Present: Yes
Number of Sampled Component Spectra: 1
Spectrometers: USB4H00887
Integration Time (usec): 60000 (USB4H00887)
Spectra Averaged: 5 (USB4H00887)
Boxcar Smoothing: 5 (USB4H00887)
Correct for Electrical Dark: No (USB4H00887)
Strobe/Lamp Enabled: No (USB4H00887)
Correct for Detector Non-linearity: No (USB4H00887)
Correct for Stray Light: No (USB4H00887)
Number of Pixels in Processed Spectrum: 3648
>>>>>Begin Processed Spectral Data<<<<<
345.83	0.194
346.05	0.194
346.26	0.194
346.48	-0.000
346.70	-0.000
346.92	0.082
347.14	0.069
347.35	0.087
347.57	0.782
347.79	-0.281
348.01	-0.214
348.23	-0.385
348.44	-0.000
348.66	0.350
348.88	-0.428
349.10	-0.099
349.32	0.028
349.53	0.035
349.75	0.120
349.97	0.087
350.19	0.145
350.41	0.196
350.62	-0.411
350.84	0.067
351.06	0.063
351.28	0.070
351.50	0.152
351.71	0.244
351.93	0.036
352.15	-0.002
352.37	0.012
352.58	-0.001
352.80	0.003
353.02	0.015
353.24	0.047
353.46	0.337
353.67	-0.136
353.89	0.032
354.11	0.026
354.33	0.041
354.54	0.085
354.76	0.165
354.98	0.259
355.20	0.236
355.41	0.098
355.63	0.141
355.85	0.068
356.07	0.621
356.28	0.062
356.50	0.107
356.72	0.064
356.94	0.200
357.15	0.236
357.37	-0.000
357.59	0.134
357.81	0.085
358.02	0.127
358.24	0.098
358.46	0.224
358.68	0.204
358.89	0.108
359.11	-0.000
359.33	0.068
359.55	-0.465
359.76	0.096
359.98	0.106
360.20	0.120
360.42	0.116
360.63	0.118
360.85	0.083
361.07	0.547
361.29	0.085
361.50	0.197
361.72	0.077
361.94	0.328
362.15	0.109
362.37	0.069
362.59	0.077
362.81	0.116
363.02	0.191
363.24	0.345
363.46	0.179
363.68	0.248
363.89	0.173
364.11	0.254
364.33	0.342
364.54	0.220
364.76	0.256
364.98	0.252
365.20	0.316
365.41	0.193
365.63	0.193
365.85	0.140
366.06	0.516
366.28	0.536
366.50	0.341
366.71	0.107
366.93	0.147
367.15	0.148
367.37	0.149
367.58	0.184
367.80	0.205
368.02	0.803
368.23	0.189
368.45	0.168
368.67	0.155
368.88	0.166
369.10	-0.000
369.32	0.173
369.53	0.113
369.75	0.179
369.97	0.524
370.19	0.271
370.40	0.111
370.62	0.373
370.84	0.126
371.05	0.832
371.27	0.154
371.49	0.222
371.70	0.260
371.92	0.339
372.14	0.134
372.35	0.141
372.57	0.171
372.79	0.510
373.00	0.115
373.22	0.207
373.44	0.195
373.65	0.129
373.87	0.162
374.09	0.776
374.30	0.143
374.52	0.188
374.74	0.131
374.95	0.694
375.17	0.163
375.39	-0.000
375.60	0.162
375.82	0.294
376.04	0.133
376.25	0.143
376.47	0.092
376.68	0.230
376.90	0.120
377.12	0.254
377.33	0.139
377.55	0.287
377.77	0.164
377.98	0.231
378.20	0.142
378.42	0.183
378.63	0.246
378.85	-0.000
379.07	0.169
379.28	0.746
379.50	0.398
379.71	0.195
379.93	0.143
380.15	0.182
380.36	0.286
380.58	0.186
380.80	0.462
381.01	0.136
381.23	0.090
381.44	0.099
381.66	0.111
381.88	0.130
382.09	-0.065
382.31	0.094
382.53	0.098
382.74	0.342
382.96	0.124
383.17	0.109
383.39	0.153
383.61	0.212
383.82	0.162
384.04	0.202
384.25	0.268
384.47	0.245
384.69	0.226
384.90	0.217
385.12	0.530
385.33	0.305
385.55	0.249
385.77	0.400
385.98	0.195
386.20	0.263
386.41	0.228
386.63	0.247
386.85	0.212
387.06	0.264
387.28	0.410
387.49	0.275
387.71	0.213
387.93	0.183
388.14	0.532
388.36	0.215
388.57	0.197
388.79	0.225
389.01	-0.000
389.22	0.279
389.44	0.258
389.65	0.210
389.87	0.192
390.08	0.213
390.30	0.162
390.52	0.313
390.73	0.303
390.95	0.213
391.16	0.210
391.38	-0.000
391.59	0.228
391.81	0.187
392.03	0.184
392.24	0.219
392.46	0.190
392.67	0.174
392.89	0.240
393.10	0.372
393.32	0.252
393.53	0.268
393.75	0.167
393.97	0.194
394.18	0.267
394.40	0.228
394.61	0.239
394.83	0.222
395.04	0.264
395.26	0.185
395.47	0.295
395.69	0.250
395.91	0.277
396.12	0.335
396.34	0.337
396.55	0.210
396.77	0.321
396.98	-0.000
397.20	0.377
397.41	0.413
397.63	0.286
397.84	0.264
398.06	0.259
398.27	0.257
398.49	0.314
398.71	0.236
398.92	0.287
399.14	0.362
399.35	0.448
399.57	0.452
399.78	0.313
400.00	0.311
400.21	0.389
400.43	0.307
400.64	0.328
400.86	0.836
401.07	0.403
401.29	0.360
401.50	0.414
401.72	0.626
401.93	0.373
402.15	0.462
402.36	0.397
402.58	0.314
402.79	0.345
403.01	0.571
403.22	0.417
403.44	0.293
403.65	0.470
403.87	0.493
404.08	0.388
404.30	0.634
404.51	0.325
404.73	0.394
404.94	0.341
405.16	0.347
405.37	0.283
405.59	0.526
405.80	0.310
406.02	0.378
406.23	0.374
406.45	0.419
406.66	0.447
406.88	0.293
407.09	0.462
407.31	0.376
407.52	0.475
407.74	0.381
407.95	0.458
408.17	0.419
408.38	0.441
408.60	0.288
408.81	0.473
409.03	0.351
409.24	0.359
409.45	0.405
409.67	0.377
409.88	0.340
410.10	0.428
410.31	0.351
410.53	0.344
410.74	0.482
410.96	0.486
411.17	0.519
411.39	0.395
411.60	0.368
411.82	0.433
412.03	0.426
412.24	0.408
412.46	0.589
412.67	0.479
412.89	0.469
413.10	0.474
413.32	0.430
413.53	0.495
413.75	0.522
413.96	0.392
414.17	0.528
414.39	0.509
414.60	0.416
414.82	0.564
415.03	0.424
415.25	0.465
415.46	0.322
415.68	0.440
415.89	0.787
416.10	0.642
416.32	0.358
416.53	0.422
416.75	0.405
416.96	0.488
417.18	0.425
417.39	0.428
417.60	0.431
417.82	0.613
418.03	0.537
418.25	0.456
418.46	0.472
418.67	0.426
418.89	0.456
419.10	0.488
419.32	0.655
419.53	0.573
419.75	0.486
419.96	0.435
420.17	0.547
420.39	0.510
420.60	0.522
420.82	0.659
421.03	0.542
421.24	0.447
421.46	0.493
421.67	0.540
421.89	0.478
422.10	0.517
422.31	0.509
422.53	0.757
422.74	0.548
422.96	0.432
423.17	0.471
423.38	0.573
423.60	0.483
423.81	0.604
424.03	0.518
424.24	0.582
424.45	0.573
424.67	0.563
424.88	0.496
425.09	0.535
425.31	0.497
425.52	0.530
425.74	0.589
425.95	0.635
426.16	0.494
426.38	0.571
426.59	0.521
426.80	0.587
427.02	0.621
427.23	0.482
427.45	0.642
427.66	0.617
427.87	0.482
428.09	0.517
428.30	0.585
428.51	0.569
428.73	0.634
428.94	0.553
429.15	0.543
429.37	0.522
429.58	0.558
429.79	0.514
430.01	0.622
430.22	0.621
430.44	0.637
430.65	0.569
430.86	0.623
431.08	0.594
431.29	0.548
431.50	0.663
431.72	0.886
431.93	0.709
432.14	0.520
432.36	0.572
432.57	0.585
432.78	0.605
433.00	0.563
433.21	0.552
433.42	0.702
433.64	0.603
433.85	0.681
434.06	0.548
434.28	0.571
434.49	0.597
434.70	0.612
434.92	0.622
435.13	0.674
435.34	0.674
435.56	0.638
435.77	0.633
435.98	0.828
436.20	0.688
436.41	0.604
436.62	0.596
436.83	0.682
437.05	0.781
437.26	0.682
437.47	0.603
437.69	0.663
437.90	0.601
438.11	0.588
438.33	0.646
438.54	0.663
438.75	0.849
438.97	0.826
439.18	0.606
439.39	0.634
439.60	0.688
439.82	0.635
440.03	0.585
440.24	0.862
440.46	0.638
440.67	0.614
440.88	0.659
441.10	0.618
441.31	0.620
441.52	0.674
441.73	0.754
441.95	0.662
442.16	0.616
442.37	0.991
442.58	0.607
442.80	0.596
443.01	0.776
443.22	0.701
443.44	0.590
443.65	0.693
443.86	0.690
444.07	0.731
444.29	0.628
444.50	0.795
444.71	0.605
444.92	0.570
445.14	0.715
445.35	0.759
445.56	0.603
445.78	0.712
445.99	0.715
446.20	0.615
446.41	0.697
446.63	0.695
446.84	0.659
447.05	0.662
447.26	0.793
447.48	0.684
447.69	0.647
447.90	0.745
448.11	0.654
448.33	0.681
448.54	0.710
448.75	0.740
448.96	0.765
449.18	0.803
449.39	0.707
449.60	0.689
449.81	0.824
450.03	0.710
450.24	0.768
450.45	0.728
450.66	0.708
450.87	0.733
451.09	0.687
451.30	0.660
451.51	0.729
451.72	0.750
451.94	0.768
452.15	0.841
452.36	0.702
452.57	0.720
452.78	0.719
453.00	0.752
453.21	0.713
453.42	0.686
453.63	0.786
453.85	0.745
454.06	0.741
454.27	0.870
454.48	0.773
454.69	0.700
454.91	0.772
455.12	0.677
455.33	0.760
455.54	0.778
455.75	0.749
455.97	0.774
456.18	0.777
456.39	0.784
456.60	0.810
456.81	0.742
457.03	0.753
457.24	0.751
457.45	0.847
457.66	0.787
457.87	0.745
458.09	0.768
458.30	0.681
458.51	0.809
458.72	0.826
458.93	0.835
459.15	0.734
459.36	0.794
459.57	0.817
459.78	0.861
459.99	0.772
460.20	0.729
460.42	0.812
460.63	0.767
460.84	0.749
461.05	0.769
461.26	0.831
461.47	0.748
461.69	0.806
461.90	0.843
462.11	0.798
462.32	0.854
462.53	0.788
462.74	0.883
462.96	0.766
463.17	0.755
463.38	0.794
463.59	0.917
463.80	0.760
464.01	0.780
464.23	0.866
464.44	0.825
464.65	0.831
464.86	0.850
465.07	0.854
465.28	0.811
465.49	0.835
465.71	0.793
465.92	0.829
466.13	0.878
466.34	0.814
466.55	0.869
466.76	0.828
466.97	0.852
467.19	0.845
467.40	0.879
467.61	0.887
467.82	0.803
468.03	0.783
468.24	0.849
468.45	0.881
468.66	0.859
468.88	0.868
469.09	0.872
469.30	0.918
469.51	0.844
469.72	0.887
469.93	0.861
470.14	0.841
470.35	0.933
470.57	0.883
470.78	0.819
470.99	0.954
471.20	0.895
471.41	0.850
471.62	0.902
471.83	0.872
472.04	0.911
472.25	0.948
472.47	0.866
472.68	0.874
472.89	0.879
473.10	0.927
473.31	0.873
473.52	0.934
473.73	0.956
473.94	0.874
474.15	0.900
474.36	0.897
474.57	0.924
474.79	0.893
475.00	0.891
475.21	0.876
475.42	0.972
475.63	0.880
475.84	0.907
476.05	0.910
476.26	0.884
476.47	0.919
476.68	0.965
476.89	0.889
477.10	0.938
477.32	0.926
477.53	0.984
477.74	0.899
477.95	0.933
478.16	0.884
478.37	0.929
478.58	0.932
478.79	0.948
479.00	0.952
479.21	0.914
479.42	0.954
479.63	0.963
479.84	0.919
480.05	0.920
480.26	0.953
480.47	0.971
480.69	0.975
480.90	0.942
481.11	0.938
481.32	0.998
481.53	0.939
481.74	0.995
481.95	0.955
482.16	0.975
482.37	0.983
482.58	0.945
482.79	0.965
483.00	0.996
483.21	0.937
483.42	0.906
483.63	0.984
483.84	1.008
484.05	0.995
484.26	0.967
484.47	0.966
484.68	0.925
484.89	0.935
485.10	0.984
485.31	0.964
485.52	0.968
485.73	0.971
485.94	1.008
486.15	0.954
486.37	0.969
486.58	0.935
486.79	0.948
487.00	0.998
487.21	0.986
487.42	0.978
487.63	0.980
487.84	0.998
488.05	0.992
488.26	0.953
488.47	0.960
488.68	0.994
488.89	0.968
489.10	0.963
489.31	0.973
489.52	1.006
489.73	0.976
489.94	1.008
490.15	0.964
490.36	1.008
490.57	0.963
490.78	0.949
490.99	0.985
491.20	1.060
491.41	1.017
491.62	0.961
491.83	0.990
492.04	0.986
492.25	0.999
492.45	0.999
492.66	1.025
492.87	1.011
493.08	0.998
493.29	0.979
493.50	0.971
493.71	0.976
493.92	0.972
494.13	0.988
494.34	1.009
494.55	1.013
494.76	1.045
494.97	1.035
495.18	1.002
495.39	1.017
495.60	0.971
495.81	0.973
496.02	0.995
496.23	0.991
496.44	1.023
496.65	1.009
496.86	1.015
497.07	1.038
497.28	1.031
497.49	0.980
497.70	0.980
497.91	0.999
498.12	0.981
498.32	1.022
498.53	1.004
498.74	0.993
498.95	1.020
499.16	0.976
499.37	0.983
499.58	0.995
499.79	1.022
500.00	1.022
500.21	1.047
500.42	0.991
500.63	0.991
500.84	1.012
501.05	0.992
501.26	1.018
501.46	1.060
501.67	1.022
501.88	1.025
502.09	1.003
502.30	1.011
502.51	1.059
502.72	1.013
502.93	1.029
503.14	1.051
503.35	1.023
503.56	1.018
503.77	1.046
503.97	1.021
504.18	1.018
504.39	1.055
504.60	1.022
504.81	1.053
505.02	1.042
505.23	1.045
505.44	1.030
505.65	1.035
505.86	1.016
506.07	1.081
506.27	1.038
506.48	1.042
506.69	1.023
506.90	1.043
507.11	1.039
507.32	1.016
507.53	1.025
507.74	1.013
507.95	1.029
508.15	1.034
508.36	1.039
508.57	1.053
508.78	1.038
508.99	1.039
509.20	1.014
509.41	1.039
509.62	1.028
509.82	1.025
510.03	1.037
510.24	1.034
510.45	1.056
510.66	1.050
510.87	1.044
511.08	1.003
511.29	1.043
511.49	1.022
511.70	1.068
511.91	1.004
512.12	0.999
512.33	1.032
512.54	1.047
512.75	1.032
512.95	1.054
513.16	1.046
513.37	1.023
513.58	1.059
513.79	1.022
514.00	1.029
514.20	1.047
514.41	1.035
514.62	1.001
514.83	1.042
515.04	1.032
515.25	1.012
515.46	1.023
515.66	1.024
515.87	1.039
516.08	1.011
516.29	1.031
516.50	1.012
516.71	1.008
516.91	1.018
517.12	1.034
517.33	1.019
517.54	1.006
517.75	1.008
517.95	1.023
518.16	1.034
518.37	1.001
518.58	1.007
518.79	0.981
519.00	1.012
519.20	1.023
519.41	0.995
519.62	1.014
519.83	1.026
520.04	0.991
520.24	0.987
520.45	0.995
520.66	1.017
520.87	0.980
521.08	0.977
521.28	0.981
521.49	0.995
521.70	0.967
521.91	0.983
522.12	0.966
522.32	0.985
522.53	0.969
522.74	0.959
522.95	0.968
523.16	0.972
523.36	0.984
523.57	0.964
523.78	0.959
523.99	0.964
524.20	0.955
524.40	0.966
524.61	0.972
524.82	0.945
525.03	0.950
525.23	0.951
525.44	0.933
525.65	0.931
525.86	0.953
526.06	0.925
526.27	0.925
526.48	0.935
526.69	0.918
526.90	0.923
527.10	0.958
527.31	0.913
527.52	0.906
527.73	0.900
527.93	0.909
528.14	0.917
528.35	0.909
528.56	0.909
528.76	0.902
528.97	0.893
529.18	0.884
529.39	0.883
529.59	0.887
529.80	0.916
530.01	0.891
530.22	0.889
530.42	0.857
530.63	0.872
530.84	0.851
531.05	0.864
531.25	0.866
531.46	0.859
531.67	0.837
531.88	0.856
532.08	0.850
532.29	0.844
532.50	0.838
532.70	0.831
532.91	0.821
533.12	0.823
533.33	0.847
533.53	0.819
533.74	0.819
533.95	0.827
534.15	0.814
534.36	0.815
534.57	0.799
534.78	0.799
534.98	0.810
535.19	0.782
535.40	0.784
535.60	0.802
535.81	0.781
536.02	0.785
536.23	0.775
536.43	0.778
536.64	0.765
536.85	0.772
537.05	0.781
537.26	0.758
537.47	0.761
537.67	0.750
537.88	0.744
538.09	0.751
538.30	0.740
538.50	0.731
538.71	0.742
538.92	0.729
539.12	0.725
539.33	0.720
539.54	0.720
539.74	0.724
539.95	0.715
540.16	0.715
540.36	0.706
540.57	0.706
540.78	0.699
540.98	0.698
541.19	0.697
541.40	0.685
541.60	0.696
541.81	0.689
542.02	0.690
542.22	0.679
542.43	0.673
542.64	0.667
542.84	0.667
543.05	0.659
543.26	0.660
543.46	0.662
543.67	0.659
543.88	0.654
544.08	0.644
544.29	0.638
544.50	0.639
544.70	0.640
544.91	0.631
545.12	0.631
545.32	0.626
545.53	0.629
545.74	0.618
545.94	0.616
546.15	0.613
546.35	0.610
546.56	0.607
546.77	0.604
546.97	0.602
547.18	0.595
547.39	0.596
547.59	0.594
547.80	0.590
548.01	0.594
548.21	0.589
548.42	0.582
548.62	0.581
548.83	0.577
549.04	0.574
549.24	0.567
549.45	0.567
549.65	0.563
549.86	0.558
550.07	0.557
550.27	0.555
550.48	0.563
550.69	0.549
550.89	0.549
551.10	0.545
551.30	0.544
551.51	0.544
551.72	0.533
551.92	0.534
552.13	0.534
552.33	0.535
552.54	0.529
552.75	0.522
552.95	0.523
553.16	0.518
553.36	0.516
553.57	0.515
553.78	0.512
553.98	0.512
554.19	0.504
554.39	0.502
554.60	0.504
554.80	0.504
555.01	0.498
555.22	0.499
555.42	0.496
555.63	0.489
555.83	0.492
556.04	0.487
556.25	0.489
556.45	0.480
556.66	0.478
556.86	0.481
557.07	0.479
557.27	0.478
557.48	0.473
557.68	0.471
557.89	0.473
558.10	0.469
558.30	0.466
558.51	0.463
558.71	0.462
558.92	0.457
559.12	0.459
559.33	0.462
559.54	0.456
559.74	0.452
559.95	0.449
560.15	0.448
560.36	0.446
560.56	0.441
560.77	0.441
560.97	0.441
561.18	0.435
561.38	0.434
561.59	0.437
561.79	0.432
562.00	0.430
562.21	0.427
562.41	0.426
562.62	0.425
562.82	0.423
563.03	0.419
563.23	0.419
563.44	0.418
563.64	0.415
563.85	0.416
564.05	0.410
564.26	0.409
564.46	0.408
564.67	0.409
564.87	0.404
565.08	0.401
565.28	0.401
565.49	0.402
565.69	0.399
565.90	0.395
566.10	0.398
566.31	0.392
566.51	0.393
566.72	0.394
566.92	0.387
567.13	0.387
567.33	0.386
567.54	0.385
567.74	0.384
567.95	0.380
568.15	0.381
568.36	0.381
568.56	0.379
568.77	0.375
568.97	0.373
569.18	0.374
569.38	0.372
569.59	0.373
569.79	0.370
570.00	0.368
570.20	0.367
570.41	0.365
570.61	0.363
570.82	0.364
571.02	0.360
571.23	0.362
571.43	0.357
571.64	0.356
571.84	0.355
572.05	0.354
572.25	0.353
572.45	0.351
572.66	0.348
572.86	0.347
573.07	0.345
573.27	0.345
573.48	0.344
573.68	0.340
573.89	0.339
574.09	0.340
574.30	0.338
574.50	0.336
574.70	0.337
574.91	0.334
575.11	0.334
575.32	0.333
575.52	0.330
575.73	0.329
575.93	0.329
576.14	0.328
576.34	0.326
576.54	0.325
576.75	0.323
576.95	0.322
577.16	0.321
577.36	0.320
577.57	0.319
577.77	0.318
577.97	0.314
578.18	0.315
578.38	0.312
578.59	0.311
578.79	0.310
579.00	0.310
579.20	0.308
579.40	0.307
579.61	0.306
579.81	0.305
580.02	0.303
580.22	0.303
580.42	0.302
580.63	0.302
580.83	0.301
581.04	0.299
581.24	0.299
581.45	0.298
581.65	0.297
581.85	0.296
582.06	0.295
582.26	0.294
582.47	0.293
582.67	0.292
582.87	0.292
583.08	0.289
583.28	0.289
583.48	0.288
583.69	0.285
583.89	0.285
584.10	0.285
584.30	0.283
584.50	0.282
584.71	0.281
584.91	0.280
585.12	0.278
585.32	0.279
585.52	0.277
585.73	0.275
585.93	0.274
586.13	0.274
586.34	0.272
586.54	0.271
586.75	0.270
586.95	0.270
587.15	0.270
587.36	0.268
587.56	0.267
587.76	0.265
587.97	0.265
588.17	0.264
588.37	0.264
588.58	0.264
588.78	0.261
588.98	0.262
589.19	0.261
589.39	0.259
589.60	0.261
589.80	0.258
590.00	0.258
590.21	0.258
590.41	0.256
590.61	0.256
590.82	0.255
591.02	0.255
591.22	0.253
591.43	0.253
591.63	0.252
591.83	0.251
592.04	0.249
592.24	0.250
592.44	0.247
592.65	0.246
592.85	0.246
593.05	0.246
593.26	0.244
593.46	0.244
593.66	0.243
593.86	0.243
594.07	0.241
594.27	0.241
594.47	0.240
594.68	0.240
594.88	0.240
595.08	0.240
595.29	0.240
595.49	0.237
595.69	0.236
595.90	0.235
596.10	0.235
596.30	0.235
596.50	0.233
596.71	0.232
596.91	0.232
597.11	0.231
597.32	0.230
597.52	0.229
597.72	0.229
597.93	0.229
598.13	0.227
598.33	0.227
598.53	0.226
598.74	0.226
598.94	0.225
599.14	0.225
599.35	0.225
599.55	0.225
599.75	0.224
599.95	0.224
600.16	0.224
600.36	0.222
600.56	0.223
600.76	0.222
600.97	0.220
601.17	0.219
601.37	0.220
601.58	0.218
601.78	0.219
601.98	0.218
602.18	0.217
602.39	0.216
602.59	0.216
602.79	0.215
602.99	0.215
603.20	0.214
603.40	0.214
603.60	0.213
603.80	0.212
604.01	0.211
604.21	0.211
604.41	0.210
604.61	0.209
604.82	0.209
605.02	0.209
605.22	0.208
605.42	0.208
605.62	0.208
605.83	0.207
606.03	0.206
606.23	0.206
606.43	0.205
606.64	0.205
606.84	0.204
607.04	0.204
607.24	0.204
607.45	0.204
607.65	0.203
607.85	0.203
608.05	0.202
608.25	0.202
608.46	0.201
608.66	0.202
608.86	0.201
609.06	0.200
609.26	0.199
609.47	0.199
609.67	0.198
609.87	0.199
610.07	0.198
610.28	0.197
610.48	0.197
610.68	0.197
610.88	0.196
611.08	0.196
611.29	0.196
611.49	0.195
611.69	0.196
611.89	0.194
612.09	0.193
612.29	0.193
612.50	0.192
612.70	0.193
612.90	0.192
613.10	0.191
613.30	0.190
613.51	0.190
613.71	0.189
613.91	0.194
614.11	0.189
614.31	0.189
614.51	0.188
614.72	0.187
614.92	0.187
615.12	0.187
615.32	0.187
615.52	0.187
615.72	0.187
615.93	0.187
616.13	0.186
616.33	0.185
616.53	0.185
616.73	0.185
616.93	0.184
617.14	0.184
617.34	0.184
617.54	0.184
617.74	0.184
617.94	0.183
618.14	0.182
618.34	0.182
618.55	0.182
618.75	0.182
618.95	0.182
619.15	0.182
619.35	0.181
619.55	0.180
619.75	0.181
619.96	0.180
620.16	0.180
620.36	0.180
620.56	0.179
620.76	0.179
620.96	0.179
621.16	0.179
621.36	0.178
621.57	0.179
621.77	0.179
621.97	0.178
622.17	0.177
622.37	0.178
622.57	0.178
622.77	0.177
622.97	0.176
623.18	0.176
623.38	0.177
623.58	0.176
623.78	0.175
623.98	0.175
624.18	0.174
624.38	0.173
624.58	0.173
624.78	0.173
624.98	0.173
625.19	0.173
625.39	0.173
625.59	0.172
625.79	0.173
625.99	0.172
626.19	0.172
626.39	0.172
626.59	0.172
626.79	0.171
626.99	0.171
627.19	0.171
627.40	0.171
627.60	0.171
627.80	0.171
628.00	0.170
628.20	0.170
628.40	0.170
628.60	0.169
628.80	0.168
629.00	0.169
629.20	0.168
629.40	0.168
629.60	0.167
629.80	0.167
630.00	0.167
630.20	0.166
630.41	0.165
630.61	0.165
630.81	0.165
631.01	0.165
631.21	0.163
631.41	0.163
631.61	0.164
631.81	0.163
632.01	0.163
632.21	0.163
632.41	0.162
632.61	0.162
632.81	0.163
633.01	0.163
633.21	0.163
633.41	0.164
633.61	0.163
633.81	0.162
634.01	0.162
634.21	0.162
634.41	0.161
634.61	0.162
634.81	0.161
635.01	0.161
635.22	0.161
635.42	0.161
635.62	0.161
635.82	0.161
636.02	0.160
636.22	0.159
636.42	0.159
636.62	0.159
636.82	0.159
637.02	0.158
637.22	0.158
637.42	0.157
637.62	0.156
637.82	0.157
638.02	0.156
638.22	0.156
638.42	0.155
638.62	0.155
638.82	0.155
639.02	0.154
639.22	0.154
639.42	0.153
639.62	0.154
639.82	0.153
640.02	0.154
640.22	0.153
640.42	0.153
640.62	0.153
640.82	0.153
641.02	0.153
641.22	0.154
641.42	0.153
641.61	0.153
641.81	0.153
642.01	0.153
642.21	0.153
642.41	0.153
642.61	0.153
642.81	0.153
643.01	0.153
643.21	0.153
643.41	0.152
643.61	0.152
643.81	0.151
644.01	0.151
644.21	0.150
644.41	0.151
644.61	0.150
644.81	0.150
645.01	0.149
645.21	0.149
645.41	0.149
645.61	0.148
645.81	0.148
646.01	0.147
646.21	0.147
646.40	0.147
646.60	0.146
646.80	0.147
647.00	0.147
647.20	0.146
647.40	0.146
647.60	0.146
647.80	0.145
648.00	0.146
648.20	0.146
648.40	0.145
648.60	0.145
648.80	0.145
649.00	0.145
649.20	0.146
649.39	0.145
649.59	0.144
649.79	0.144
649.99	0.144
650.19	0.143
650.39	0.143
650.59	0.143
650.79	0.142
650.99	0.142
651.19	0.141
651.39	0.141
651.58	0.141
651.78	0.140
651.98	0.140
652.18	0.140
652.38	0.140
652.58	0.141
652.78	0.140
652.98	0.140
653.18	0.140
653.38	0.141
653.57	0.140
653.77	0.141
653.97	0.140
654.17	0.140
654.37	0.140
654.57	0.140
654.77	0.140
654.97	0.140
655.16	0.139
655.36	0.139
655.56	0.138
655.76	0.138
655.96	0.138
656.16	0.137
656.36	0.137
656.56	0.137
656.75	0.137
656.95	0.137
657.15	0.136
657.35	0.136
657.55	0.136
657.75	0.137
657.95	0.136
658.14	0.136
658.34	0.136
658.54	0.135
658.74	0.135
658.94	0.134
659.14	0.134
659.34	0.134
659.53	0.133
659.73	0.133
659.93	0.132
660.13	0.132
660.33	0.132
660.53	0.132
660.72	0.133
660.92	0.132
661.12	0.132
661.32	0.132
661.52	0.131
661.72	0.131
661.91	0.130
662.11	0.130
662.31	0.130
662.51	0.130
662.71	0.130
662.90	0.129
663.10	0.129
663.30	0.129
663.50	0.129
663.70	0.129
663.90	0.129
664.09	0.128
664.29	0.128
664.49	0.128
664.69	0.127
664.89	0.127
665.08	0.127
665.28	0.127
665.48	0.127
665.68	0.126
665.88	0.126
666.07	0.126
666.27	0.126
666.47	0.126
666.67	0.127
666.87	0.127
667.06	0.126
667.26	0.126
667.46	0.125
667.66	0.125
667.85	0.125
668.05	0.125
668.25	0.125
668.45	0.125
668.65	0.125
668.84	0.125
669.04	0.124
669.24	0.124
669.44	0.123
669.63	0.123
669.83	0.123
670.03	0.122
670.23	0.122
670.42	0.121
670.62	0.120
670.82	0.120
671.02	0.120
671.22	0.119
671.41	0.119
671.61	0.119
671.81	0.119
672.01	0.119
672.20	0.119
672.40	0.119
672.60	0.119
672.80	0.119
672.99	0.119
673.19	0.119
673.39	0.119
673.58	0.118
673.78	0.118
673.98	0.118
674.18	0.117
674.37	0.117
674.57	0.116
674.77	0.117
674.97	0.117
675.16	0.116
675.36	0.116
675.56	0.115
675.75	0.115
675.95	0.115
676.15	0.115
676.35	0.116
676.54	0.116
676.74	0.115
676.94	0.115
677.13	0.114
677.33	0.114
677.53	0.115
677.73	0.114
677.92	0.114
678.12	0.114
678.32	0.113
678.51	0.113
678.71	0.113
678.91	0.113
679.11	0.112
679.30	0.113
679.50	0.112
679.70	0.112
679.89	0.112
680.09	0.112
680.29	0.112
680.48	0.112
680.68	0.111
680.88	0.111
681.07	0.111
681.27	0.111
681.47	0.111
681.66	0.110
681.86	0.110
682.06	0.110
682.25	0.109
682.45	0.109
682.65	0.109
682.84	0.109
683.04	0.109
683.24	0.108
683.43	0.109
683.63	0.108
683.83	0.108
684.02	0.108
684.22	0.108
684.42	0.108
684.61	0.108
684.81	0.107
685.01	0.107
685.20	0.107
685.40	0.107
685.60	0.107
685.79	0.107
685.99	0.107
686.19	0.106
686.38	0.106
686.58	0.106
686.77	0.106
686.97	0.106
687.17	0.106
687.36	0.106
687.56	0.105
687.76	0.105
687.95	0.105
688.15	0.105
688.34	0.105
688.54	0.104
688.74	0.104
688.93	0.104
689.13	0.104
689.33	0.104
689.52	0.103
689.72	0.103
689.91	0.103
690.11	0.102
690.31	0.102
690.50	0.102
690.70	0.102
690.89	0.102
691.09	0.101
691.29	0.101
691.48	0.101
691.68	0.101
691.87	0.101
692.07	0.101
692.27	0.101
692.46	0.101
692.66	0.101
692.85	0.100
693.05	0.100
693.25	0.100
693.44	0.100
693.64	0.100
693.83	0.100
694.03	0.100
694.22	0.099
694.42	0.099
694.62	0.099
694.81	0.099
695.01	0.100
695.20	0.099
695.40	0.099
695.59	0.099
695.79	0.098
695.99	0.099
696.18	0.098
696.38	0.099
696.57	0.099
696.77	0.098
696.96	0.098
697.16	0.098
697.36	0.097
697.55	0.097
697.75	0.097
697.94	0.097
698.14	0.097
698.33	0.097
698.53	0.097
698.72	0.096
698.92	0.096
699.11	0.097
699.31	0.097
699.51	0.097
699.70	0.096
699.90	0.096
700.09	0.096
700.29	0.096
700.48	0.096
700.68	0.096
700.87	0.096
701.07	0.095
701.26	0.095
701.46	0.094
701.65	0.094
701.85	0.094
702.04	0.094
702.24	0.094
702.43	0.094
702.63	0.094
702.82	0.094
703.02	0.093
703.21	0.093
703.41	0.093
703.60	0.093
703.80	0.093
703.99	0.093
704.19	0.093
704.38	0.092
704.58	0.092
704.77	0.092
704.97	0.092
705.16	0.092
705.36	0.092
705.55	0.092
705.75	0.092
705.94	0.092
706.14	0.091
706.33	0.091
706.53	0.092
706.72	0.092
706.92	0.091
707.11	0.091
707.31	0.091
707.50	0.091
707.70	0.091
707.89	0.091
708.09	0.091
708.28	0.091
708.48	0.091
708.67	0.091
708.86	0.090
709.06	0.090
709.25	0.091
709.45	0.091
709.64	0.090
709.84	0.090
710.03	0.090
710.23	0.090
710.42	0.089
710.62	0.089
710.81	0.089
711.00	0.089
711.20	0.089
711.39	0.089
711.59	0.088
711.78	0.088
711.98	0.088
712.17	0.088
712.37	0.088
712.56	0.088
712.75	0.088
712.95	0.088
713.14	0.088
713.34	0.088
713.53	0.089
713.73	0.089
713.92	0.089
714.11	0.089
714.31	0.089
714.50	0.089
714.70	0.089
714.89	0.089
715.08	0.089
715.28	0.089
715.47	0.088
715.67	0.088
715.86	0.088
716.06	0.088
716.25	0.088
716.44	0.088
716.64	0.088
716.83	0.088
717.03	0.087
717.22	0.087
717.41	0.087
717.61	0.087
717.80	0.087
717.99	0.087
718.19	0.087
718.38	0.087
718.58	0.086
718.77	0.086
718.96	0.086
719.16	0.087
719.35	0.087
719.55	0.086
719.74	0.086
719.93	0.086
720.13	0.086
720.32	0.086
720.51	0.086
720.71	0.086
720.90	0.086
721.10	0.086
721.29	0.085
721.48	0.085
721.68	0.085
721.87	0.085
722.06	0.085
722.26	0.086
722.45	0.086
722.64	0.085
722.84	0.085
723.03	0.085
723.22	0.086
723.42	0.086
723.61	0.086
723.80	0.086
724.00	0.086
724.19	0.086
724.38	0.086
724.58	0.086
724.77	0.086
724.96	0.086
725.16	0.086
725.35	0.086
725.54	0.086
725.74	0.086
725.93	0.086
726.12	0.085
726.32	0.085
726.51	0.086
726.70	0.085
726.90	0.085
727.09	0.085
727.28	0.085
727.48	0.085
727.67	0.085
727.86	0.085
728.06	0.085
728.25	0.085
728.44	0.085
728.64	0.085
728.83	0.085
729.02	0.085
729.21	0.086
729.41	0.085
729.60	0.085
729.79	0.085
729.99	0.085
730.18	0.085
730.37	0.085
730.56	0.085
730.76	0.085
730.95	0.085
731.14	0.085
731.34	0.084
731.53	0.085
731.72	0.085
731.91	0.085
732.11	0.084
732.30	0.085
732.49	0.085
732.69	0.086
732.88	0.086
733.07	0.086
733.26	0.086
733.46	0.086
733.65	0.086
733.84	0.086
734.03	0.086
734.23	0.086
734.42	0.086
734.61	0.086
734.80	0.086
735.00	0.086
735.19	0.086
735.38	0.085
735.57	0.085
735.77	0.086
735.96	0.085
736.15	0.086
736.34	0.086
736.54	0.086
736.73	0.086
736.92	0.086
737.11	0.085
737.31	0.085
737.50	0.086
737.69	0.086
737.88	0.085
738.07	0.085
738.27	0.085
738.46	0.085
738.65	0.085
738.84	0.085
739.04	0.085
739.23	0.085
739.42	0.085
739.61	0.085
739.80	0.085
740.00	0.085
740.19	0.085
740.38	0.085
740.57	0.085
740.76	0.085
740.96	0.085
741.15	0.085
741.34	0.085
741.53	0.084
741.72	0.084
741.92	0.084
742.11	0.084
742.30	0.084
742.49	0.084
742.68	0.084
742.88	0.084
743.07	0.084
743.26	0.084
743.45	0.084
743.64	0.083
743.84	0.083
744.03	0.083
744.22	0.083
744.41	0.083
744.60	0.083
744.79	0.083
744.99	0.082
745.18	0.083
745.37	0.082
745.56	0.083
745.75	0.083
745.94	0.082
746.14	0.082
746.33	0.083
746.52	0.083
746.71	0.083
746.90	0.083
747.09	0.083
747.28	0.082
747.48	0.083
747.67	0.082
747.86	0.083
748.05	0.083
748.24	0.082
748.43	0.082
748.62	0.082
748.82	0.082
749.01	0.082
749.20	0.082
749.39	0.082
749.58	0.082
749.77	0.082
749.96	0.082
750.16	0.082
750.35	0.082
750.54	0.082
750.73	0.082
750.92	0.082
751.11	0.082
751.30	0.082
751.49	0.082
751.68	0.082
751.88	0.082
752.07	0.081
752.26	0.082
752.45	0.082
752.64	0.081
752.83	0.081
753.02	0.081
753.21	0.081
753.40	0.081
753.60	0.081
753.79	0.081
753.98	0.080
754.17	0.080
754.36	0.080
754.55	0.080
754.74	0.081
754.93	0.080
755.12	0.080
755.31	0.081
755.50	0.080
755.70	0.080
755.89	0.080
756.08	0.080
756.27	0.079
756.46	0.080
756.65	0.080
756.84	0.080
757.03	0.080
757.22	0.079
757.41	0.079
757.60	0.079
757.79	0.079
757.98	0.080
758.17	0.080
758.36	0.080
758.56	0.079
758.75	0.079
758.94	0.079
759.13	0.079
759.32	0.079
759.51	0.079
759.70	0.079
759.89	0.079
760.08	0.079
760.27	0.078
760.46	0.078
760.65	0.078
760.84	0.079
761.03	0.079
761.22	0.079
761.41	0.079
761.60	0.079
761.79	0.079
761.98	0.079
762.17	0.079
762.36	0.078
762.55	0.078
762.74	0.078
762.93	0.078
763.12	0.077
763.31	0.077
763.50	0.077
763.69	0.077
763.88	0.077
764.07	0.077
764.26	0.077
764.45	0.077
764.64	0.077
764.83	0.077
765.02	0.077
765.21	0.077
765.40	0.077
765.59	0.077
765.78	0.077
765.97	0.077
766.16	0.077
766.35	0.078
766.54	0.078
766.73	0.078
766.92	0.077
767.11	0.077
767.30	0.077
767.49	0.077
767.68	0.077
767.87	0.077
768.06	0.077
768.25	0.077
768.44	0.077
768.63	0.076
768.82	0.076
769.01	0.076
769.20	0.076
769.39	0.076
769.58	0.076
769.77	0.076
769.96	0.076
770.15	0.076
770.34	0.076
770.53	0.076
770.72	0.076
770.91	0.076
771.10	0.077
771.29	0.077
771.47	0.076
771.66	0.076
771.85	0.076
772.04	0.076
772.23	0.076
772.42	0.076
772.61	0.076
772.80	0.076
772.99	0.076
773.18	0.075
773.37	0.076
773.56	0.076
773.75	0.076
773.94	0.076
774.13	0.076
774.31	0.076
774.50	0.076
774.69	0.076
774.88	0.075
775.07	0.076
775.26	0.075
775.45	0.074
775.64	0.074
775.83	0.074
776.02	0.074
776.21	0.074
776.40	0.074
776.58	0.074
776.77	0.074
776.96	0.074
777.15	0.074
777.34	0.075
777.53	0.075
777.72	0.075
777.91	0.075
778.10	0.075
778.28	0.075
778.47	0.075
778.66	0.074
778.85	0.074
779.04	0.074
779.23	0.074
779.42	0.074
779.61	0.074
779.79	0.073
779.98	0.073
780.17	0.073
780.36	0.073
780.55	0.073
780.74	0.073
780.93	0.073
781.12	0.073
781.30	0.073
781.49	0.073
781.68	0.073
781.87	0.073
782.06	0.073
782.25	0.073
782.44	0.073
782.62	0.073
782.81	0.073
783.00	0.073
783.19	0.073
783.38	0.073
783.57	0.072
783.75	0.072
783.94	0.073
784.13	0.073
784.32	0.072
784.51	0.072
784.70	0.072
784.88	0.072
785.07	0.072
785.26	0.072
785.45	0.073
785.64	0.073
785.83	0.073
786.01	0.073
786.20	0.073
786.39	0.073
786.58	0.073
786.77	0.073
786.95	0.073
787.14	0.073
787.33	0.073
787.52	0.073
787.71	0.072
787.90	0.072
788.08	0.072
788.27	0.072
788.46	0.072
788.65	0.072
788.84	0.072
789.02	0.072
789.21	0.072
789.40	0.072
789.59	0.072
789.77	0.072
789.96	0.072
790.15	0.072
790.34	0.072
790.53	0.072
790.71	0.072
790.90	0.072
791.09	0.071
791.28	0.072
791.46	0.072
791.65	0.071
791.84	0.071
792.03	0.071
792.22	0.071
792.40	0.071
792.59	0.071
792.78	0.071
792.97	0.071
793.15	0.071
793.34	0.071
793.53	0.071
793.72	0.071
793.90	0.071
794.09	0.071
794.28	0.071
794.47	0.071
794.65	0.071
794.84	0.070
795.03	0.071
795.22	0.071
795.40	0.071
795.59	0.070
795.78	0.071
795.97	0.071
796.15	0.071
796.34	0.071
796.53	0.071
796.71	0.071
796.90	0.071
797.09	0.072
797.28	0.072
797.46	0.071
797.65	0.071
797.84	0.071
798.02	0.071
798.21	0.070
798.40	0.070
798.59	0.070
798.77	0.070
798.96	0.069
799.15	0.069
799.33	0.069
799.52	0.069
799.71	0.069
799.90	0.070
800.08	0.069
800.27	0.069
800.46	0.069
800.64	0.069
800.83	0.069
801.02	0.069
801.20	0.070
801.39	0.069
801.58	0.069
801.76	0.069
801.95	0.069
802.14	0.069
802.32	0.069
802.51	0.069
802.70	0.069
802.88	0.069
803.07	0.069
803.26	0.069
803.44	0.068
803.63	0.069
803.82	0.068
804.00	0.069
804.19	0.069
804.38	0.069
804.56	0.069
804.75	0.069
804.94	0.069
805.12	0.069
805.31	0.070
805.50	0.070
805.68	0.070
805.87	0.070
806.06	0.070
806.24	0.070
806.43	0.070
806.62	0.070
806.80	0.070
806.99	0.069
807.17	0.069
807.36	0.069
807.55	0.069
807.73	0.069
807.92	0.069
808.11	0.069
808.29	0.069
808.48	0.069
808.66	0.069
808.85	0.068
809.04	0.068
809.22	0.068
809.41	0.069
809.59	0.068
809.78	0.068
809.97	0.068
810.15	0.068
810.34	0.068
810.53	0.068
810.71	0.068
810.90	0.068
811.08	0.068
811.27	0.068
811.45	0.068
811.64	0.068
811.83	0.068
812.01	0.068
812.20	0.068
812.38	0.068
812.57	0.068
812.76	0.068
812.94	0.068
813.13	0.068
813.31	0.068
813.50	0.068
813.68	0.068
813.87	0.068
814.06	0.068
814.24	0.068
814.43	0.068
814.61	0.067
814.80	0.067
814.98	0.067
815.17	0.067
815.36	0.067
815.54	0.067
815.73	0.067
815.91	0.067
816.10	0.068
816.28	0.068
816.47	0.068
816.65	0.068
816.84	0.068
817.03	0.068
817.21	0.068
817.40	0.069
817.58	0.068
817.77	0.068
817.95	0.068
818.14	0.068
818.32	0.068
818.51	0.068
818.69	0.068
818.88	0.068
819.06	0.068
819.25	0.068
819.43	0.068
819.62	0.069
819.80	0.068
819.99	0.068
820.18	0.068
820.36	0.068
820.55	0.068
820.73	0.068
820.92	0.068
821.10	0.068
821.29	0.068
821.47	0.068
821.66	0.068
821.84	0.068
822.03	0.068
822.21	0.068
822.40	0.068
822.58	0.068
822.77	0.068
822.95	0.068
823.14	0.068
823.32	0.069
823.50	0.069
823.69	0.069
823.87	0.069
824.06	0.069
824.24	0.069
824.43	0.069
824.61	0.069
824.80	0.070
824.98	0.070
825.17	0.070
825.35	0.070
825.54	0.070
825.72	0.070
825.91	0.070
826.09	0.070
826.28	0.070
826.46	0.071
826.64	0.071
826.83	0.070
827.01	0.070
827.20	0.070
827.38	0.070
827.57	0.071
827.75	0.070
827.94	0.071
828.12	0.071
828.31	0.071
828.49	0.071
828.67	0.071
828.86	0.071
829.04	0.071
829.23	0.071
829.41	0.071
829.60	0.071
829.78	0.072
829.96	0.072
830.15	0.072
830.33	0.072
830.52	0.073
830.70	0.073
830.88	0.073
831.07	0.073
831.25	0.073
831.44	0.073
831.62	0.073
831.81	0.073
831.99	0.073
832.17	0.073
832.36	0.074
832.54	0.074
832.73	0.074
832.91	0.073
833.09	0.073
833.28	0.073
833.46	0.074
833.65	0.074
833.83	0.074
834.01	0.075
834.20	0.075
834.38	0.074
834.56	0.074
834.75	0.074
834.93	0.075
835.12	0.075
835.30	0.075
835.48	0.075
835.67	0.074
835.85	0.074
836.03	0.074
836.22	0.074
836.40	0.074
836.59	0.074
836.77	0.074
836.95	0.074
837.14	0.074
837.32	0.074
837.50	0.074
837.69	0.074
837.87	0.074
838.05	0.074
838.24	0.074
838.42	0.074
838.60	0.074
838.79	0.075
838.97	0.075
839.15	0.075
839.34	0.075
839.52	0.075
839.70	0.076
839.89	0.076
840.07	0.076
840.25	0.076
840.44	0.076
840.62	0.076
840.80	0.076
840.99	0.076
841.17	0.076
841.35	0.076
841.54	0.076
841.72	0.076
841.90	0.076
842.09	0.076
842.27	0.076
842.45	0.076
842.64	0.076
842.82	0.076
843.00	0.076
843.19	0.076
843.37	0.076
843.55	0.076
843.73	0.075
843.92	0.076
844.10	0.076
844.28	0.076
844.47	0.076
844.65	0.076
844.83	0.076
845.01	0.076
845.20	0.076
845.38	0.077
845.56	0.077
845.75	0.077
845.93	0.077
846.11	0.076
846.29	0.077
846.48	0.077
846.66	0.077
846.84	0.076
847.02	0.076
847.21	0.076
847.39	0.076
847.57	0.076
847.76	0.076
847.94	0.076
848.12	0.076
848.30	0.076
848.49	0.076
848.67	0.076
848.85	0.076
849.03	0.076
849.22	0.076
849.40	0.077
849.58	0.077
849.76	0.077
849.95	0.077
850.13	0.077
850.31	0.077
850.49	0.078
850.67	0.078
850.86	0.078
851.04	0.078
851.22	0.077
851.40	0.077
851.59	0.077
851.77	0.077
851.95	0.077
852.13	0.077
852.31	0.077
852.50	0.077
852.68	0.077
852.86	0.077
853.04	0.077
853.23	0.077
853.41	0.077
853.59	0.077
853.77	0.077
853.95	0.077
854.14	0.077
854.32	0.078
854.50	0.077
854.68	0.077
854.86	0.077
855.04	0.077
855.23	0.077
855.41	0.077
855.59	0.077
855.77	0.078
855.95	0.078
856.14	0.078
856.32	0.078
856.50	0.077
856.68	0.078
856.86	0.078
857.04	0.078
857.23	0.078
857.41	0.078
857.59	0.078
857.77	0.078
857.95	0.078
858.13	0.078
858.32	0.078
858.50	0.078
858.68	0.077
858.86	0.078
859.04	0.078
859.22	0.078
859.41	0.078
859.59	0.078
859.77	0.078
859.95	0.077
860.13	0.077
860.31	0.077
860.49	0.077
860.68	0.077
860.86	0.077
861.04	0.077
861.22	0.077
861.40	0.077
861.58	0.077
861.76	0.077
861.94	0.077
862.13	0.077
862.31	0.077
862.49	0.077
862.67	0.077
862.85	0.077
863.03	0.077
863.21	0.078
863.39	0.078
863.57	0.078
863.76	0.078
863.94	0.078
864.12	0.078
864.30	0.078
864.48	0.078
864.66	0.078
864.84	0.079
865.02	0.079
865.20	0.079
865.38	0.079
865.57	0.079
865.75	0.079
865.93	0.080
866.11	0.079
866.29	0.079
866.47	0.080
866.65	0.080
866.83	0.079
867.01	0.079
867.19	0.079
867.37	0.079
867.55	0.079
867.73	0.080
867.92	0.079
868.10	0.080
868.28	0.079
868.46	0.079
868.64	0.079
868.82	0.079
869.00	0.079
869.18	0.080
869.36	0.079
869.54	0.079
869.72	0.080
869.90	0.079
870.08	0.079
870.26	0.080
870.44	0.080
870.62	0.080
870.80	0.080
870.98	0.080
871.16	0.080
871.34	0.080
871.53	0.080
871.71	0.079
871.89	0.079
872.07	0.079
872.25	0.079
872.43	0.079
872.61	0.079
872.79	0.079
872.97	0.079
873.15	0.079
873.33	0.080
873.51	0.080
873.69	0.080
873.87	0.080
874.05	0.080
874.23	0.080
874.41	0.080
874.59	0.081
874.77	0.080
874.95	0.080
875.13	0.080
875.31	0.080
875.49	0.080
875.67	0.080
875.85	0.080
876.03	0.080
876.21	0.081
876.39	0.080
876.57	0.080
876.75	0.081
876.93	0.081
877.11	0.081
877.29	0.081
877.47	0.081
877.65	0.081
877.82	0.081
878.00	0.081
878.18	0.081
878.36	0.081
878.54	0.082
878.72	0.082
878.90	0.081
879.08	0.082
879.26	0.082
879.44	0.082
879.62	0.082
879.80	0.082
879.98	0.082
880.16	0.082
880.34	0.081
880.52	0.081
880.70	0.081
880.88	0.081
881.06	0.081
881.24	0.081
881.42	0.081
881.59	0.081
881.77	0.080
881.95	0.081
882.13	0.080
882.31	0.081
882.49	0.081
882.67	0.081
882.85	0.081
883.03	0.082
883.21	0.082
883.39	0.082
883.57	0.082
883.75	0.082
883.92	0.082
884.10	0.082
884.28	0.082
884.46	0.083
884.64	0.083
884.82	0.083
885.00	0.082
885.18	0.083
885.36	0.083
885.54	0.083
885.71	0.083
885.89	0.083
886.07	0.083
886.25	0.083
886.43	0.083
886.61	0.083
886.79	0.083
886.97	0.083
887.15	0.083
887.32	0.083
887.50	0.083
887.68	0.083
887.86	0.083
888.04	0.083
888.22	0.083
888.40	0.083
888.57	0.083
888.75	0.084
888.93	0.084
889.11	0.084
889.29	0.084
889.47	0.084
889.65	0.085
889.82	0.085
890.00	0.085
890.18	0.085
890.36	0.084
890.54	0.085
890.72	0.084
890.90	0.084
891.07	0.084
891.25	0.084
891.43	0.084
891.61	0.084
891.79	0.084
891.97	0.084
892.14	0.085
892.32	0.085
892.50	0.085
892.68	0.085
892.86	0.085
893.03	0.085
893.21	0.085
893.39	0.085
893.57	0.085
893.75	0.085
893.93	0.085
894.10	0.084
894.28	0.085
894.46	0.085
894.64	0.085
894.82	0.085
894.99	0.085
895.17	0.085
895.35	0.085
895.53	0.085
895.71	0.084
895.88	0.085
896.06	0.085
896.24	0.085
896.42	0.084
896.59	0.084
896.77	0.084
896.95	0.085
897.13	0.085
897.31	0.085
897.48	0.084
897.66	0.085
897.84	0.085
898.02	0.085
898.19	0.085
898.37	0.085
898.55	0.085
898.73	0.086
898.91	0.086
899.08	0.086
899.26	0.086
899.44	0.086
899.62	0.086
899.79	0.087
899.97	0.087
900.15	0.086
900.33	0.086
900.50	0.086
900.68	0.086
900.86	0.086
901.04	0.086
901.21	0.086
901.39	0.086
901.57	0.086
901.74	0.086
901.92	0.086
902.10	0.086
902.28	0.086
902.45	0.086
902.63	0.086
902.81	0.086
902.99	0.086
903.16	0.086
903.34	0.086
903.52	0.086
903.69	0.086
903.87	0.086
904.05	0.087
904.22	0.087
904.40	0.087
904.58	0.087
904.76	0.087
904.93	0.087
905.11	0.088
905.29	0.088
905.46	0.088
905.64	0.088
905.82	0.088
905.99	0.088
906.17	0.088
906.35	0.089
906.53	0.089
906.70	0.089
906.88	0.089
907.06	0.089
907.23	0.089
907.41	0.089
907.59	0.089
907.76	0.089
907.94	0.090
908.12	0.090
908.29	0.090
908.47	0.090
908.65	0.090
908.82	0.090
909.00	0.090
909.18	0.090
909.35	0.090
909.53	0.090
909.71	0.090
909.88	0.090
910.06	0.090
910.23	0.090
910.41	0.090
910.59	0.089
910.76	0.089
910.94	0.090
911.12	0.089
911.29	0.090
911.47	0.090
911.65	0.090
911.82	0.090
912.00	0.091
912.17	0.090
912.35	0.091
912.53	0.091
912.70	0.091
912.88	0.091
913.06	0.092
913.23	0.092
913.41	0.092
913.58	0.092
913.76	0.092
913.94	0.092
914.11	0.092
914.29	0.092
914.46	0.093
914.64	0.093
914.82	0.093
914.99	0.093
915.17	0.093
915.34	0.093
915.52	0.093
915.70	0.093
915.87	0.093
916.05	0.093
916.22	0.092
916.40	0.092
916.57	0.093
916.75	0.093
916.93	0.093
917.10	0.093
917.28	0.093
917.45	0.093
917.63	0.093
917.80	0.094
917.98	0.094
918.16	0.094
918.33	0.095
918.51	0.094
918.68	0.094
918.86	0.095
919.03	0.095
919.21	0.095
919.39	0.095
919.56	0.096
919.74	0.096
919.91	0.096
920.09	0.096
920.26	0.096
920.44	0.096
920.61	0.097
920.79	0.097
920.96	0.097
921.14	0.097
921.31	0.098
921.49	0.097
921.67	0.098
921.84	0.098
922.02	0.098
922.19	0.098
922.37	0.099
922.54	0.099
922.72	0.098
922.89	0.099
923.07	0.099
923.24	0.099
923.42	0.100
923.59	0.100
923.77	0.100
923.94	0.101
924.12	0.101
924.29	0.101
924.47	0.102
924.64	0.102
924.82	0.102
924.99	0.102
925.17	0.103
925.34	0.103
925.52	0.103
925.69	0.104
925.87	0.104
926.04	0.104
926.22	0.105
926.39	0.105
926.57	0.106
926.74	0.106
926.91	0.106
927.09	0.107
927.26	0.106
927.44	0.107
927.61	0.107
927.79	0.107
927.96	0.108
928.14	0.108
928.31	0.108
928.49	0.109
928.66	0.109
928.84	0.110
929.01	0.110
929.18	0.111
929.36	0.112
929.53	0.112
929.71	0.112
929.88	0.112
930.06	0.112
930.23	0.113
930.41	0.113
930.58	0.114
930.75	0.114
930.93	0.114
931.10	0.115
931.28	0.115
931.45	0.116
931.63	0.117
931.80	0.117
931.97	0.117
932.15	0.118
932.32	0.118
932.50	0.118
932.67	0.119
932.84	0.120
933.02	0.120
933.19	0.120
933.37	0.121
933.54	0.121
933.71	0.122
933.89	0.122
934.06	0.123
934.24	0.123
934.41	0.124
934.58	0.124
934.76	0.124
934.93	0.125
935.11	0.125
935.28	0.126
935.45	0.126
935.63	0.127
935.80	0.127
935.98	0.128
936.15	0.128
936.32	0.128
936.50	0.129
936.67	0.130
936.84	0.130
937.02	0.131
937.19	0.132
937.36	0.132
937.54	0.132
937.71	0.133
937.89	0.133
938.06	0.134
938.23	0.134
938.41	0.135
938.58	0.136
938.75	0.136
938.93	0.137
939.10	0.137
939.27	0.137
939.45	0.138
939.62	0.138
939.79	0.139
939.97	0.140
940.14	0.140
940.31	0.141
940.49	0.141
940.66	0.142
940.83	0.142
941.01	0.143
941.18	0.144
941.35	0.144
941.53	0.145
941.70	0.145
941.87	0.146
942.05	0.146
942.22	0.147
942.39	0.148
942.57	0.149
942.74	0.150
942.91	0.150
943.08	0.150
943.26	0.151
943.43	0.152
943.60	0.152
943.78	0.153
943.95	0.155
944.12	0.155
944.29	0.156
944.47	0.156
944.64	0.157
944.81	0.158
944.99	0.159
945.16	0.159
945.33	0.160
945.50	0.161
945.68	0.162
945.85	0.162
946.02	0.164
946.20	0.164
946.37	0.165
946.54	0.166
946.71	0.167
946.89	0.168
947.06	0.168
947.23	0.169
947.40	0.170
947.58	0.171
947.75	0.172
947.92	0.172
948.09	0.172
948.27	0.174
948.44	0.175
948.61	0.176
948.78	0.177
948.96	0.178
949.13	0.179
949.30	0.180
949.47	0.181
949.65	0.182
949.82	0.184
949.99	0.184
950.16	0.186
950.33	0.187
950.51	0.188
950.68	0.189
950.85	0.191
951.02	0.192
951.20	0.193
951.37	0.194
951.54	0.195
951.71	0.196
951.88	0.197
952.06	0.198
952.23	0.199
952.40	0.201
952.57	0.202
952.74	0.203
952.92	0.204
953.09	0.206
953.26	0.207
953.43	0.208
953.60	0.209
953.77	0.210
953.95	0.211
954.12	0.213
954.29	0.214
954.46	0.216
954.63	0.217
954.81	0.218
954.98	0.218
955.15	0.220
955.32	0.222
955.49	0.222
955.66	0.224
955.84	0.225
956.01	0.225
956.18	0.227
956.35	0.229
956.52	0.229
956.69	0.231
956.87	0.231
957.04	0.232
957.21	0.234
957.38	0.234
957.55	0.235
957.72	0.237
957.89	0.238
958.07	0.238
958.24	0.240
958.41	0.241
958.58	0.241
958.75	0.242
958.92	0.244
959.09	0.244
959.26	0.244
959.44	0.245
959.61	0.246
959.78	0.247
959.95	0.248
960.12	0.248
960.29	0.251
960.46	0.250
960.63	0.250
960.81	0.250
960.98	0.251
961.15	0.252
961.32	0.253
961.49	0.252
961.66	0.253
961.83	0.253
962.00	0.253
962.17	0.254
962.34	0.253
962.52	0.254
962.69	0.255
962.86	0.255
963.03	0.255
963.20	0.255
963.37	0.255
963.54	0.256
963.71	0.255
963.88	0.256
964.05	0.257
964.22	0.259
964.39	0.257
964.56	0.258
964.74	0.259
964.91	0.259
965.08	0.260
965.25	0.260
965.42	0.260
965.59	0.262
965.76	0.261
965.93	0.262
966.10	0.260
966.27	0.261
966.44	0.261
966.61	0.262
966.78	0.261
966.95	0.260
967.12	0.262
967.29	0.264
967.46	0.262
967.63	0.262
967.80	0.262
967.97	0.262
968.14	0.261
968.32	0.263
968.49	0.263
968.66	0.262
968.83	0.263
969.00	0.262
969.17	0.262
969.34	0.264
969.51	0.265
969.68	0.263
969.85	0.264
970.02	0.264
970.19	0.264
970.36	0.264
970.53	0.264
970.70	0.262
970.87	0.263
971.04	0.263
971.21	0.263
971.38	0.263
971.55	0.264
971.72	0.263
971.89	0.265
972.06	0.264
972.23	0.264
972.40	0.265
972.57	0.264
972.74	0.264
972.91	0.265
973.07	0.266
973.24	0.265
973.41	0.265
973.58	0.263
973.75	0.275
973.92	0.264
974.09	0.263
974.26	0.263
974.43	0.262
974.60	0.263
974.77	0.264
974.94	0.263
975.11	0.264
975.28	0.265
975.45	0.263
975.62	0.265
975.79	0.266
975.96	0.264
976.13	0.263
976.30	0.265
976.47	0.263
976.64	0.264
976.80	0.264
976.97	0.264
977.14	0.263
977.31	0.263
977.48	0.264
977.65	0.263
977.82	0.262
977.99	0.263
978.16	0.262
978.33	0.263
978.50	0.261
978.67	0.262
978.83	0.262
979.00	0.262
979.17	0.262
979.34	0.261
979.51	0.261
979.68	0.262
979.85	0.260
980.02	0.261
980.19	0.259
980.36	0.261
980.52	0.262
980.69	0.260
980.86	0.259
981.03	0.259
981.20	0.258
981.37	0.259
981.54	0.259
981.71	0.259
981.88	0.260
982.04	0.259
982.21	0.258
982.38	0.260
982.55	0.259
982.72	0.257
982.89	0.259
983.06	0.257
983.22	0.257
983.39	0.258
983.56	0.256
983.73	0.255
983.90	0.255
984.07	0.257
984.24	0.255
984.40	0.255
984.57	0.253
984.74	0.255
984.91	0.256
985.08	0.253
985.25	0.250
985.41	0.252
985.58	0.252
985.75	0.254
985.92	0.253
986.09	0.251
986.26	0.251
986.42	0.250
986.59	0.249
986.76	0.250
986.93	0.251
987.10	0.252
987.27	0.249
987.43	0.247
987.60	0.249
987.77	0.249
987.94	0.248
988.11	0.250
988.27	0.250
988.44	0.249
988.61	0.247
988.78	0.246
988.95	0.246
989.11	0.248
989.28	0.246
989.45	0.245
989.62	0.245
989.79	0.244
989.95	0.243
990.12	0.245
990.29	0.245
990.46	0.244
990.62	0.242
990.79	0.243
990.96	0.243
991.13	0.243
991.30	0.242
991.46	0.241
991.63	0.239
991.80	0.238
991.97	0.239
992.13	0.239
992.30	0.240
992.47	0.238
992.64	0.237
992.80	0.237
992.97	0.238
993.14	0.235
993.31	0.233
993.47	0.236
993.64	0.234
993.81	0.233
993.98	0.233
994.14	0.231
994.31	0.231
994.48	0.232
994.64	0.232
994.81	0.231
994.98	0.232
995.15	0.230
995.31	0.230
995.48	0.230
995.65	0.232
995.82	0.229
995.98	0.229
996.15	0.229
996.32	0.230
996.48	0.228
996.65	0.227
996.82	0.225
996.99	0.225
997.15	0.224
997.32	0.226
997.49	0.224
997.65	0.225
997.82	0.225
997.99	0.223
998.15	0.224
998.32	0.225
998.49	0.224
998.65	0.224
998.82	0.223
998.99	0.221
999.15	0.221
999.32	0.221
999.49	0.221
999.65	0.221
999.82	0.218
999.99	0.219
1000.15	0.219
1000.32	0.219
1000.49	0.219
1000.65	0.218
1000.82	0.218
1000.99	0.219
1001.15	0.218
1001.32	0.217
1001.49	0.217
1001.65	0.217
1001.82	0.220
1001.99	0.217
1002.15	0.216
1002.32	0.216
1002.49	0.216
1002.65	0.215
1002.82	0.213
1002.99	0.213
1003.15	0.215
1003.32	0.214
1003.48	0.214
1003.65	0.215
1003.82	0.213
1003.98	0.210
1004.15	0.210
1004.32	0.210
1004.48	0.210
1004.65	0.212
1004.81	0.209
1004.98	0.207
1005.15	0.208
1005.31	0.208
1005.48	0.205
1005.64	0.206
1005.81	0.208
1005.98	0.205
1006.14	0.205
1006.31	0.205
1006.47	0.204
1006.64	0.203
1006.81	0.203
1006.97	0.203
1007.14	0.202
1007.30	0.203
1007.47	0.203
1007.63	0.200
1007.80	0.199
1007.97	0.199
1008.13	0.199
1008.30	0.198
1008.46	0.198
1008.63	0.196
1008.79	0.197
1008.96	0.197
1009.13	0.198
1009.29	0.195
1009.46	0.195
1009.62	0.196
1009.79	0.194
1009.95	0.194
1010.12	0.195
1010.28	0.195
1010.45	0.194
1010.62	0.194
1010.78	0.192
1010.95	0.191
1011.11	0.191
1011.28	0.190
1011.44	0.192
1011.61	0.190
1011.77	0.189
1011.94	0.189
1012.10	0.189
1012.27	0.190
1012.43	0.189
1012.60	0.188
1012.76	0.189
1012.93	0.189
1013.10	0.187
1013.26	0.185
1013.43	0.186
1013.59	0.193
1013.76	0.186
1013.92	0.185
1014.09	0.183
1014.25	0.184
1014.42	0.185
1014.58	0.184
1014.75	0.186
1014.91	0.185
1015.08	0.187
1015.24	0.183
1015.41	0.185
1015.57	0.184
1015.73	0.183
1015.90	0.180
1016.06	0.182
1016.23	0.181
1016.39	0.181
1016.56	0.182
1016.72	0.182
1016.89	0.181
1017.05	0.183
1017.22	0.179
1017.38	0.180
1017.55	0.178
1017.71	0.179
1017.88	0.178
1018.04	0.179
1018.21	0.177
1018.37	0.175
1018.53	0.174
1018.70	0.173
1018.86	0.173
1019.03	0.175
1019.19	0.174
1019.36	0.174
1019.52	0.175
1019.69	0.175
1019.85	0.174
1020.01	0.174
1020.18	0.173
1020.34	0.173
1020.51	0.172
1020.67	0.173
1020.84	0.171
1021.00	0.172
1021.16	0.169
1021.33	0.170
1021.49	0.168
1021.66	0.168
1021.82	0.166
1021.98	0.167
1022.15	0.166
1022.31	0.166
1022.48	0.165
1022.64	0.167
1022.80	0.165
1022.97	0.164
1023.13	0.164
1023.30	0.165
1023.46	0.166
1023.62	0.163
1023.79	0.165
1023.95	0.165
1024.12	0.165
1024.28	0.164
1024.44	0.164
1024.61	0.162
1024.77	0.162
1024.93	0.161
1025.10	0.163
1025.26	0.161
1025.43	0.162
1025.59	0.158
1025.75	0.161
1025.92	0.159
1026.08	0.159
1026.24	0.159
1026.41	0.160
1026.57	0.158
1026.73	0.156
1026.90	0.158
1027.06	0.156
1027.23	0.157
1027.39	0.156
1027.55	0.156
1027.72	0.156
1027.88	0.155
1028.04	0.156
1028.21	0.156
1028.37	0.150
1028.53	0.155
1028.70	0.153
1028.86	0.151
1029.02	0.151
1029.19	0.152
1029.35	0.151
1029.51	0.150
1029.67	0.149
1029.84	0.151
1030.00	0.146
1030.16	0.147
1030.33	0.150
1030.49	0.147
1030.65	0.145
1030.82	0.159
1030.98	0.147
1031.14	0.147
1031.31	0.147
1031.47	0.144
1031.63	0.147
1031.79	0.147
1031.96	0.148
1032.12	0.149
1032.28	0.146
1032.45	0.151
1032.61	0.150
1032.77	0.149
1032.93	0.147
1033.10	0.148
1033.26	0.149
1033.42	0.146
1033.58	0.147
1033.75	0.148
1033.91	0.147
1034.07	0.150
1034.24	0.148
1034.40	0.146
1034.56	0.145
1034.72	0.146
1034.89	0.146
1035.05	0.144
1035.21	0.144
1035.37	0.142
1035.54	0.144
1035.70	0.143
1035.86	0.142
1036.02	0.143
1036.19	0.141
1036.35	0.140
1036.51	0.144
1036.67	0.141
1036.83	0.140
1037.00	0.139
1037.16	0.140
1037.32	0.140
1037.48	0.139
1037.65	0.143
1037.81	0.137
1037.97	0.137
1038.13	0.137
1038.29	0.135
1038.46	0.133
1038.62	0.139
1038.78	0.136
1038.94	0.132
1039.10	0.136
1039.27	0.131
1039.43	0.133
1039.59	0.135
1039.75	0.134
1039.91	0.133
1040.08	0.133
1040.24	0.136
1040.40	0.136
1040.56	0.136
1040.72	0.130
1040.89	0.133
1041.05	0.135
1041.21	0.134
1041.37	0.131
1041.53	0.136
1041.69	0.134
1041.86	0.132
1042.02	0.128
1042.18	0.129
1042.34	0.130
1042.50	0.134
1042.66	0.131
1042.83	0.129
1042.99	0.131
1043.15	0.127
1043.31	0.128
1043.47	0.132
1043.63	0.129
1043.79	0.129
1043.96	0.130
1044.12	0.133
1044.28	0.131
1044.44	0.133
1044.60	0.128
1044.76	0.126
1044.92	0.129
1045.09	0.130
1045.25	0.127
1045.41	0.128
1045.57	0.124
1045.73	0.124
1045.89	0.125
1046.05	0.128
1046.21	0.133
1046.38	0.137
1046.54	0.128
1046.70	0.127
1046.86	0.135
>>>>>End Processed Spectral Data<<<<<
