SpectraSuite Data File
++++++++++++++++++++++++++++++++++++
Date: Mon May 20 12:11:46 CDT 2013
User: Students
Dark Spectrum Present: Yes
Reference Spectrum Present: Yes
Number of Sampled Component Spectra: 1
Spectrometers: USB4H00887
Integration Time (usec): 60000 (USB4H00887)
Spectra Averaged: 5 (USB4H00887)
Boxcar Smoothing: 5 (USB4H00887)
Correct for Electrical Dark: No (USB4H00887)
Strobe/Lamp Enabled: No (USB4H00887)
Correct for Detector Non-linearity: No (USB4H00887)
Correct for Stray Light: No (USB4H00887)
Number of Pixels in Processed Spectrum: 3648
>>>>>Begin Processed Spectral Data<<<<<
345.83	-0.039
346.05	-0.039
346.26	-0.039
346.48	-0.000
346.70	-0.000
346.92	0.053
347.14	0.058
347.35	0.064
347.57	0.392
347.79	-0.267
348.01	-0.207
348.23	-0.379
348.44	-0.000
348.66	0.315
348.88	-0.356
349.10	-0.152
349.32	0.050
349.53	0.010
349.75	0.053
349.97	0.056
350.19	0.117
350.41	0.131
350.62	-0.328
350.84	0.037
351.06	0.039
351.28	0.021
351.50	-0.095
351.71	-0.074
351.93	-0.027
352.15	0.008
352.37	-0.033
352.58	-0.019
352.80	-0.004
353.02	0.022
353.24	0.050
353.46	0.176
353.67	-0.137
353.89	0.067
354.11	0.059
354.33	0.057
354.54	0.071
354.76	0.183
354.98	0.343
355.20	0.313
355.41	0.121
355.63	0.211
355.85	0.092
356.07	0.708
356.28	0.076
356.50	0.156
356.72	0.073
356.94	0.246
357.15	0.265
357.37	-0.000
357.59	0.114
357.81	0.058
358.02	0.118
358.24	0.069
358.46	0.215
358.68	0.167
358.89	0.081
359.11	-0.000
359.33	0.033
359.55	-0.314
359.76	0.076
359.98	0.112
360.20	0.113
360.42	0.106
360.63	0.147
360.85	0.065
361.07	0.260
361.29	0.046
361.50	0.166
361.72	0.087
361.94	0.360
362.15	0.137
362.37	0.066
362.59	0.084
362.81	0.103
363.02	0.198
363.24	0.357
363.46	0.262
363.68	0.394
363.89	0.213
364.11	0.248
364.33	0.345
364.54	0.208
364.76	0.240
364.98	0.237
365.20	0.297
365.41	0.157
365.63	0.179
365.85	0.109
366.06	0.299
366.28	0.255
366.50	0.185
366.71	0.077
366.93	0.082
367.15	0.091
367.37	0.090
367.58	0.114
367.80	0.134
368.02	0.466
368.23	0.155
368.45	0.140
368.67	0.152
368.88	0.154
369.10	-0.000
369.32	0.147
369.53	0.085
369.75	0.147
369.97	0.397
370.19	0.207
370.40	0.069
370.62	0.149
370.84	0.079
371.05	0.330
371.27	0.096
371.49	0.099
371.70	0.125
371.92	0.183
372.14	0.090
372.35	0.093
372.57	0.109
372.79	0.276
373.00	0.080
373.22	0.114
373.44	0.115
373.65	0.089
373.87	0.122
374.09	0.483
374.30	0.098
374.52	0.103
374.74	0.071
374.95	0.243
375.17	0.072
375.39	-0.000
375.60	0.095
375.82	0.179
376.04	0.089
376.25	0.106
376.47	0.078
376.68	0.236
376.90	0.124
377.12	0.249
377.33	0.142
377.55	0.391
377.77	0.199
377.98	0.277
378.20	0.146
378.42	0.171
378.63	0.224
378.85	-0.000
379.07	0.141
379.28	0.498
379.50	0.328
379.71	0.178
379.93	0.120
380.15	0.149
380.36	0.200
380.58	0.151
380.80	0.434
381.01	0.134
381.23	0.098
381.44	0.121
381.66	0.153
381.88	0.174
382.09	-0.074
382.31	0.106
382.53	0.123
382.74	0.675
382.96	0.176
383.17	0.140
383.39	0.191
383.61	0.240
383.82	0.153
384.04	0.193
384.25	0.236
384.47	0.237
384.69	0.236
384.90	0.212
385.12	0.453
385.33	0.274
385.55	0.205
385.77	0.317
385.98	0.176
386.20	0.254
386.41	0.208
386.63	0.256
386.85	0.215
387.06	0.256
387.28	0.371
387.49	0.237
387.71	0.177
387.93	0.162
388.14	0.510
388.36	0.214
388.57	0.190
388.79	0.224
389.01	-0.000
389.22	0.273
389.44	0.239
389.65	0.215
389.87	0.213
390.08	0.255
390.30	0.199
390.52	0.398
390.73	0.393
390.95	0.269
391.16	0.268
391.38	-0.000
391.59	0.333
391.81	0.286
392.03	0.257
392.24	0.321
392.46	0.269
392.67	0.239
392.89	0.334
393.10	0.548
393.32	0.364
393.53	0.424
393.75	0.257
393.97	0.299
394.18	0.408
394.40	0.352
394.61	0.369
394.83	0.315
395.04	0.374
395.26	0.231
395.47	0.334
395.69	0.278
395.91	0.282
396.12	0.354
396.34	0.311
396.55	0.203
396.77	0.282
396.98	0.964
397.20	0.355
397.41	0.390
397.63	0.286
397.84	0.271
398.06	0.247
398.27	0.251
398.49	0.277
398.71	0.218
398.92	0.270
399.14	0.373
399.35	0.450
399.57	0.432
399.78	0.303
400.00	0.281
400.21	0.360
400.43	0.311
400.64	0.332
400.86	0.881
401.07	0.420
401.29	0.353
401.50	0.367
401.72	0.554
401.93	0.324
402.15	0.390
402.36	0.364
402.58	0.290
402.79	0.310
403.01	0.525
403.22	0.390
403.44	0.264
403.65	0.422
403.87	0.460
404.08	0.354
404.30	0.605
404.51	0.326
404.73	0.398
404.94	0.342
405.16	0.348
405.37	0.266
405.59	0.490
405.80	0.311
406.02	0.381
406.23	0.386
406.45	0.441
406.66	0.452
406.88	0.293
407.09	0.427
407.31	0.348
407.52	0.439
407.74	0.367
407.95	0.451
408.17	0.425
408.38	0.452
408.60	0.299
408.81	0.501
409.03	0.379
409.24	0.377
409.45	0.455
409.67	0.436
409.88	0.386
410.10	0.493
410.31	0.402
410.53	0.386
410.74	0.545
410.96	0.536
411.17	0.564
411.39	0.418
411.60	0.396
411.82	0.470
412.03	0.451
412.24	0.423
412.46	0.623
412.67	0.499
412.89	0.490
413.10	0.489
413.32	0.441
413.53	0.522
413.75	0.549
413.96	0.396
414.17	0.523
414.39	0.525
414.60	0.431
414.82	0.578
415.03	0.430
415.25	0.470
415.46	0.333
415.68	0.464
415.89	0.861
416.10	0.674
416.32	0.377
416.53	0.452
416.75	0.436
416.96	0.541
417.18	0.457
417.39	0.447
417.60	0.445
417.82	0.656
418.03	0.572
418.25	0.471
418.46	0.492
418.67	0.453
418.89	0.488
419.10	0.511
419.32	0.681
419.53	0.631
419.75	0.524
419.96	0.458
420.17	0.557
420.39	0.513
420.60	0.523
420.82	0.661
421.03	0.525
421.24	0.441
421.46	0.482
421.67	0.530
421.89	0.443
422.10	0.477
422.31	0.483
422.53	0.705
422.74	0.529
422.96	0.420
423.17	0.466
423.38	0.567
423.60	0.468
423.81	0.583
424.03	0.505
424.24	0.574
424.45	0.579
424.67	0.572
424.88	0.503
425.09	0.537
425.31	0.498
425.52	0.530
425.74	0.600
425.95	0.666
426.16	0.514
426.38	0.604
426.59	0.549
426.80	0.620
427.02	0.644
427.23	0.506
427.45	0.677
427.66	0.674
427.87	0.513
428.09	0.546
428.30	0.602
428.51	0.583
428.73	0.639
428.94	0.572
429.15	0.574
429.37	0.553
429.58	0.574
429.79	0.525
430.01	0.627
430.22	0.625
430.44	0.647
430.65	0.576
430.86	0.626
431.08	0.606
431.29	0.544
431.50	0.638
431.72	0.843
431.93	0.689
432.14	0.516
432.36	0.568
432.57	0.574
432.78	0.598
433.00	0.553
433.21	0.542
433.42	0.677
433.64	0.585
433.85	0.652
434.06	0.536
434.28	0.559
434.49	0.574
434.70	0.579
434.92	0.598
435.13	0.637
435.34	0.641
435.56	0.605
435.77	0.596
435.98	0.788
436.20	0.664
436.41	0.572
436.62	0.562
436.83	0.645
437.05	0.744
437.26	0.641
437.47	0.571
437.69	0.633
437.90	0.581
438.11	0.574
438.33	0.615
438.54	0.632
438.75	0.813
438.97	0.814
439.18	0.601
439.39	0.631
439.60	0.686
439.82	0.642
440.03	0.588
440.24	0.873
440.46	0.650
440.67	0.632
440.88	0.679
441.10	0.631
441.31	0.626
441.52	0.679
441.73	0.766
441.95	0.671
442.16	0.623
442.37	1.003
442.58	0.611
442.80	0.601
443.01	0.791
443.22	0.719
443.44	0.609
443.65	0.722
443.86	0.722
444.07	0.762
444.29	0.657
444.50	0.823
444.71	0.626
444.92	0.585
445.14	0.736
445.35	0.783
445.56	0.617
445.78	0.732
445.99	0.727
446.20	0.624
446.41	0.710
446.63	0.717
446.84	0.679
447.05	0.675
447.26	0.822
447.48	0.689
447.69	0.649
447.90	0.741
448.11	0.649
448.33	0.679
448.54	0.695
448.75	0.731
448.96	0.733
449.18	0.777
449.39	0.697
449.60	0.676
449.81	0.820
450.03	0.712
450.24	0.773
450.45	0.728
450.66	0.704
450.87	0.731
451.09	0.677
451.30	0.655
451.51	0.725
451.72	0.732
451.94	0.749
452.15	0.814
452.36	0.677
452.57	0.691
452.78	0.692
453.00	0.722
453.21	0.690
453.42	0.664
453.63	0.757
453.85	0.722
454.06	0.720
454.27	0.843
454.48	0.755
454.69	0.686
454.91	0.757
455.12	0.659
455.33	0.744
455.54	0.764
455.75	0.742
455.97	0.768
456.18	0.763
456.39	0.766
456.60	0.797
456.81	0.735
457.03	0.746
457.24	0.745
457.45	0.836
457.66	0.779
457.87	0.740
458.09	0.763
458.30	0.674
458.51	0.806
458.72	0.837
458.93	0.845
459.15	0.740
459.36	0.815
459.57	0.842
459.78	0.901
459.99	0.800
460.20	0.753
460.42	0.841
460.63	0.798
460.84	0.773
461.05	0.792
461.26	0.859
461.47	0.765
461.69	0.810
461.90	0.845
462.11	0.805
462.32	0.871
462.53	0.797
462.74	0.899
462.96	0.775
463.17	0.765
463.38	0.801
463.59	0.915
463.80	0.765
464.01	0.794
464.23	0.888
464.44	0.841
464.65	0.836
464.86	0.860
465.07	0.866
465.28	0.825
465.49	0.849
465.71	0.807
465.92	0.849
466.13	0.895
466.34	0.830
466.55	0.885
466.76	0.840
466.97	0.877
467.19	0.872
467.40	0.908
467.61	0.913
467.82	0.831
468.03	0.814
468.24	0.889
468.45	0.918
468.66	0.892
468.88	0.906
469.09	0.913
469.30	0.955
469.51	0.874
469.72	0.918
469.93	0.890
470.14	0.860
470.35	0.960
470.57	0.902
470.78	0.842
470.99	0.985
471.20	0.915
471.41	0.868
471.62	0.922
471.83	0.889
472.04	0.925
472.25	0.963
472.47	0.877
472.68	0.881
472.89	0.888
473.10	0.928
473.31	0.876
473.52	0.937
473.73	0.961
473.94	0.881
474.15	0.898
474.36	0.895
474.57	0.927
474.79	0.904
475.00	0.903
475.21	0.889
475.42	0.988
475.63	0.890
475.84	0.924
476.05	0.931
476.26	0.900
476.47	0.941
476.68	0.993
476.89	0.917
477.10	0.968
477.32	0.955
477.53	1.017
477.74	0.926
477.95	0.969
478.16	0.911
478.37	0.954
478.58	0.956
478.79	0.973
479.00	0.973
479.21	0.927
479.42	0.972
479.63	0.979
479.84	0.933
480.05	0.932
480.26	0.959
480.47	0.978
480.69	0.983
480.90	0.949
481.11	0.945
481.32	1.005
481.53	0.943
481.74	0.994
481.95	0.957
482.16	0.980
482.37	0.988
482.58	0.949
482.79	0.972
483.00	1.000
483.21	0.941
483.42	0.913
483.63	0.995
483.84	1.019
484.05	1.008
484.26	0.976
484.47	0.974
484.68	0.940
484.89	0.948
485.10	0.999
485.31	0.977
485.52	0.984
485.73	0.987
485.94	1.033
486.15	0.978
486.37	0.997
486.58	0.958
486.79	0.969
487.00	1.020
487.21	1.011
487.42	1.004
487.63	1.011
487.84	1.030
488.05	1.024
488.26	0.981
488.47	0.988
488.68	1.016
488.89	0.995
489.10	0.991
489.31	0.999
489.52	1.037
489.73	0.999
489.94	1.034
490.15	0.986
490.36	1.031
490.57	0.979
490.78	0.963
490.99	1.005
491.20	1.083
491.41	1.034
491.62	0.975
491.83	1.004
492.04	1.000
492.25	1.006
492.45	1.010
492.66	1.035
492.87	1.022
493.08	1.009
493.29	0.991
493.50	0.984
493.71	0.993
493.92	0.991
494.13	1.007
494.34	1.028
494.55	1.040
494.76	1.071
494.97	1.062
495.18	1.026
495.39	1.042
495.60	0.991
495.81	0.992
496.02	1.014
496.23	1.006
496.44	1.042
496.65	1.034
496.86	1.036
497.07	1.065
497.28	1.059
497.49	1.006
497.70	1.007
497.91	1.030
498.12	1.010
498.32	1.054
498.53	1.037
498.74	1.025
498.95	1.054
499.16	1.008
499.37	1.012
499.58	1.021
499.79	1.051
500.00	1.047
500.21	1.076
500.42	1.017
500.63	1.019
500.84	1.042
501.05	1.018
501.26	1.043
501.46	1.086
501.67	1.044
501.88	1.047
502.09	1.023
502.30	1.031
502.51	1.084
502.72	1.037
502.93	1.050
503.14	1.073
503.35	1.042
503.56	1.038
503.77	1.070
503.97	1.045
504.18	1.044
504.39	1.080
504.60	1.047
504.81	1.078
505.02	1.063
505.23	1.065
505.44	1.045
505.65	1.056
505.86	1.038
506.07	1.109
506.27	1.067
506.48	1.075
506.69	1.060
506.90	1.085
507.11	1.076
507.32	1.053
507.53	1.064
507.74	1.055
507.95	1.065
508.15	1.069
508.36	1.068
508.57	1.081
508.78	1.060
508.99	1.059
509.20	1.030
509.41	1.059
509.62	1.045
509.82	1.041
510.03	1.050
510.24	1.051
510.45	1.075
510.66	1.069
510.87	1.064
511.08	1.020
511.29	1.066
511.49	1.042
511.70	1.090
511.91	1.023
512.12	1.021
512.33	1.055
512.54	1.074
512.75	1.056
512.95	1.081
513.16	1.072
513.37	1.048
513.58	1.086
513.79	1.046
514.00	1.052
514.20	1.068
514.41	1.056
514.62	1.022
514.83	1.062
515.04	1.054
515.25	1.035
515.46	1.048
515.66	1.049
515.87	1.063
516.08	1.031
516.29	1.057
516.50	1.039
516.71	1.033
516.91	1.044
517.12	1.063
517.33	1.050
517.54	1.035
517.75	1.036
517.95	1.050
518.16	1.061
518.37	1.029
518.58	1.035
518.79	1.008
519.00	1.039
519.20	1.049
519.41	1.019
519.62	1.040
519.83	1.050
520.04	1.015
520.24	1.013
520.45	1.023
520.66	1.048
520.87	1.009
521.08	1.007
521.28	1.012
521.49	1.028
521.70	0.999
521.91	1.011
522.12	0.992
522.32	1.015
522.53	0.995
522.74	0.983
522.95	0.993
523.16	0.994
523.36	1.004
523.57	0.986
523.78	0.981
523.99	0.985
524.20	0.979
524.40	0.992
524.61	0.998
524.82	0.972
525.03	0.977
525.23	0.977
525.44	0.960
525.65	0.959
525.86	0.982
526.06	0.952
526.27	0.953
526.48	0.963
526.69	0.943
526.90	0.948
527.10	0.985
527.31	0.938
527.52	0.931
527.73	0.924
527.93	0.934
528.14	0.940
528.35	0.928
528.56	0.926
528.76	0.919
528.97	0.909
529.18	0.900
529.39	0.900
529.59	0.903
529.80	0.936
530.01	0.906
530.22	0.905
530.42	0.873
530.63	0.892
530.84	0.870
531.05	0.885
531.25	0.889
531.46	0.881
531.67	0.859
531.88	0.877
532.08	0.870
532.29	0.867
532.50	0.860
532.70	0.853
532.91	0.844
533.12	0.845
533.33	0.871
533.53	0.839
533.74	0.838
533.95	0.844
534.15	0.832
534.36	0.832
534.57	0.814
534.78	0.816
534.98	0.826
535.19	0.795
535.40	0.799
535.60	0.819
535.81	0.799
536.02	0.801
536.23	0.791
536.43	0.793
536.64	0.780
536.85	0.789
537.05	0.798
537.26	0.774
537.47	0.777
537.67	0.765
537.88	0.759
538.09	0.766
538.30	0.755
538.50	0.749
538.71	0.761
538.92	0.747
539.12	0.743
539.33	0.738
539.54	0.739
539.74	0.743
539.95	0.734
540.16	0.730
540.36	0.721
540.57	0.720
540.78	0.712
540.98	0.710
541.19	0.709
541.40	0.697
541.60	0.707
541.81	0.701
542.02	0.701
542.22	0.691
542.43	0.686
542.64	0.681
542.84	0.681
543.05	0.672
543.26	0.672
543.46	0.674
543.67	0.672
543.88	0.666
544.08	0.656
544.29	0.649
544.50	0.648
544.70	0.649
544.91	0.641
545.12	0.642
545.32	0.638
545.53	0.641
545.74	0.629
545.94	0.625
546.15	0.623
546.35	0.621
546.56	0.618
546.77	0.615
546.97	0.613
547.18	0.605
547.39	0.605
547.59	0.603
547.80	0.600
548.01	0.603
548.21	0.600
548.42	0.592
548.62	0.592
548.83	0.589
549.04	0.585
549.24	0.578
549.45	0.577
549.65	0.573
549.86	0.568
550.07	0.567
550.27	0.565
550.48	0.573
550.69	0.558
550.89	0.557
551.10	0.553
551.30	0.551
551.51	0.550
551.72	0.539
551.92	0.541
552.13	0.541
552.33	0.542
552.54	0.536
552.75	0.528
552.95	0.530
553.16	0.524
553.36	0.522
553.57	0.520
553.78	0.518
553.98	0.518
554.19	0.510
554.39	0.506
554.60	0.509
554.80	0.508
555.01	0.500
555.22	0.501
555.42	0.498
555.63	0.491
555.83	0.495
556.04	0.489
556.25	0.492
556.45	0.483
556.66	0.481
556.86	0.485
557.07	0.482
557.27	0.482
557.48	0.477
557.68	0.475
557.89	0.476
558.10	0.471
558.30	0.468
558.51	0.466
558.71	0.463
558.92	0.458
559.12	0.458
559.33	0.461
559.54	0.455
559.74	0.451
559.95	0.448
560.15	0.449
560.36	0.446
560.56	0.441
560.77	0.441
560.97	0.440
561.18	0.435
561.38	0.435
561.59	0.437
561.79	0.433
562.00	0.432
562.21	0.428
562.41	0.427
562.62	0.426
562.82	0.423
563.03	0.420
563.23	0.419
563.44	0.419
563.64	0.415
563.85	0.417
564.05	0.410
564.26	0.409
564.46	0.408
564.67	0.409
564.87	0.404
565.08	0.402
565.28	0.401
565.49	0.402
565.69	0.400
565.90	0.397
566.10	0.399
566.31	0.392
566.51	0.394
566.72	0.394
566.92	0.388
567.13	0.388
567.33	0.387
567.54	0.385
567.74	0.384
567.95	0.380
568.15	0.381
568.36	0.380
568.56	0.379
568.77	0.374
568.97	0.372
569.18	0.372
569.38	0.370
569.59	0.371
569.79	0.368
570.00	0.366
570.20	0.364
570.41	0.363
570.61	0.361
570.82	0.362
571.02	0.358
571.23	0.359
571.43	0.354
571.64	0.353
571.84	0.352
572.05	0.351
572.25	0.350
572.45	0.348
572.66	0.345
572.86	0.344
573.07	0.343
573.27	0.343
573.48	0.342
573.68	0.338
573.89	0.338
574.09	0.338
574.30	0.336
574.50	0.335
574.70	0.335
574.91	0.333
575.11	0.332
575.32	0.332
575.52	0.328
575.73	0.327
575.93	0.327
576.14	0.326
576.34	0.324
576.54	0.323
576.75	0.321
576.95	0.320
577.16	0.318
577.36	0.317
577.57	0.316
577.77	0.315
577.97	0.312
578.18	0.314
578.38	0.310
578.59	0.309
578.79	0.308
579.00	0.309
579.20	0.306
579.40	0.306
579.61	0.305
579.81	0.304
580.02	0.301
580.22	0.301
580.42	0.300
580.63	0.300
580.83	0.299
581.04	0.297
581.24	0.296
581.45	0.295
581.65	0.295
581.85	0.294
582.06	0.292
582.26	0.292
582.47	0.291
582.67	0.290
582.87	0.289
583.08	0.287
583.28	0.287
583.48	0.286
583.69	0.282
583.89	0.282
584.10	0.283
584.30	0.281
584.50	0.279
584.71	0.278
584.91	0.277
585.12	0.275
585.32	0.276
585.52	0.273
585.73	0.272
585.93	0.271
586.13	0.270
586.34	0.269
586.54	0.268
586.75	0.267
586.95	0.266
587.15	0.266
587.36	0.265
587.56	0.264
587.76	0.263
587.97	0.263
588.17	0.262
588.37	0.262
588.58	0.262
588.78	0.259
588.98	0.260
589.19	0.259
589.39	0.257
589.60	0.259
589.80	0.256
590.00	0.256
590.21	0.256
590.41	0.254
590.61	0.253
590.82	0.252
591.02	0.251
591.22	0.250
591.43	0.250
591.63	0.249
591.83	0.248
592.04	0.247
592.24	0.247
592.44	0.244
592.65	0.243
592.85	0.244
593.05	0.244
593.26	0.242
593.46	0.241
593.66	0.240
593.86	0.240
594.07	0.238
594.27	0.238
594.47	0.237
594.68	0.236
594.88	0.237
595.08	0.235
595.29	0.235
595.49	0.234
595.69	0.234
595.90	0.233
596.10	0.233
596.30	0.232
596.50	0.231
596.71	0.231
596.91	0.230
597.11	0.229
597.32	0.229
597.52	0.228
597.72	0.227
597.93	0.226
598.13	0.225
598.33	0.225
598.53	0.224
598.74	0.223
598.94	0.223
599.14	0.222
599.35	0.222
599.55	0.221
599.75	0.221
599.95	0.219
600.16	0.220
600.36	0.218
600.56	0.219
600.76	0.218
600.97	0.216
601.17	0.216
601.37	0.216
601.58	0.215
601.78	0.215
601.98	0.214
602.18	0.213
602.39	0.213
602.59	0.213
602.79	0.212
602.99	0.212
603.20	0.210
603.40	0.211
603.60	0.211
603.80	0.210
604.01	0.210
604.21	0.209
604.41	0.208
604.61	0.207
604.82	0.207
605.02	0.207
605.22	0.207
605.42	0.206
605.62	0.207
605.83	0.205
606.03	0.204
606.23	0.204
606.43	0.204
606.64	0.203
606.84	0.203
607.04	0.202
607.24	0.202
607.45	0.202
607.65	0.200
607.85	0.201
608.05	0.200
608.25	0.199
608.46	0.199
608.66	0.199
608.86	0.198
609.06	0.197
609.26	0.196
609.47	0.197
609.67	0.195
609.87	0.196
610.07	0.195
610.28	0.193
610.48	0.193
610.68	0.193
610.88	0.192
611.08	0.192
611.29	0.191
611.49	0.191
611.69	0.191
611.89	0.190
612.09	0.190
612.29	0.190
612.50	0.190
612.70	0.190
612.90	0.189
613.10	0.189
613.30	0.188
613.51	0.188
613.71	0.188
613.91	0.192
614.11	0.187
614.31	0.186
614.51	0.186
614.72	0.186
614.92	0.185
615.12	0.185
615.32	0.185
615.52	0.185
615.72	0.185
615.93	0.185
616.13	0.184
616.33	0.184
616.53	0.184
616.73	0.184
616.93	0.182
617.14	0.183
617.34	0.182
617.54	0.182
617.74	0.182
617.94	0.181
618.14	0.180
618.34	0.180
618.55	0.180
618.75	0.180
618.95	0.179
619.15	0.180
619.35	0.178
619.55	0.178
619.75	0.178
619.96	0.177
620.16	0.177
620.36	0.177
620.56	0.177
620.76	0.177
620.96	0.176
621.16	0.176
621.36	0.176
621.57	0.175
621.77	0.176
621.97	0.174
622.17	0.174
622.37	0.174
622.57	0.174
622.77	0.173
622.97	0.172
623.18	0.172
623.38	0.172
623.58	0.172
623.78	0.172
623.98	0.171
624.18	0.170
624.38	0.170
624.58	0.170
624.78	0.171
624.98	0.171
625.19	0.171
625.39	0.170
625.59	0.170
625.79	0.170
625.99	0.169
626.19	0.169
626.39	0.169
626.59	0.168
626.79	0.168
626.99	0.168
627.19	0.168
627.40	0.168
627.60	0.167
627.80	0.167
628.00	0.167
628.20	0.167
628.40	0.167
628.60	0.167
628.80	0.166
629.00	0.166
629.20	0.165
629.40	0.165
629.60	0.164
629.80	0.164
630.00	0.164
630.20	0.164
630.41	0.163
630.61	0.163
630.81	0.162
631.01	0.163
631.21	0.162
631.41	0.162
631.61	0.162
631.81	0.162
632.01	0.161
632.21	0.161
632.41	0.160
632.61	0.160
632.81	0.160
633.01	0.160
633.21	0.160
633.41	0.161
633.61	0.160
633.81	0.159
634.01	0.158
634.21	0.158
634.41	0.158
634.61	0.158
634.81	0.157
635.01	0.157
635.22	0.157
635.42	0.157
635.62	0.157
635.82	0.157
636.02	0.157
636.22	0.156
636.42	0.156
636.62	0.156
636.82	0.156
637.02	0.156
637.22	0.156
637.42	0.155
637.62	0.154
637.82	0.155
638.02	0.154
638.22	0.154
638.42	0.154
638.62	0.153
638.82	0.153
639.02	0.153
639.22	0.153
639.42	0.152
639.62	0.152
639.82	0.151
640.02	0.151
640.22	0.151
640.42	0.151
640.62	0.150
640.82	0.150
641.02	0.150
641.22	0.150
641.42	0.149
641.61	0.150
641.81	0.150
642.01	0.150
642.21	0.149
642.41	0.149
642.61	0.149
642.81	0.148
643.01	0.148
643.21	0.148
643.41	0.148
643.61	0.147
643.81	0.147
644.01	0.146
644.21	0.146
644.41	0.146
644.61	0.146
644.81	0.146
645.01	0.146
645.21	0.146
645.41	0.146
645.61	0.145
645.81	0.145
646.01	0.145
646.21	0.145
646.40	0.145
646.60	0.145
646.80	0.145
647.00	0.145
647.20	0.144
647.40	0.144
647.60	0.144
647.80	0.144
648.00	0.144
648.20	0.143
648.40	0.143
648.60	0.142
648.80	0.142
649.00	0.143
649.20	0.143
649.39	0.142
649.59	0.142
649.79	0.142
649.99	0.141
650.19	0.141
650.39	0.141
650.59	0.141
650.79	0.140
650.99	0.140
651.19	0.139
651.39	0.139
651.58	0.139
651.78	0.139
651.98	0.139
652.18	0.138
652.38	0.138
652.58	0.138
652.78	0.138
652.98	0.138
653.18	0.138
653.38	0.138
653.57	0.138
653.77	0.138
653.97	0.137
654.17	0.137
654.37	0.137
654.57	0.137
654.77	0.137
654.97	0.136
655.16	0.136
655.36	0.136
655.56	0.135
655.76	0.134
655.96	0.135
656.16	0.133
656.36	0.134
656.56	0.133
656.75	0.133
656.95	0.133
657.15	0.133
657.35	0.133
657.55	0.132
657.75	0.133
657.95	0.133
658.14	0.132
658.34	0.133
658.54	0.132
658.74	0.132
658.94	0.132
659.14	0.132
659.34	0.132
659.53	0.131
659.73	0.131
659.93	0.131
660.13	0.130
660.33	0.131
660.53	0.131
660.72	0.131
660.92	0.131
661.12	0.130
661.32	0.130
661.52	0.129
661.72	0.129
661.91	0.128
662.11	0.129
662.31	0.128
662.51	0.128
662.71	0.127
662.90	0.127
663.10	0.126
663.30	0.126
663.50	0.127
663.70	0.126
663.90	0.126
664.09	0.126
664.29	0.125
664.49	0.125
664.69	0.125
664.89	0.125
665.08	0.125
665.28	0.124
665.48	0.124
665.68	0.124
665.88	0.124
666.07	0.123
666.27	0.123
666.47	0.123
666.67	0.123
666.87	0.123
667.06	0.122
667.26	0.122
667.46	0.122
667.66	0.122
667.85	0.122
668.05	0.122
668.25	0.122
668.45	0.122
668.65	0.121
668.84	0.122
669.04	0.121
669.24	0.121
669.44	0.120
669.63	0.120
669.83	0.120
670.03	0.119
670.23	0.118
670.42	0.118
670.62	0.118
670.82	0.118
671.02	0.118
671.22	0.117
671.41	0.117
671.61	0.117
671.81	0.118
672.01	0.118
672.20	0.117
672.40	0.117
672.60	0.117
672.80	0.117
672.99	0.117
673.19	0.116
673.39	0.116
673.58	0.115
673.78	0.115
673.98	0.115
674.18	0.114
674.37	0.114
674.57	0.114
674.77	0.115
674.97	0.114
675.16	0.114
675.36	0.114
675.56	0.114
675.75	0.114
675.95	0.114
676.15	0.114
676.35	0.113
676.54	0.113
676.74	0.113
676.94	0.113
677.13	0.112
677.33	0.112
677.53	0.112
677.73	0.112
677.92	0.111
678.12	0.111
678.32	0.111
678.51	0.111
678.71	0.111
678.91	0.110
679.11	0.110
679.30	0.110
679.50	0.110
679.70	0.110
679.89	0.110
680.09	0.110
680.29	0.109
680.48	0.109
680.68	0.108
680.88	0.109
681.07	0.109
681.27	0.108
681.47	0.108
681.66	0.108
681.86	0.108
682.06	0.108
682.25	0.107
682.45	0.107
682.65	0.107
682.84	0.106
683.04	0.106
683.24	0.106
683.43	0.106
683.63	0.106
683.83	0.106
684.02	0.106
684.22	0.105
684.42	0.105
684.61	0.105
684.81	0.105
685.01	0.106
685.20	0.105
685.40	0.105
685.60	0.105
685.79	0.104
685.99	0.104
686.19	0.104
686.38	0.104
686.58	0.104
686.77	0.104
686.97	0.103
687.17	0.103
687.36	0.103
687.56	0.102
687.76	0.102
687.95	0.102
688.15	0.102
688.34	0.102
688.54	0.101
688.74	0.101
688.93	0.100
689.13	0.101
689.33	0.101
689.52	0.100
689.72	0.101
689.91	0.101
690.11	0.100
690.31	0.100
690.50	0.100
690.70	0.100
690.89	0.100
691.09	0.100
691.29	0.100
691.48	0.099
691.68	0.099
691.87	0.099
692.07	0.099
692.27	0.099
692.46	0.099
692.66	0.099
692.85	0.099
693.05	0.098
693.25	0.098
693.44	0.098
693.64	0.098
693.83	0.098
694.03	0.097
694.22	0.097
694.42	0.097
694.62	0.097
694.81	0.097
695.01	0.097
695.20	0.097
695.40	0.097
695.59	0.097
695.79	0.096
695.99	0.096
696.18	0.096
696.38	0.096
696.57	0.096
696.77	0.095
696.96	0.096
697.16	0.095
697.36	0.095
697.55	0.095
697.75	0.095
697.94	0.094
698.14	0.094
698.33	0.094
698.53	0.094
698.72	0.094
698.92	0.094
699.11	0.093
699.31	0.093
699.51	0.093
699.70	0.093
699.90	0.092
700.09	0.092
700.29	0.092
700.48	0.092
700.68	0.092
700.87	0.092
701.07	0.092
701.26	0.091
701.46	0.091
701.65	0.091
701.85	0.091
702.04	0.091
702.24	0.091
702.43	0.091
702.63	0.091
702.82	0.091
703.02	0.090
703.21	0.090
703.41	0.090
703.60	0.090
703.80	0.090
703.99	0.090
704.19	0.090
704.38	0.090
704.58	0.089
704.77	0.090
704.97	0.089
705.16	0.090
705.36	0.090
705.55	0.089
705.75	0.089
705.94	0.089
706.14	0.089
706.33	0.089
706.53	0.090
706.72	0.090
706.92	0.090
707.11	0.089
707.31	0.089
707.50	0.089
707.70	0.089
707.89	0.089
708.09	0.089
708.28	0.089
708.48	0.089
708.67	0.088
708.86	0.088
709.06	0.088
709.25	0.088
709.45	0.088
709.64	0.088
709.84	0.088
710.03	0.087
710.23	0.087
710.42	0.087
710.62	0.087
710.81	0.087
711.00	0.087
711.20	0.087
711.39	0.087
711.59	0.086
711.78	0.087
711.98	0.087
712.17	0.087
712.37	0.087
712.56	0.087
712.75	0.087
712.95	0.087
713.14	0.087
713.34	0.087
713.53	0.087
713.73	0.087
713.92	0.087
714.11	0.087
714.31	0.088
714.50	0.087
714.70	0.087
714.89	0.087
715.08	0.087
715.28	0.087
715.47	0.087
715.67	0.087
715.86	0.087
716.06	0.087
716.25	0.087
716.44	0.086
716.64	0.086
716.83	0.086
717.03	0.086
717.22	0.086
717.41	0.085
717.61	0.085
717.80	0.085
717.99	0.085
718.19	0.085
718.38	0.085
718.58	0.085
718.77	0.084
718.96	0.084
719.16	0.084
719.35	0.084
719.55	0.084
719.74	0.083
719.93	0.083
720.13	0.083
720.32	0.082
720.51	0.083
720.71	0.083
720.90	0.083
721.10	0.083
721.29	0.082
721.48	0.082
721.68	0.082
721.87	0.082
722.06	0.083
722.26	0.083
722.45	0.083
722.64	0.083
722.84	0.083
723.03	0.083
723.22	0.083
723.42	0.084
723.61	0.084
723.80	0.084
724.00	0.084
724.19	0.084
724.38	0.084
724.58	0.083
724.77	0.083
724.96	0.083
725.16	0.083
725.35	0.083
725.54	0.083
725.74	0.084
725.93	0.083
726.12	0.084
726.32	0.084
726.51	0.084
726.70	0.084
726.90	0.084
727.09	0.084
727.28	0.084
727.48	0.084
727.67	0.083
727.86	0.083
728.06	0.084
728.25	0.083
728.44	0.084
728.64	0.083
728.83	0.083
729.02	0.083
729.21	0.083
729.41	0.083
729.60	0.083
729.79	0.083
729.99	0.083
730.18	0.083
730.37	0.083
730.56	0.082
730.76	0.082
730.95	0.083
731.14	0.082
731.34	0.082
731.53	0.083
731.72	0.083
731.91	0.083
732.11	0.083
732.30	0.083
732.49	0.083
732.69	0.084
732.88	0.084
733.07	0.083
733.26	0.084
733.46	0.083
733.65	0.083
733.84	0.082
734.03	0.083
734.23	0.083
734.42	0.083
734.61	0.083
734.80	0.083
735.00	0.083
735.19	0.082
735.38	0.083
735.57	0.083
735.77	0.083
735.96	0.083
736.15	0.083
736.34	0.083
736.54	0.084
736.73	0.083
736.92	0.083
737.11	0.083
737.31	0.083
737.50	0.084
737.69	0.084
737.88	0.083
738.07	0.083
738.27	0.083
738.46	0.083
738.65	0.083
738.84	0.083
739.04	0.083
739.23	0.083
739.42	0.083
739.61	0.083
739.80	0.083
740.00	0.083
740.19	0.083
740.38	0.083
740.57	0.083
740.76	0.083
740.96	0.083
741.15	0.082
741.34	0.082
741.53	0.082
741.72	0.082
741.92	0.082
742.11	0.082
742.30	0.082
742.49	0.082
742.68	0.082
742.88	0.082
743.07	0.082
743.26	0.082
743.45	0.082
743.64	0.082
743.84	0.081
744.03	0.081
744.22	0.081
744.41	0.081
744.60	0.081
744.79	0.081
744.99	0.080
745.18	0.080
745.37	0.080
745.56	0.080
745.75	0.080
745.94	0.081
746.14	0.081
746.33	0.081
746.52	0.081
746.71	0.081
746.90	0.081
747.09	0.081
747.28	0.081
747.48	0.081
747.67	0.081
747.86	0.081
748.05	0.081
748.24	0.081
748.43	0.080
748.62	0.080
748.82	0.080
749.01	0.080
749.20	0.080
749.39	0.079
749.58	0.079
749.77	0.079
749.96	0.079
750.16	0.079
750.35	0.079
750.54	0.079
750.73	0.079
750.92	0.079
751.11	0.079
751.30	0.079
751.49	0.079
751.68	0.079
751.88	0.079
752.07	0.079
752.26	0.079
752.45	0.079
752.64	0.079
752.83	0.079
753.02	0.079
753.21	0.079
753.40	0.079
753.60	0.079
753.79	0.079
753.98	0.079
754.17	0.079
754.36	0.078
754.55	0.078
754.74	0.078
754.93	0.078
755.12	0.078
755.31	0.078
755.50	0.078
755.70	0.078
755.89	0.078
756.08	0.078
756.27	0.078
756.46	0.078
756.65	0.078
756.84	0.078
757.03	0.077
757.22	0.077
757.41	0.077
757.60	0.077
757.79	0.077
757.98	0.077
758.17	0.077
758.36	0.077
758.56	0.076
758.75	0.076
758.94	0.076
759.13	0.076
759.32	0.076
759.51	0.076
759.70	0.076
759.89	0.076
760.08	0.076
760.27	0.076
760.46	0.077
760.65	0.077
760.84	0.077
761.03	0.077
761.22	0.077
761.41	0.077
761.60	0.077
761.79	0.077
761.98	0.077
762.17	0.077
762.36	0.076
762.55	0.076
762.74	0.076
762.93	0.076
763.12	0.076
763.31	0.076
763.50	0.076
763.69	0.076
763.88	0.076
764.07	0.076
764.26	0.076
764.45	0.076
764.64	0.076
764.83	0.076
765.02	0.076
765.21	0.076
765.40	0.076
765.59	0.076
765.78	0.076
765.97	0.076
766.16	0.076
766.35	0.076
766.54	0.076
766.73	0.076
766.92	0.076
767.11	0.075
767.30	0.076
767.49	0.075
767.68	0.076
767.87	0.075
768.06	0.075
768.25	0.075
768.44	0.076
768.63	0.075
768.82	0.075
769.01	0.074
769.20	0.075
769.39	0.075
769.58	0.075
769.77	0.075
769.96	0.075
770.15	0.074
770.34	0.074
770.53	0.074
770.72	0.074
770.91	0.074
771.10	0.074
771.29	0.074
771.47	0.074
771.66	0.073
771.85	0.073
772.04	0.073
772.23	0.074
772.42	0.073
772.61	0.074
772.80	0.074
772.99	0.074
773.18	0.073
773.37	0.074
773.56	0.073
773.75	0.074
773.94	0.074
774.13	0.073
774.31	0.074
774.50	0.074
774.69	0.073
774.88	0.073
775.07	0.074
775.26	0.073
775.45	0.073
775.64	0.073
775.83	0.073
776.02	0.073
776.21	0.073
776.40	0.073
776.58	0.073
776.77	0.073
776.96	0.073
777.15	0.073
777.34	0.073
777.53	0.074
777.72	0.074
777.91	0.074
778.10	0.073
778.28	0.073
778.47	0.073
778.66	0.073
778.85	0.072
779.04	0.072
779.23	0.072
779.42	0.072
779.61	0.071
779.79	0.071
779.98	0.071
780.17	0.071
780.36	0.071
780.55	0.070
780.74	0.070
780.93	0.070
781.12	0.071
781.30	0.071
781.49	0.071
781.68	0.071
781.87	0.071
782.06	0.071
782.25	0.071
782.44	0.071
782.62	0.071
782.81	0.072
783.00	0.072
783.19	0.072
783.38	0.072
783.57	0.072
783.75	0.072
783.94	0.072
784.13	0.072
784.32	0.071
784.51	0.071
784.70	0.071
784.88	0.071
785.07	0.071
785.26	0.071
785.45	0.071
785.64	0.070
785.83	0.070
786.01	0.070
786.20	0.070
786.39	0.071
786.58	0.070
786.77	0.070
786.95	0.070
787.14	0.070
787.33	0.071
787.52	0.070
787.71	0.070
787.90	0.070
788.08	0.070
788.27	0.070
788.46	0.070
788.65	0.070
788.84	0.070
789.02	0.070
789.21	0.070
789.40	0.070
789.59	0.070
789.77	0.070
789.96	0.070
790.15	0.071
790.34	0.071
790.53	0.071
790.71	0.070
790.90	0.070
791.09	0.070
791.28	0.071
791.46	0.070
791.65	0.070
791.84	0.070
792.03	0.070
792.22	0.070
792.40	0.069
792.59	0.069
792.78	0.069
792.97	0.069
793.15	0.069
793.34	0.069
793.53	0.069
793.72	0.069
793.90	0.069
794.09	0.069
794.28	0.069
794.47	0.069
794.65	0.069
794.84	0.069
795.03	0.069
795.22	0.069
795.40	0.068
795.59	0.068
795.78	0.068
795.97	0.068
796.15	0.069
796.34	0.069
796.53	0.068
796.71	0.069
796.90	0.069
797.09	0.069
797.28	0.069
797.46	0.069
797.65	0.069
797.84	0.069
798.02	0.069
798.21	0.069
798.40	0.069
798.59	0.068
798.77	0.068
798.96	0.068
799.15	0.067
799.33	0.068
799.52	0.067
799.71	0.067
799.90	0.067
800.08	0.068
800.27	0.067
800.46	0.067
800.64	0.067
800.83	0.067
801.02	0.068
801.20	0.068
801.39	0.068
801.58	0.068
801.76	0.068
801.95	0.068
802.14	0.068
802.32	0.068
802.51	0.068
802.70	0.068
802.88	0.067
803.07	0.067
803.26	0.067
803.44	0.066
803.63	0.067
803.82	0.066
804.00	0.066
804.19	0.067
804.38	0.067
804.56	0.067
804.75	0.067
804.94	0.068
805.12	0.068
805.31	0.068
805.50	0.068
805.68	0.068
805.87	0.068
806.06	0.068
806.24	0.068
806.43	0.068
806.62	0.068
806.80	0.068
806.99	0.067
807.17	0.067
807.36	0.067
807.55	0.067
807.73	0.068
807.92	0.067
808.11	0.068
808.29	0.067
808.48	0.067
808.66	0.067
808.85	0.066
809.04	0.066
809.22	0.066
809.41	0.066
809.59	0.066
809.78	0.066
809.97	0.066
810.15	0.066
810.34	0.066
810.53	0.066
810.71	0.066
810.90	0.066
811.08	0.066
811.27	0.066
811.45	0.066
811.64	0.066
811.83	0.066
812.01	0.066
812.20	0.066
812.38	0.066
812.57	0.066
812.76	0.066
812.94	0.066
813.13	0.066
813.31	0.066
813.50	0.066
813.68	0.066
813.87	0.066
814.06	0.066
814.24	0.066
814.43	0.066
814.61	0.066
814.80	0.066
814.98	0.067
815.17	0.067
815.36	0.066
815.54	0.066
815.73	0.066
815.91	0.066
816.10	0.067
816.28	0.067
816.47	0.066
816.65	0.067
816.84	0.067
817.03	0.067
817.21	0.067
817.40	0.067
817.58	0.067
817.77	0.067
817.95	0.067
818.14	0.067
818.32	0.067
818.51	0.067
818.69	0.067
818.88	0.067
819.06	0.067
819.25	0.067
819.43	0.067
819.62	0.067
819.80	0.066
819.99	0.066
820.18	0.066
820.36	0.066
820.55	0.066
820.73	0.066
820.92	0.066
821.10	0.066
821.29	0.066
821.47	0.066
821.66	0.066
821.84	0.066
822.03	0.066
822.21	0.066
822.40	0.066
822.58	0.066
822.77	0.066
822.95	0.066
823.14	0.067
823.32	0.067
823.50	0.067
823.69	0.067
823.87	0.067
824.06	0.067
824.24	0.068
824.43	0.067
824.61	0.067
824.80	0.068
824.98	0.068
825.17	0.068
825.35	0.068
825.54	0.068
825.72	0.068
825.91	0.068
826.09	0.068
826.28	0.068
826.46	0.068
826.64	0.068
826.83	0.068
827.01	0.068
827.20	0.068
827.38	0.068
827.57	0.069
827.75	0.069
827.94	0.069
828.12	0.069
828.31	0.069
828.49	0.069
828.67	0.069
828.86	0.069
829.04	0.069
829.23	0.069
829.41	0.070
829.60	0.070
829.78	0.070
829.96	0.070
830.15	0.070
830.33	0.071
830.52	0.071
830.70	0.071
830.88	0.071
831.07	0.071
831.25	0.071
831.44	0.071
831.62	0.071
831.81	0.071
831.99	0.071
832.17	0.072
832.36	0.072
832.54	0.072
832.73	0.072
832.91	0.072
833.09	0.072
833.28	0.072
833.46	0.072
833.65	0.072
833.83	0.073
834.01	0.073
834.20	0.073
834.38	0.073
834.56	0.073
834.75	0.073
834.93	0.073
835.12	0.073
835.30	0.073
835.48	0.073
835.67	0.073
835.85	0.073
836.03	0.073
836.22	0.072
836.40	0.073
836.59	0.073
836.77	0.073
836.95	0.073
837.14	0.073
837.32	0.073
837.50	0.072
837.69	0.073
837.87	0.073
838.05	0.073
838.24	0.073
838.42	0.073
838.60	0.073
838.79	0.073
838.97	0.073
839.15	0.073
839.34	0.073
839.52	0.074
839.70	0.074
839.89	0.074
840.07	0.074
840.25	0.074
840.44	0.074
840.62	0.074
840.80	0.074
840.99	0.074
841.17	0.074
841.35	0.074
841.54	0.074
841.72	0.074
841.90	0.074
842.09	0.074
842.27	0.074
842.45	0.074
842.64	0.074
842.82	0.074
843.00	0.074
843.19	0.073
843.37	0.073
843.55	0.073
843.73	0.073
843.92	0.073
844.10	0.074
844.28	0.074
844.47	0.074
844.65	0.074
844.83	0.074
845.01	0.074
845.20	0.075
845.38	0.075
845.56	0.075
845.75	0.074
845.93	0.074
846.11	0.074
846.29	0.074
846.48	0.075
846.66	0.075
846.84	0.075
847.02	0.074
847.21	0.074
847.39	0.075
847.57	0.075
847.76	0.075
847.94	0.075
848.12	0.075
848.30	0.075
848.49	0.075
848.67	0.075
848.85	0.075
849.03	0.075
849.22	0.075
849.40	0.076
849.58	0.076
849.76	0.076
849.95	0.076
850.13	0.076
850.31	0.076
850.49	0.076
850.67	0.076
850.86	0.076
851.04	0.076
851.22	0.075
851.40	0.075
851.59	0.075
851.77	0.075
851.95	0.075
852.13	0.075
852.31	0.075
852.50	0.076
852.68	0.076
852.86	0.076
853.04	0.076
853.23	0.076
853.41	0.075
853.59	0.076
853.77	0.075
853.95	0.075
854.14	0.075
854.32	0.075
854.50	0.075
854.68	0.075
854.86	0.075
855.04	0.075
855.23	0.075
855.41	0.075
855.59	0.075
855.77	0.075
855.95	0.076
856.14	0.076
856.32	0.076
856.50	0.076
856.68	0.076
856.86	0.076
857.04	0.076
857.23	0.076
857.41	0.076
857.59	0.075
857.77	0.075
857.95	0.075
858.13	0.075
858.32	0.075
858.50	0.075
858.68	0.075
858.86	0.075
859.04	0.075
859.22	0.075
859.41	0.075
859.59	0.075
859.77	0.075
859.95	0.075
860.13	0.075
860.31	0.075
860.49	0.075
860.68	0.075
860.86	0.075
861.04	0.076
861.22	0.075
861.40	0.076
861.58	0.075
861.76	0.075
861.94	0.076
862.13	0.076
862.31	0.075
862.49	0.076
862.67	0.076
862.85	0.076
863.03	0.076
863.21	0.076
863.39	0.076
863.57	0.076
863.76	0.076
863.94	0.076
864.12	0.077
864.30	0.077
864.48	0.076
864.66	0.077
864.84	0.077
865.02	0.077
865.20	0.077
865.38	0.077
865.57	0.077
865.75	0.077
865.93	0.078
866.11	0.077
866.29	0.077
866.47	0.077
866.65	0.077
866.83	0.077
867.01	0.076
867.19	0.076
867.37	0.076
867.55	0.076
867.73	0.076
867.92	0.076
868.10	0.077
868.28	0.077
868.46	0.077
868.64	0.077
868.82	0.077
869.00	0.077
869.18	0.077
869.36	0.078
869.54	0.078
869.72	0.078
869.90	0.078
870.08	0.078
870.26	0.078
870.44	0.078
870.62	0.078
870.80	0.078
870.98	0.078
871.16	0.078
871.34	0.078
871.53	0.078
871.71	0.077
871.89	0.078
872.07	0.077
872.25	0.078
872.43	0.077
872.61	0.078
872.79	0.078
872.97	0.078
873.15	0.078
873.33	0.079
873.51	0.079
873.69	0.079
873.87	0.079
874.05	0.079
874.23	0.079
874.41	0.079
874.59	0.079
874.77	0.079
874.95	0.078
875.13	0.078
875.31	0.078
875.49	0.079
875.67	0.078
875.85	0.078
876.03	0.078
876.21	0.079
876.39	0.079
876.57	0.079
876.75	0.079
876.93	0.079
877.11	0.079
877.29	0.079
877.47	0.079
877.65	0.080
877.82	0.080
878.00	0.080
878.18	0.080
878.36	0.080
878.54	0.079
878.72	0.079
878.90	0.080
879.08	0.080
879.26	0.080
879.44	0.080
879.62	0.080
879.80	0.079
879.98	0.080
880.16	0.079
880.34	0.079
880.52	0.079
880.70	0.079
880.88	0.079
881.06	0.079
881.24	0.079
881.42	0.080
881.59	0.079
881.77	0.079
881.95	0.080
882.13	0.080
882.31	0.080
882.49	0.080
882.67	0.080
882.85	0.080
883.03	0.080
883.21	0.080
883.39	0.080
883.57	0.080
883.75	0.080
883.92	0.080
884.10	0.080
884.28	0.080
884.46	0.080
884.64	0.081
884.82	0.081
885.00	0.081
885.18	0.081
885.36	0.081
885.54	0.081
885.71	0.081
885.89	0.081
886.07	0.081
886.25	0.081
886.43	0.081
886.61	0.081
886.79	0.081
886.97	0.081
887.15	0.081
887.32	0.081
887.50	0.081
887.68	0.081
887.86	0.081
888.04	0.081
888.22	0.081
888.40	0.081
888.57	0.081
888.75	0.081
888.93	0.081
889.11	0.081
889.29	0.082
889.47	0.082
889.65	0.082
889.82	0.082
890.00	0.083
890.18	0.083
890.36	0.082
890.54	0.083
890.72	0.083
890.90	0.083
891.07	0.082
891.25	0.082
891.43	0.082
891.61	0.082
891.79	0.082
891.97	0.082
892.14	0.082
892.32	0.082
892.50	0.082
892.68	0.082
892.86	0.082
893.03	0.082
893.21	0.083
893.39	0.083
893.57	0.083
893.75	0.083
893.93	0.083
894.10	0.083
894.28	0.083
894.46	0.083
894.64	0.083
894.82	0.083
894.99	0.083
895.17	0.083
895.35	0.083
895.53	0.083
895.71	0.082
895.88	0.082
896.06	0.083
896.24	0.083
896.42	0.083
896.59	0.083
896.77	0.083
896.95	0.083
897.13	0.084
897.31	0.084
897.48	0.083
897.66	0.084
897.84	0.083
898.02	0.084
898.19	0.084
898.37	0.084
898.55	0.084
898.73	0.084
898.91	0.084
899.08	0.084
899.26	0.084
899.44	0.084
899.62	0.085
899.79	0.085
899.97	0.085
900.15	0.085
900.33	0.085
900.50	0.085
900.68	0.084
900.86	0.085
901.04	0.085
901.21	0.085
901.39	0.085
901.57	0.085
901.74	0.085
901.92	0.085
902.10	0.085
902.28	0.086
902.45	0.086
902.63	0.085
902.81	0.085
902.99	0.086
903.16	0.086
903.34	0.086
903.52	0.086
903.69	0.086
903.87	0.086
904.05	0.086
904.22	0.086
904.40	0.086
904.58	0.086
904.76	0.086
904.93	0.086
905.11	0.087
905.29	0.087
905.46	0.087
905.64	0.087
905.82	0.087
905.99	0.087
906.17	0.087
906.35	0.087
906.53	0.087
906.70	0.087
906.88	0.087
907.06	0.087
907.23	0.087
907.41	0.088
907.59	0.087
907.76	0.087
907.94	0.088
908.12	0.088
908.29	0.088
908.47	0.088
908.65	0.087
908.82	0.088
909.00	0.087
909.18	0.087
909.35	0.087
909.53	0.087
909.71	0.087
909.88	0.087
910.06	0.087
910.23	0.087
910.41	0.087
910.59	0.087
910.76	0.087
910.94	0.087
911.12	0.087
911.29	0.088
911.47	0.088
911.65	0.088
911.82	0.088
912.00	0.089
912.17	0.089
912.35	0.089
912.53	0.089
912.70	0.089
912.88	0.090
913.06	0.090
913.23	0.090
913.41	0.090
913.58	0.090
913.76	0.090
913.94	0.090
914.11	0.091
914.29	0.090
914.46	0.091
914.64	0.091
914.82	0.091
914.99	0.090
915.17	0.090
915.34	0.090
915.52	0.090
915.70	0.091
915.87	0.091
916.05	0.091
916.22	0.091
916.40	0.091
916.57	0.091
916.75	0.091
916.93	0.092
917.10	0.092
917.28	0.092
917.45	0.092
917.63	0.092
917.80	0.092
917.98	0.092
918.16	0.092
918.33	0.093
918.51	0.093
918.68	0.093
918.86	0.093
919.03	0.093
919.21	0.094
919.39	0.094
919.56	0.094
919.74	0.095
919.91	0.095
920.09	0.095
920.26	0.095
920.44	0.095
920.61	0.095
920.79	0.095
920.96	0.095
921.14	0.095
921.31	0.096
921.49	0.096
921.67	0.096
921.84	0.096
922.02	0.097
922.19	0.097
922.37	0.097
922.54	0.098
922.72	0.098
922.89	0.099
923.07	0.099
923.24	0.099
923.42	0.099
923.59	0.099
923.77	0.099
923.94	0.099
924.12	0.100
924.29	0.100
924.47	0.100
924.64	0.101
924.82	0.101
924.99	0.101
925.17	0.102
925.34	0.102
925.52	0.103
925.69	0.103
925.87	0.103
926.04	0.103
926.22	0.103
926.39	0.104
926.57	0.104
926.74	0.104
926.91	0.104
927.09	0.105
927.26	0.105
927.44	0.105
927.61	0.105
927.79	0.105
927.96	0.106
928.14	0.106
928.31	0.107
928.49	0.107
928.66	0.107
928.84	0.108
929.01	0.108
929.18	0.109
929.36	0.110
929.53	0.110
929.71	0.111
929.88	0.111
930.06	0.112
930.23	0.112
930.41	0.113
930.58	0.113
930.75	0.113
930.93	0.114
931.10	0.114
931.28	0.114
931.45	0.114
931.63	0.114
931.80	0.115
931.97	0.115
932.15	0.116
932.32	0.116
932.50	0.116
932.67	0.117
932.84	0.117
933.02	0.118
933.19	0.118
933.37	0.118
933.54	0.119
933.71	0.119
933.89	0.120
934.06	0.120
934.24	0.121
934.41	0.122
934.58	0.122
934.76	0.123
934.93	0.123
935.11	0.124
935.28	0.124
935.45	0.125
935.63	0.125
935.80	0.126
935.98	0.126
936.15	0.126
936.32	0.127
936.50	0.127
936.67	0.128
936.84	0.128
937.02	0.129
937.19	0.129
937.36	0.130
937.54	0.130
937.71	0.131
937.89	0.131
938.06	0.132
938.23	0.132
938.41	0.134
938.58	0.134
938.75	0.134
938.93	0.135
939.10	0.135
939.27	0.135
939.45	0.136
939.62	0.136
939.79	0.137
939.97	0.138
940.14	0.138
940.31	0.139
940.49	0.139
940.66	0.140
940.83	0.141
941.01	0.141
941.18	0.142
941.35	0.143
941.53	0.143
941.70	0.144
941.87	0.144
942.05	0.145
942.22	0.145
942.39	0.146
942.57	0.147
942.74	0.147
942.91	0.148
943.08	0.148
943.26	0.149
943.43	0.149
943.60	0.150
943.78	0.151
943.95	0.152
944.12	0.153
944.29	0.154
944.47	0.154
944.64	0.155
944.81	0.156
944.99	0.157
945.16	0.157
945.33	0.158
945.50	0.159
945.68	0.159
945.85	0.160
946.02	0.161
946.20	0.162
946.37	0.164
946.54	0.164
946.71	0.165
946.89	0.165
947.06	0.166
947.23	0.167
947.40	0.168
947.58	0.169
947.75	0.170
947.92	0.171
948.09	0.171
948.27	0.172
948.44	0.173
948.61	0.175
948.78	0.176
948.96	0.177
949.13	0.178
949.30	0.179
949.47	0.180
949.65	0.181
949.82	0.183
949.99	0.183
950.16	0.185
950.33	0.186
950.51	0.187
950.68	0.188
950.85	0.189
951.02	0.190
951.20	0.191
951.37	0.192
951.54	0.193
951.71	0.194
951.88	0.195
952.06	0.196
952.23	0.197
952.40	0.198
952.57	0.200
952.74	0.201
952.92	0.202
953.09	0.204
953.26	0.205
953.43	0.206
953.60	0.207
953.77	0.207
953.95	0.208
954.12	0.211
954.29	0.211
954.46	0.214
954.63	0.215
954.81	0.215
954.98	0.216
955.15	0.218
955.32	0.219
955.49	0.219
955.66	0.221
955.84	0.222
956.01	0.222
956.18	0.224
956.35	0.225
956.52	0.226
956.69	0.228
956.87	0.228
957.04	0.229
957.21	0.231
957.38	0.231
957.55	0.233
957.72	0.234
957.89	0.235
958.07	0.235
958.24	0.237
958.41	0.239
958.58	0.239
958.75	0.240
958.92	0.241
959.09	0.241
959.26	0.242
959.44	0.243
959.61	0.244
959.78	0.245
959.95	0.246
960.12	0.246
960.29	0.247
960.46	0.247
960.63	0.247
960.81	0.248
960.98	0.249
961.15	0.249
961.32	0.250
961.49	0.249
961.66	0.251
961.83	0.251
962.00	0.251
962.17	0.252
962.34	0.252
962.52	0.252
962.69	0.253
962.86	0.253
963.03	0.253
963.20	0.254
963.37	0.253
963.54	0.254
963.71	0.254
963.88	0.254
964.05	0.255
964.22	0.256
964.39	0.255
964.56	0.255
964.74	0.257
964.91	0.256
965.08	0.257
965.25	0.258
965.42	0.258
965.59	0.259
965.76	0.258
965.93	0.260
966.10	0.258
966.27	0.260
966.44	0.259
966.61	0.260
966.78	0.260
966.95	0.259
967.12	0.260
967.29	0.261
967.46	0.261
967.63	0.260
967.80	0.261
967.97	0.260
968.14	0.259
968.32	0.260
968.49	0.261
968.66	0.260
968.83	0.261
969.00	0.261
969.17	0.261
969.34	0.262
969.51	0.263
969.68	0.262
969.85	0.263
970.02	0.263
970.19	0.263
970.36	0.263
970.53	0.263
970.70	0.262
970.87	0.262
971.04	0.262
971.21	0.262
971.38	0.262
971.55	0.262
971.72	0.262
971.89	0.263
972.06	0.262
972.23	0.262
972.40	0.262
972.57	0.261
972.74	0.261
972.91	0.261
973.07	0.261
973.24	0.261
973.41	0.262
973.58	0.260
973.75	0.272
973.92	0.261
974.09	0.261
974.26	0.260
974.43	0.260
974.60	0.261
974.77	0.262
974.94	0.262
975.11	0.262
975.28	0.263
975.45	0.261
975.62	0.263
975.79	0.264
975.96	0.262
976.13	0.262
976.30	0.263
976.47	0.262
976.64	0.262
976.80	0.262
976.97	0.262
977.14	0.262
977.31	0.261
977.48	0.262
977.65	0.261
977.82	0.260
977.99	0.261
978.16	0.261
978.33	0.260
978.50	0.260
978.67	0.260
978.83	0.260
979.00	0.260
979.17	0.260
979.34	0.259
979.51	0.259
979.68	0.259
979.85	0.259
980.02	0.260
980.19	0.258
980.36	0.259
980.52	0.260
980.69	0.258
980.86	0.258
981.03	0.258
981.20	0.256
981.37	0.257
981.54	0.257
981.71	0.255
981.88	0.256
982.04	0.256
982.21	0.255
982.38	0.257
982.55	0.256
982.72	0.255
982.89	0.256
983.06	0.255
983.22	0.255
983.39	0.255
983.56	0.255
983.73	0.254
983.90	0.253
984.07	0.254
984.24	0.253
984.40	0.253
984.57	0.252
984.74	0.254
984.91	0.255
985.08	0.252
985.25	0.250
985.41	0.251
985.58	0.251
985.75	0.252
985.92	0.251
986.09	0.249
986.26	0.249
986.42	0.248
986.59	0.247
986.76	0.248
986.93	0.248
987.10	0.249
987.27	0.247
987.43	0.246
987.60	0.248
987.77	0.248
987.94	0.246
988.11	0.247
988.27	0.248
988.44	0.247
988.61	0.245
988.78	0.244
988.95	0.245
989.11	0.246
989.28	0.244
989.45	0.243
989.62	0.243
989.79	0.243
989.95	0.242
990.12	0.243
990.29	0.243
990.46	0.241
990.62	0.240
990.79	0.240
990.96	0.241
991.13	0.242
991.30	0.241
991.46	0.240
991.63	0.238
991.80	0.238
991.97	0.238
992.13	0.239
992.30	0.240
992.47	0.239
992.64	0.238
992.80	0.238
992.97	0.238
993.14	0.236
993.31	0.234
993.47	0.237
993.64	0.235
993.81	0.234
993.98	0.234
994.14	0.232
994.31	0.231
994.48	0.232
994.64	0.232
994.81	0.231
994.98	0.231
995.15	0.229
995.31	0.228
995.48	0.228
995.65	0.230
995.82	0.228
995.98	0.228
996.15	0.229
996.32	0.231
996.48	0.229
996.65	0.228
996.82	0.225
996.99	0.226
997.15	0.225
997.32	0.226
997.49	0.224
997.65	0.225
997.82	0.224
997.99	0.223
998.15	0.223
998.32	0.224
998.49	0.222
998.65	0.223
998.82	0.222
998.99	0.220
999.15	0.221
999.32	0.220
999.49	0.220
999.65	0.220
999.82	0.217
999.99	0.218
1000.15	0.218
1000.32	0.218
1000.49	0.218
1000.65	0.216
1000.82	0.216
1000.99	0.216
1001.15	0.216
1001.32	0.216
1001.49	0.215
1001.65	0.215
1001.82	0.217
1001.99	0.215
1002.15	0.214
1002.32	0.213
1002.49	0.214
1002.65	0.213
1002.82	0.212
1002.99	0.211
1003.15	0.213
1003.32	0.212
1003.48	0.212
1003.65	0.211
1003.82	0.210
1003.98	0.208
1004.15	0.207
1004.32	0.208
1004.48	0.208
1004.65	0.209
1004.81	0.207
1004.98	0.205
1005.15	0.207
1005.31	0.206
1005.48	0.205
1005.64	0.205
1005.81	0.207
1005.98	0.204
1006.14	0.203
1006.31	0.203
1006.47	0.202
1006.64	0.201
1006.81	0.200
1006.97	0.200
1007.14	0.200
1007.30	0.200
1007.47	0.200
1007.63	0.198
1007.80	0.197
1007.97	0.197
1008.13	0.197
1008.30	0.197
1008.46	0.196
1008.63	0.194
1008.79	0.195
1008.96	0.196
1009.13	0.197
1009.29	0.194
1009.46	0.194
1009.62	0.194
1009.79	0.192
1009.95	0.192
1010.12	0.193
1010.28	0.193
1010.45	0.193
1010.62	0.192
1010.78	0.190
1010.95	0.189
1011.11	0.190
1011.28	0.190
1011.44	0.192
1011.61	0.190
1011.77	0.189
1011.94	0.188
1012.10	0.188
1012.27	0.188
1012.43	0.188
1012.60	0.187
1012.76	0.187
1012.93	0.186
1013.10	0.185
1013.26	0.183
1013.43	0.183
1013.59	0.191
1013.76	0.183
1013.92	0.182
1014.09	0.181
1014.25	0.181
1014.42	0.183
1014.58	0.182
1014.75	0.184
1014.91	0.182
1015.08	0.183
1015.24	0.180
1015.41	0.181
1015.57	0.181
1015.73	0.179
1015.90	0.177
1016.06	0.179
1016.23	0.176
1016.39	0.176
1016.56	0.176
1016.72	0.175
1016.89	0.175
1017.05	0.178
1017.22	0.175
1017.38	0.175
1017.55	0.175
1017.71	0.177
1017.88	0.176
1018.04	0.177
1018.21	0.175
1018.37	0.175
1018.53	0.176
1018.70	0.174
1018.86	0.173
1019.03	0.174
1019.19	0.172
1019.36	0.172
1019.52	0.173
1019.69	0.174
1019.85	0.172
1020.01	0.172
1020.18	0.170
1020.34	0.170
1020.51	0.170
1020.67	0.172
1020.84	0.171
1021.00	0.170
1021.16	0.168
1021.33	0.168
1021.49	0.167
1021.66	0.168
1021.82	0.166
1021.98	0.167
1022.15	0.166
1022.31	0.165
1022.48	0.164
1022.64	0.165
1022.80	0.164
1022.97	0.162
1023.13	0.162
1023.30	0.163
1023.46	0.163
1023.62	0.161
1023.79	0.162
1023.95	0.162
1024.12	0.162
1024.28	0.161
1024.44	0.162
1024.61	0.161
1024.77	0.161
1024.93	0.161
1025.10	0.161
1025.26	0.158
1025.43	0.160
1025.59	0.156
1025.75	0.159
1025.92	0.158
1026.08	0.156
1026.24	0.155
1026.41	0.156
1026.57	0.154
1026.73	0.151
1026.90	0.153
1027.06	0.152
1027.23	0.153
1027.39	0.153
1027.55	0.154
1027.72	0.152
1027.88	0.152
1028.04	0.153
1028.21	0.153
1028.37	0.147
1028.53	0.153
1028.70	0.150
1028.86	0.148
1029.02	0.148
1029.19	0.149
1029.35	0.146
1029.51	0.146
1029.67	0.146
1029.84	0.147
1030.00	0.143
1030.16	0.143
1030.33	0.146
1030.49	0.144
1030.65	0.143
1030.82	0.157
1030.98	0.144
1031.14	0.144
1031.31	0.146
1031.47	0.143
1031.63	0.145
1031.79	0.144
1031.96	0.145
1032.12	0.146
1032.28	0.144
1032.45	0.148
1032.61	0.147
1032.77	0.147
1032.93	0.145
1033.10	0.145
1033.26	0.147
1033.42	0.145
1033.58	0.146
1033.75	0.148
1033.91	0.145
1034.07	0.147
1034.24	0.144
1034.40	0.143
1034.56	0.142
1034.72	0.142
1034.89	0.141
1035.05	0.140
1035.21	0.140
1035.37	0.138
1035.54	0.141
1035.70	0.140
1035.86	0.138
1036.02	0.140
1036.19	0.137
1036.35	0.135
1036.51	0.140
1036.67	0.138
1036.83	0.138
1037.00	0.137
1037.16	0.136
1037.32	0.136
1037.48	0.134
1037.65	0.139
1037.81	0.136
1037.97	0.136
1038.13	0.136
1038.29	0.134
1038.46	0.132
1038.62	0.137
1038.78	0.134
1038.94	0.131
1039.10	0.136
1039.27	0.132
1039.43	0.133
1039.59	0.132
1039.75	0.133
1039.91	0.132
1040.08	0.131
1040.24	0.132
1040.40	0.133
1040.56	0.132
1040.72	0.126
1040.89	0.128
1041.05	0.130
1041.21	0.128
1041.37	0.126
1041.53	0.131
1041.69	0.127
1041.86	0.126
1042.02	0.124
1042.18	0.124
1042.34	0.125
1042.50	0.129
1042.66	0.125
1042.83	0.125
1042.99	0.128
1043.15	0.125
1043.31	0.126
1043.47	0.131
1043.63	0.128
1043.79	0.128
1043.96	0.128
1044.12	0.133
1044.28	0.131
1044.44	0.134
1044.60	0.128
1044.76	0.125
1044.92	0.127
1045.09	0.127
1045.25	0.125
1045.41	0.126
1045.57	0.122
1045.73	0.123
1045.89	0.124
1046.05	0.125
1046.21	0.123
1046.38	0.123
1046.54	0.136
1046.70	0.134
1046.86	0.128
>>>>>End Processed Spectral Data<<<<<
