SpectraSuite Data File
++++++++++++++++++++++++++++++++++++
Date: Mon May 20 12:11:36 CDT 2013
User: Students
Dark Spectrum Present: Yes
Reference Spectrum Present: Yes
Number of Sampled Component Spectra: 1
Spectrometers: USB4H00887
Integration Time (usec): 60000 (USB4H00887)
Spectra Averaged: 5 (USB4H00887)
Boxcar Smoothing: 5 (USB4H00887)
Correct for Electrical Dark: No (USB4H00887)
Strobe/Lamp Enabled: No (USB4H00887)
Correct for Detector Non-linearity: No (USB4H00887)
Correct for Stray Light: No (USB4H00887)
Number of Pixels in Processed Spectrum: 3648
>>>>>Begin Processed Spectral Data<<<<<
345.83	-0.222
346.05	-0.222
346.26	-0.222
346.48	-0.000
346.70	0.820
346.92	0.108
347.14	0.060
347.35	0.053
347.57	0.171
347.79	-0.216
348.01	-0.169
348.23	-0.261
348.44	-0.000
348.66	0.215
348.88	-0.288
349.10	-0.098
349.32	-0.003
349.53	0.039
349.75	0.105
349.97	0.093
350.19	0.230
350.41	0.306
350.62	-0.500
350.84	0.090
351.06	0.109
351.28	0.165
351.50	1.010
351.71	0.592
351.93	0.356
352.15	0.061
352.37	0.250
352.58	0.055
352.80	0.049
353.02	0.085
353.24	0.139
353.46	1.840
353.67	-0.236
353.89	0.101
354.11	0.095
354.33	0.093
354.54	0.159
354.76	0.346
354.98	1.044
355.20	0.628
355.41	0.177
355.63	0.413
355.85	0.175
356.07	-0.000
356.28	0.143
356.50	0.232
356.72	0.095
356.94	0.234
357.15	0.306
357.37	-0.000
357.59	0.146
357.81	0.100
358.02	0.162
358.24	0.109
358.46	0.259
358.68	0.291
358.89	0.185
359.11	-0.000
359.33	0.231
359.55	-0.845
359.76	0.281
359.98	0.338
360.20	0.357
360.42	0.294
360.63	0.391
360.85	0.286
361.07	-0.000
361.29	0.214
361.50	1.033
361.72	0.231
361.94	-0.000
362.15	0.374
362.37	0.187
362.59	0.198
362.81	0.342
363.02	0.626
363.24	-0.000
363.46	0.526
363.68	0.685
363.89	0.326
364.11	0.433
364.33	0.591
364.54	0.324
364.76	0.428
364.98	0.422
365.20	0.472
365.41	0.237
365.63	0.291
365.85	0.176
366.06	0.852
366.28	0.859
366.50	0.547
366.71	0.185
366.93	0.234
367.15	0.207
367.37	0.174
367.58	0.240
367.80	0.296
368.02	14.196
368.23	0.233
368.45	0.223
368.67	0.186
368.88	0.168
369.10	-0.000
369.32	0.187
369.53	0.110
369.75	0.186
369.97	0.521
370.19	0.302
370.40	0.130
370.62	0.484
370.84	0.158
371.05	-0.000
371.27	0.244
371.49	0.280
371.70	0.303
371.92	0.510
372.14	0.197
372.35	0.196
372.57	0.220
372.79	0.792
373.00	0.140
373.22	0.235
373.44	0.213
373.65	0.162
373.87	0.253
374.09	-0.000
374.30	0.237
374.52	0.269
374.74	0.213
374.95	-0.000
375.17	0.262
375.39	-0.000
375.60	0.303
375.82	0.666
376.04	0.244
376.25	0.283
376.47	0.161
376.68	0.465
376.90	0.226
377.12	0.532
377.33	0.235
377.55	0.663
377.77	0.256
377.98	0.387
378.20	0.210
378.42	0.255
378.63	0.332
378.85	-0.000
379.07	0.207
379.28	-0.000
379.50	0.570
379.71	0.254
379.93	0.177
380.15	0.257
380.36	0.474
380.58	0.330
380.80	-0.000
381.01	0.263
381.23	0.205
381.44	0.212
381.66	0.248
381.88	0.307
382.09	-0.114
382.31	0.187
382.53	0.188
382.74	-0.000
382.96	0.261
383.17	0.225
383.39	0.307
383.61	0.453
383.82	0.307
384.04	0.327
384.25	0.435
384.47	0.406
384.69	0.396
384.90	0.369
385.12	1.211
385.33	0.491
385.55	0.347
385.77	0.607
385.98	0.268
386.20	0.385
386.41	0.329
386.63	0.405
386.85	0.323
387.06	0.420
387.28	0.751
387.49	0.414
387.71	0.291
387.93	0.241
388.14	1.103
388.36	0.304
388.57	0.271
388.79	0.321
389.01	-0.000
389.22	0.409
389.44	0.342
389.65	0.277
389.87	0.267
390.08	0.316
390.30	0.248
390.52	0.563
390.73	0.589
390.95	0.369
391.16	0.345
391.38	-0.000
391.59	0.409
391.81	0.345
392.03	0.319
392.24	0.372
392.46	0.312
392.67	0.276
392.89	0.377
393.10	0.604
393.32	0.386
393.53	0.462
393.75	0.273
393.97	0.319
394.18	0.442
394.40	0.390
394.61	0.431
394.83	0.362
395.04	0.447
395.26	0.283
395.47	0.480
395.69	0.369
395.91	0.417
396.12	0.521
396.34	0.498
396.55	0.286
396.77	0.425
396.98	-0.000
397.20	0.526
397.41	0.570
397.63	0.376
397.84	0.326
398.06	0.312
398.27	0.303
398.49	0.365
398.71	0.253
398.92	0.342
399.14	0.487
399.35	0.646
399.57	0.599
399.78	0.382
400.00	0.373
400.21	0.489
400.43	0.387
400.64	0.407
400.86	1.382
401.07	0.536
401.29	0.435
401.50	0.455
401.72	0.724
401.93	0.420
402.15	0.556
402.36	0.490
402.58	0.384
402.79	0.422
403.01	0.852
403.22	0.595
403.44	0.362
403.65	0.616
403.87	0.673
404.08	0.494
404.30	0.927
404.51	0.403
404.73	0.497
404.94	0.439
405.16	0.456
405.37	0.351
405.59	0.709
405.80	0.402
406.02	0.531
406.23	0.559
406.45	0.629
406.66	0.674
406.88	0.407
407.09	0.701
407.31	0.494
407.52	0.633
407.74	0.487
407.95	0.594
408.17	0.554
408.38	0.573
408.60	0.350
408.81	0.628
409.03	0.448
409.24	0.453
409.45	0.544
409.67	0.517
409.88	0.455
410.10	0.596
410.31	0.471
410.53	0.447
410.74	0.683
410.96	0.654
411.17	0.711
411.39	0.520
411.60	0.477
411.82	0.549
412.03	0.532
412.24	0.513
412.46	0.837
412.67	0.659
412.89	0.630
413.10	0.614
413.32	0.552
413.53	0.646
413.75	0.677
413.96	0.473
414.17	0.677
414.39	0.684
414.60	0.528
414.82	0.736
415.03	0.526
415.25	0.605
415.46	0.404
415.68	0.600
415.89	2.013
416.10	1.036
416.32	0.473
416.53	0.586
416.75	0.537
416.96	0.704
417.18	0.585
417.39	0.560
417.60	0.564
417.82	0.907
418.03	0.714
418.25	0.564
418.46	0.587
418.67	0.530
418.89	0.563
419.10	0.596
419.32	0.839
419.53	0.717
419.75	0.584
419.96	0.505
420.17	0.634
420.39	0.600
420.60	0.640
420.82	0.840
421.03	0.637
421.24	0.524
421.46	0.591
421.67	0.659
421.89	0.557
422.10	0.614
422.31	0.603
422.53	1.003
422.74	0.664
422.96	0.505
423.17	0.559
423.38	0.709
423.60	0.574
423.81	0.738
424.03	0.600
424.24	0.680
424.45	0.663
424.67	0.654
424.88	0.565
425.09	0.613
425.31	0.556
425.52	0.599
425.74	0.678
425.95	0.739
426.16	0.558
426.38	0.666
426.59	0.606
426.80	0.720
427.02	0.758
427.23	0.570
427.45	0.778
427.66	0.760
427.87	0.564
428.09	0.604
428.30	0.693
428.51	0.678
428.73	0.748
428.94	0.641
429.15	0.622
429.37	0.588
429.58	0.627
429.79	0.573
430.01	0.702
430.22	0.700
430.44	0.721
430.65	0.637
430.86	0.693
431.08	0.690
431.29	0.633
431.50	0.754
431.72	1.128
431.93	0.847
432.14	0.598
432.36	0.660
432.57	0.669
432.78	0.701
433.00	0.630
433.21	0.621
433.42	0.798
433.64	0.676
433.85	0.802
434.06	0.623
434.28	0.653
434.49	0.684
434.70	0.710
434.92	0.733
435.13	0.794
435.34	0.800
435.56	0.739
435.77	0.732
435.98	0.991
436.20	0.786
436.41	0.661
436.62	0.648
436.83	0.743
437.05	0.861
437.26	0.726
437.47	0.637
437.69	0.705
437.90	0.638
438.11	0.619
438.33	0.684
438.54	0.705
438.75	0.944
438.97	0.906
439.18	0.655
439.39	0.678
439.60	0.741
439.82	0.694
440.03	0.639
440.24	1.002
440.46	0.714
440.67	0.681
440.88	0.728
441.10	0.677
441.31	0.675
441.52	0.727
441.73	0.836
441.95	0.723
442.16	0.657
442.37	1.110
442.58	0.643
442.80	0.626
443.01	0.838
443.22	0.763
443.44	0.636
443.65	0.766
443.86	0.770
444.07	0.838
444.29	0.714
444.50	0.951
444.71	0.690
444.92	0.637
445.14	0.830
445.35	0.889
445.56	0.676
445.78	0.811
445.99	0.805
446.20	0.680
446.41	0.768
446.63	0.775
446.84	0.718
447.05	0.716
447.26	0.890
447.48	0.746
447.69	0.700
447.90	0.811
448.11	0.711
448.33	0.748
448.54	0.775
448.75	0.811
448.96	0.819
449.18	0.875
449.39	0.771
449.60	0.743
449.81	0.920
450.03	0.780
450.24	0.853
450.45	0.797
450.66	0.779
450.87	0.817
451.09	0.763
451.30	0.736
451.51	0.830
451.72	0.841
451.94	0.869
452.15	0.952
452.36	0.774
452.57	0.799
452.78	0.797
453.00	0.832
453.21	0.779
453.42	0.747
453.63	0.874
453.85	0.833
454.06	0.830
454.27	1.013
454.48	0.871
454.69	0.772
454.91	0.861
455.12	0.745
455.33	0.849
455.54	0.865
455.75	0.825
455.97	0.852
456.18	0.842
456.39	0.845
456.60	0.871
456.81	0.800
457.03	0.817
457.24	0.815
457.45	0.918
457.66	0.844
457.87	0.793
458.09	0.818
458.30	0.716
458.51	0.851
458.72	0.878
458.93	0.894
459.15	0.781
459.36	0.857
459.57	0.885
459.78	0.950
459.99	0.837
460.20	0.789
460.42	0.880
460.63	0.823
460.84	0.807
461.05	0.826
461.26	0.890
461.47	0.786
461.69	0.847
461.90	0.893
462.11	0.834
462.32	0.905
462.53	0.834
462.74	0.951
462.96	0.813
463.17	0.800
463.38	0.852
463.59	0.995
463.80	0.808
464.01	0.833
464.23	0.933
464.44	0.888
464.65	0.895
464.86	0.918
465.07	0.929
465.28	0.880
465.49	0.911
465.71	0.859
465.92	0.902
466.13	0.961
466.34	0.882
466.55	0.942
466.76	0.891
466.97	0.917
467.19	0.900
467.40	0.935
467.61	0.943
467.82	0.845
468.03	0.822
468.24	0.899
468.45	0.936
468.66	0.911
468.88	0.922
469.09	0.928
469.30	0.978
469.51	0.893
469.72	0.943
469.93	0.906
470.14	0.885
470.35	0.992
470.57	0.929
470.78	0.864
470.99	1.013
471.20	0.934
471.41	0.887
471.62	0.950
471.83	0.928
472.04	0.962
472.25	1.018
472.47	0.918
472.68	0.924
472.89	0.932
473.10	0.984
473.31	0.925
473.52	1.001
473.73	1.029
473.94	0.929
474.15	0.950
474.36	0.952
474.57	0.978
474.79	0.944
475.00	0.941
475.21	0.925
475.42	1.026
475.63	0.918
475.84	0.952
476.05	0.955
476.26	0.920
476.47	0.954
476.68	1.006
476.89	0.927
477.10	0.984
477.32	0.968
477.53	1.032
477.74	0.942
477.95	0.986
478.16	0.930
478.37	0.982
478.58	0.991
478.79	1.011
479.00	1.015
479.21	0.965
479.42	1.014
479.63	1.022
479.84	0.976
480.05	0.976
480.26	1.010
480.47	1.028
480.69	1.032
480.90	0.991
481.11	0.986
481.32	1.049
481.53	0.981
481.74	1.040
481.95	0.998
482.16	1.018
482.37	1.026
482.58	0.985
482.79	1.011
483.00	1.041
483.21	0.976
483.42	0.945
483.63	1.033
483.84	1.061
484.05	1.047
484.26	1.016
484.47	1.012
484.68	0.970
484.89	0.976
485.10	1.027
485.31	1.003
485.52	1.010
485.73	1.016
485.94	1.063
486.15	1.007
486.37	1.027
486.58	0.986
486.79	1.000
487.00	1.062
487.21	1.052
487.42	1.045
487.63	1.048
487.84	1.071
488.05	1.066
488.26	1.018
488.47	1.025
488.68	1.055
488.89	1.028
489.10	1.020
489.31	1.024
489.52	1.062
489.73	1.027
489.94	1.069
490.15	1.017
490.36	1.062
490.57	1.010
490.78	0.990
490.99	1.031
491.20	1.118
491.41	1.069
491.62	1.013
491.83	1.048
492.04	1.043
492.25	1.051
492.45	1.052
492.66	1.079
492.87	1.066
493.08	1.054
493.29	1.037
493.50	1.027
493.71	1.035
493.92	1.029
494.13	1.048
494.34	1.068
494.55	1.076
494.76	1.113
494.97	1.099
495.18	1.057
495.39	1.073
495.60	1.020
495.81	1.022
496.02	1.044
496.23	1.034
496.44	1.066
496.65	1.058
496.86	1.068
497.07	1.094
497.28	1.092
497.49	1.038
497.70	1.039
497.91	1.065
498.12	1.044
498.32	1.092
498.53	1.076
498.74	1.066
498.95	1.095
499.16	1.040
499.37	1.044
499.58	1.056
499.79	1.088
500.00	1.084
500.21	1.117
500.42	1.053
500.63	1.054
500.84	1.074
501.05	1.051
501.26	1.082
501.46	1.131
501.67	1.085
501.88	1.087
502.09	1.056
502.30	1.066
502.51	1.119
502.72	1.068
502.93	1.090
503.14	1.119
503.35	1.083
503.56	1.077
503.77	1.111
503.97	1.087
504.18	1.084
504.39	1.127
504.60	1.089
504.81	1.124
505.02	1.109
505.23	1.111
505.44	1.084
505.65	1.094
505.86	1.072
506.07	1.147
506.27	1.098
506.48	1.105
506.69	1.086
506.90	1.110
507.11	1.103
507.32	1.076
507.53	1.085
507.74	1.076
507.95	1.089
508.15	1.095
508.36	1.103
508.57	1.116
508.78	1.097
508.99	1.094
509.20	1.066
509.41	1.094
509.62	1.082
509.82	1.078
510.03	1.090
510.24	1.089
510.45	1.116
510.66	1.105
510.87	1.097
511.08	1.051
511.29	1.099
511.49	1.073
511.70	1.124
511.91	1.048
512.12	1.045
512.33	1.082
512.54	1.100
512.75	1.080
512.95	1.111
513.16	1.103
513.37	1.078
513.58	1.120
513.79	1.080
514.00	1.087
514.20	1.110
514.41	1.099
514.62	1.061
514.83	1.109
515.04	1.097
515.25	1.072
515.46	1.086
515.66	1.088
515.87	1.102
516.08	1.064
516.29	1.095
516.50	1.071
516.71	1.064
516.91	1.076
517.12	1.095
517.33	1.078
517.54	1.063
517.75	1.068
517.95	1.082
518.16	1.096
518.37	1.060
518.58	1.063
518.79	1.034
519.00	1.068
519.20	1.077
519.41	1.048
519.62	1.071
519.83	1.084
520.04	1.043
520.24	1.040
520.45	1.048
520.66	1.074
520.87	1.032
521.08	1.028
521.28	1.035
521.49	1.053
521.70	1.019
521.91	1.034
522.12	1.012
522.32	1.038
522.53	1.019
522.74	1.010
522.95	1.022
523.16	1.026
523.36	1.040
523.57	1.016
523.78	1.012
523.99	1.019
524.20	1.009
524.40	1.024
524.61	1.030
524.82	1.002
525.03	1.007
525.23	1.007
525.44	0.988
525.65	0.986
525.86	1.014
526.06	0.981
526.27	0.982
526.48	0.996
526.69	0.975
526.90	0.979
527.10	1.019
527.31	0.969
527.52	0.962
527.73	0.955
527.93	0.967
528.14	0.972
528.35	0.963
528.56	0.964
528.76	0.955
528.97	0.946
529.18	0.937
529.39	0.939
529.59	0.942
529.80	0.980
530.01	0.950
530.22	0.949
530.42	0.915
530.63	0.936
530.84	0.911
531.05	0.927
531.25	0.930
531.46	0.921
531.67	0.894
531.88	0.917
532.08	0.908
532.29	0.902
532.50	0.893
532.70	0.886
532.91	0.874
533.12	0.877
533.33	0.905
533.53	0.872
533.74	0.872
533.95	0.880
534.15	0.867
534.36	0.868
534.57	0.851
534.78	0.854
534.98	0.866
535.19	0.833
535.40	0.836
535.60	0.858
535.81	0.835
536.02	0.839
536.23	0.830
536.43	0.832
536.64	0.817
536.85	0.827
537.05	0.837
537.26	0.812
537.47	0.818
537.67	0.806
537.88	0.799
538.09	0.808
538.30	0.796
538.50	0.786
538.71	0.800
538.92	0.786
539.12	0.781
539.33	0.777
539.54	0.777
539.74	0.782
539.95	0.770
540.16	0.769
540.36	0.760
540.57	0.760
540.78	0.752
540.98	0.751
541.19	0.750
541.40	0.735
541.60	0.748
541.81	0.742
542.02	0.743
542.22	0.732
542.43	0.726
542.64	0.721
542.84	0.722
543.05	0.713
543.26	0.714
543.46	0.718
543.67	0.719
543.88	0.713
544.08	0.701
544.29	0.696
544.50	0.697
544.70	0.699
544.91	0.689
545.12	0.691
545.32	0.687
545.53	0.692
545.74	0.678
545.94	0.673
546.15	0.671
546.35	0.669
546.56	0.666
546.77	0.662
546.97	0.660
547.18	0.652
547.39	0.653
547.59	0.651
547.80	0.647
548.01	0.652
548.21	0.648
548.42	0.639
548.62	0.639
548.83	0.635
549.04	0.631
549.24	0.623
549.45	0.622
549.65	0.618
549.86	0.613
550.07	0.613
550.27	0.611
550.48	0.621
550.69	0.604
550.89	0.605
551.10	0.601
551.30	0.600
551.51	0.600
551.72	0.587
551.92	0.590
552.13	0.589
552.33	0.591
552.54	0.585
552.75	0.578
552.95	0.581
553.16	0.575
553.36	0.574
553.57	0.571
553.78	0.570
553.98	0.571
554.19	0.561
554.39	0.558
554.60	0.561
554.80	0.562
555.01	0.553
555.22	0.554
555.42	0.552
555.63	0.545
555.83	0.549
556.04	0.542
556.25	0.545
556.45	0.536
556.66	0.535
556.86	0.539
557.07	0.536
557.27	0.535
557.48	0.529
557.68	0.527
557.89	0.528
558.10	0.525
558.30	0.521
558.51	0.519
558.71	0.517
558.92	0.511
559.12	0.513
559.33	0.518
559.54	0.512
559.74	0.508
559.95	0.505
560.15	0.505
560.36	0.503
560.56	0.497
560.77	0.497
560.97	0.497
561.18	0.492
561.38	0.492
561.59	0.495
561.79	0.490
562.00	0.488
562.21	0.485
562.41	0.484
562.62	0.483
562.82	0.481
563.03	0.477
563.23	0.477
563.44	0.477
563.64	0.473
563.85	0.476
564.05	0.467
564.26	0.467
564.46	0.466
564.67	0.467
564.87	0.462
565.08	0.459
565.28	0.459
565.49	0.460
565.69	0.457
565.90	0.454
566.10	0.456
566.31	0.449
566.51	0.451
566.72	0.452
566.92	0.445
567.13	0.445
567.33	0.444
567.54	0.443
567.74	0.442
567.95	0.437
568.15	0.439
568.36	0.438
568.56	0.437
568.77	0.432
568.97	0.430
569.18	0.431
569.38	0.429
569.59	0.431
569.79	0.428
570.00	0.425
570.20	0.424
570.41	0.423
570.61	0.421
570.82	0.423
571.02	0.418
571.23	0.421
571.43	0.415
571.64	0.414
571.84	0.413
572.05	0.411
572.25	0.411
572.45	0.408
572.66	0.405
572.86	0.403
573.07	0.402
573.27	0.403
573.48	0.401
573.68	0.397
573.89	0.397
574.09	0.399
574.30	0.397
574.50	0.395
574.70	0.396
574.91	0.393
575.11	0.394
575.32	0.394
575.52	0.388
575.73	0.389
575.93	0.389
576.14	0.387
576.34	0.385
576.54	0.384
576.75	0.382
576.95	0.381
577.16	0.379
577.36	0.378
577.57	0.378
577.77	0.377
577.97	0.374
578.18	0.377
578.38	0.373
578.59	0.372
578.79	0.370
579.00	0.372
579.20	0.370
579.40	0.369
579.61	0.368
579.81	0.367
580.02	0.365
580.22	0.364
580.42	0.363
580.63	0.363
580.83	0.362
581.04	0.359
581.24	0.358
581.45	0.357
581.65	0.357
581.85	0.356
582.06	0.354
582.26	0.353
582.47	0.351
582.67	0.351
582.87	0.351
583.08	0.348
583.28	0.348
583.48	0.347
583.69	0.343
583.89	0.344
584.10	0.346
584.30	0.343
584.50	0.341
584.71	0.341
584.91	0.341
585.12	0.338
585.32	0.340
585.52	0.337
585.73	0.335
585.93	0.335
586.13	0.335
586.34	0.333
586.54	0.332
586.75	0.331
586.95	0.330
587.15	0.329
587.36	0.328
587.56	0.327
587.76	0.326
587.97	0.326
588.17	0.324
588.37	0.324
588.58	0.325
588.78	0.321
588.98	0.323
589.19	0.321
589.39	0.319
589.60	0.322
589.80	0.319
590.00	0.318
590.21	0.318
590.41	0.316
590.61	0.316
590.82	0.315
591.02	0.315
591.22	0.313
591.43	0.314
591.63	0.312
591.83	0.311
592.04	0.310
592.24	0.311
592.44	0.308
592.65	0.307
592.85	0.307
593.05	0.308
593.26	0.305
593.46	0.305
593.66	0.304
593.86	0.303
594.07	0.301
594.27	0.301
594.47	0.300
594.68	0.299
594.88	0.301
595.08	0.299
595.29	0.300
595.49	0.298
595.69	0.297
595.90	0.296
596.10	0.297
596.30	0.297
596.50	0.296
596.71	0.295
596.91	0.294
597.11	0.294
597.32	0.294
597.52	0.293
597.72	0.293
597.93	0.292
598.13	0.290
598.33	0.291
598.53	0.289
598.74	0.289
598.94	0.288
599.14	0.287
599.35	0.287
599.55	0.287
599.75	0.286
599.95	0.284
600.16	0.285
600.36	0.283
600.56	0.283
600.76	0.282
600.97	0.281
601.17	0.280
601.37	0.281
601.58	0.279
601.78	0.280
601.98	0.279
602.18	0.277
602.39	0.278
602.59	0.278
602.79	0.276
602.99	0.277
603.20	0.275
603.40	0.275
603.60	0.275
603.80	0.275
604.01	0.274
604.21	0.273
604.41	0.273
604.61	0.272
604.82	0.272
605.02	0.272
605.22	0.271
605.42	0.271
605.62	0.271
605.83	0.269
606.03	0.269
606.23	0.269
606.43	0.268
606.64	0.269
606.84	0.267
607.04	0.267
607.24	0.267
607.45	0.267
607.65	0.265
607.85	0.266
608.05	0.264
608.25	0.264
608.46	0.264
608.66	0.264
608.86	0.263
609.06	0.262
609.26	0.261
609.47	0.262
609.67	0.260
609.87	0.262
610.07	0.261
610.28	0.259
610.48	0.259
610.68	0.259
610.88	0.258
611.08	0.260
611.29	0.258
611.49	0.257
611.69	0.259
611.89	0.256
612.09	0.256
612.29	0.255
612.50	0.255
612.70	0.255
612.90	0.254
613.10	0.253
613.30	0.252
613.51	0.253
613.71	0.251
613.91	0.257
614.11	0.250
614.31	0.250
614.51	0.250
614.72	0.249
614.92	0.249
615.12	0.249
615.32	0.250
615.52	0.249
615.72	0.250
615.93	0.250
616.13	0.249
616.33	0.250
616.53	0.249
616.73	0.250
616.93	0.248
617.14	0.248
617.34	0.248
617.54	0.248
617.74	0.248
617.94	0.246
618.14	0.245
618.34	0.245
618.55	0.244
618.75	0.245
618.95	0.245
619.15	0.245
619.35	0.244
619.55	0.243
619.75	0.244
619.96	0.243
620.16	0.244
620.36	0.244
620.56	0.243
620.76	0.243
620.96	0.243
621.16	0.242
621.36	0.243
621.57	0.243
621.77	0.243
621.97	0.241
622.17	0.240
622.37	0.240
622.57	0.240
622.77	0.239
622.97	0.238
623.18	0.238
623.38	0.239
623.58	0.238
623.78	0.237
623.98	0.237
624.18	0.236
624.38	0.236
624.58	0.236
624.78	0.237
624.98	0.237
625.19	0.236
625.39	0.236
625.59	0.235
625.79	0.235
625.99	0.234
626.19	0.234
626.39	0.234
626.59	0.235
626.79	0.234
626.99	0.234
627.19	0.234
627.40	0.234
627.60	0.234
627.80	0.233
628.00	0.233
628.20	0.233
628.40	0.233
628.60	0.232
628.80	0.231
629.00	0.231
629.20	0.231
629.40	0.231
629.60	0.229
629.80	0.230
630.00	0.230
630.20	0.230
630.41	0.229
630.61	0.229
630.81	0.229
631.01	0.229
631.21	0.228
631.41	0.228
631.61	0.229
631.81	0.228
632.01	0.228
632.21	0.228
632.41	0.226
632.61	0.226
632.81	0.226
633.01	0.227
633.21	0.227
633.41	0.228
633.61	0.226
633.81	0.225
634.01	0.225
634.21	0.225
634.41	0.224
634.61	0.225
634.81	0.224
635.01	0.224
635.22	0.224
635.42	0.223
635.62	0.223
635.82	0.224
636.02	0.223
636.22	0.223
636.42	0.222
636.62	0.223
636.82	0.223
637.02	0.222
637.22	0.223
637.42	0.222
637.62	0.221
637.82	0.221
638.02	0.220
638.22	0.220
638.42	0.220
638.62	0.219
638.82	0.219
639.02	0.219
639.22	0.219
639.42	0.218
639.62	0.218
639.82	0.218
640.02	0.218
640.22	0.218
640.42	0.217
640.62	0.217
640.82	0.217
641.02	0.217
641.22	0.217
641.42	0.216
641.61	0.217
641.81	0.217
642.01	0.216
642.21	0.217
642.41	0.217
642.61	0.217
642.81	0.216
643.01	0.216
643.21	0.215
643.41	0.216
643.61	0.215
643.81	0.214
644.01	0.213
644.21	0.213
644.41	0.213
644.61	0.213
644.81	0.213
645.01	0.213
645.21	0.212
645.41	0.212
645.61	0.212
645.81	0.211
646.01	0.210
646.21	0.211
646.40	0.211
646.60	0.211
646.80	0.212
647.00	0.211
647.20	0.210
647.40	0.210
647.60	0.210
647.80	0.210
648.00	0.210
648.20	0.210
648.40	0.209
648.60	0.209
648.80	0.209
649.00	0.208
649.20	0.209
649.39	0.208
649.59	0.207
649.79	0.207
649.99	0.207
650.19	0.206
650.39	0.206
650.59	0.206
650.79	0.206
650.99	0.205
651.19	0.205
651.39	0.205
651.58	0.205
651.78	0.204
651.98	0.204
652.18	0.204
652.38	0.204
652.58	0.204
652.78	0.204
652.98	0.204
653.18	0.205
653.38	0.204
653.57	0.204
653.77	0.204
653.97	0.204
654.17	0.203
654.37	0.203
654.57	0.203
654.77	0.203
654.97	0.203
655.16	0.202
655.36	0.202
655.56	0.201
655.76	0.201
655.96	0.202
656.16	0.200
656.36	0.201
656.56	0.200
656.75	0.200
656.95	0.200
657.15	0.200
657.35	0.199
657.55	0.199
657.75	0.199
657.95	0.199
658.14	0.199
658.34	0.199
658.54	0.199
658.74	0.198
658.94	0.198
659.14	0.198
659.34	0.198
659.53	0.197
659.73	0.196
659.93	0.196
660.13	0.196
660.33	0.196
660.53	0.196
660.72	0.197
660.92	0.196
661.12	0.195
661.32	0.195
661.52	0.195
661.72	0.195
661.91	0.194
662.11	0.194
662.31	0.194
662.51	0.194
662.71	0.193
662.90	0.192
663.10	0.192
663.30	0.192
663.50	0.192
663.70	0.192
663.90	0.192
664.09	0.192
664.29	0.191
664.49	0.191
664.69	0.191
664.89	0.191
665.08	0.191
665.28	0.190
665.48	0.190
665.68	0.189
665.88	0.189
666.07	0.189
666.27	0.189
666.47	0.189
666.67	0.189
666.87	0.189
667.06	0.188
667.26	0.188
667.46	0.188
667.66	0.188
667.85	0.188
668.05	0.189
668.25	0.188
668.45	0.188
668.65	0.188
668.84	0.188
669.04	0.188
669.24	0.187
669.44	0.186
669.63	0.186
669.83	0.186
670.03	0.185
670.23	0.184
670.42	0.184
670.62	0.184
670.82	0.184
671.02	0.184
671.22	0.183
671.41	0.182
671.61	0.183
671.81	0.183
672.01	0.183
672.20	0.183
672.40	0.183
672.60	0.183
672.80	0.183
672.99	0.183
673.19	0.182
673.39	0.183
673.58	0.183
673.78	0.182
673.98	0.182
674.18	0.182
674.37	0.181
674.57	0.181
674.77	0.181
674.97	0.181
675.16	0.181
675.36	0.180
675.56	0.179
675.75	0.179
675.95	0.179
676.15	0.179
676.35	0.179
676.54	0.179
676.74	0.178
676.94	0.179
677.13	0.178
677.33	0.178
677.53	0.178
677.73	0.178
677.92	0.177
678.12	0.178
678.32	0.177
678.51	0.177
678.71	0.177
678.91	0.176
679.11	0.176
679.30	0.176
679.50	0.176
679.70	0.175
679.89	0.175
680.09	0.175
680.29	0.174
680.48	0.174
680.68	0.173
680.88	0.174
681.07	0.174
681.27	0.173
681.47	0.173
681.66	0.173
681.86	0.173
682.06	0.173
682.25	0.173
682.45	0.173
682.65	0.173
682.84	0.172
683.04	0.172
683.24	0.171
683.43	0.172
683.63	0.172
683.83	0.172
684.02	0.172
684.22	0.172
684.42	0.171
684.61	0.172
684.81	0.172
685.01	0.171
685.20	0.171
685.40	0.171
685.60	0.171
685.79	0.170
685.99	0.171
686.19	0.170
686.38	0.170
686.58	0.170
686.77	0.170
686.97	0.169
687.17	0.169
687.36	0.169
687.56	0.169
687.76	0.168
687.95	0.168
688.15	0.168
688.34	0.168
688.54	0.168
688.74	0.167
688.93	0.167
689.13	0.167
689.33	0.167
689.52	0.166
689.72	0.167
689.91	0.166
690.11	0.166
690.31	0.166
690.50	0.166
690.70	0.166
690.89	0.166
691.09	0.165
691.29	0.165
691.48	0.165
691.68	0.165
691.87	0.165
692.07	0.165
692.27	0.164
692.46	0.164
692.66	0.164
692.85	0.164
693.05	0.164
693.25	0.164
693.44	0.163
693.64	0.163
693.83	0.163
694.03	0.163
694.22	0.162
694.42	0.162
694.62	0.162
694.81	0.162
695.01	0.162
695.20	0.162
695.40	0.161
695.59	0.162
695.79	0.161
695.99	0.162
696.18	0.162
696.38	0.162
696.57	0.162
696.77	0.161
696.96	0.162
697.16	0.162
697.36	0.161
697.55	0.161
697.75	0.161
697.94	0.161
698.14	0.161
698.33	0.160
698.53	0.160
698.72	0.160
698.92	0.160
699.11	0.160
699.31	0.160
699.51	0.160
699.70	0.160
699.90	0.159
700.09	0.160
700.29	0.159
700.48	0.159
700.68	0.159
700.87	0.159
701.07	0.158
701.26	0.158
701.46	0.157
701.65	0.157
701.85	0.157
702.04	0.157
702.24	0.156
702.43	0.156
702.63	0.156
702.82	0.157
703.02	0.156
703.21	0.157
703.41	0.157
703.60	0.157
703.80	0.156
703.99	0.156
704.19	0.157
704.38	0.157
704.58	0.156
704.77	0.156
704.97	0.155
705.16	0.156
705.36	0.156
705.55	0.156
705.75	0.156
705.94	0.156
706.14	0.156
706.33	0.156
706.53	0.156
706.72	0.156
706.92	0.155
707.11	0.155
707.31	0.155
707.50	0.155
707.70	0.155
707.89	0.155
708.09	0.155
708.28	0.155
708.48	0.155
708.67	0.154
708.86	0.155
709.06	0.154
709.25	0.154
709.45	0.154
709.64	0.154
709.84	0.153
710.03	0.153
710.23	0.152
710.42	0.152
710.62	0.152
710.81	0.152
711.00	0.152
711.20	0.152
711.39	0.152
711.59	0.152
711.78	0.152
711.98	0.152
712.17	0.152
712.37	0.152
712.56	0.152
712.75	0.152
712.95	0.152
713.14	0.152
713.34	0.152
713.53	0.153
713.73	0.153
713.92	0.153
714.11	0.153
714.31	0.153
714.50	0.153
714.70	0.153
714.89	0.152
715.08	0.153
715.28	0.153
715.47	0.152
715.67	0.152
715.86	0.152
716.06	0.152
716.25	0.152
716.44	0.152
716.64	0.152
716.83	0.151
717.03	0.151
717.22	0.151
717.41	0.151
717.61	0.151
717.80	0.151
717.99	0.151
718.19	0.151
718.38	0.151
718.58	0.150
718.77	0.150
718.96	0.150
719.16	0.150
719.35	0.150
719.55	0.149
719.74	0.149
719.93	0.148
720.13	0.148
720.32	0.148
720.51	0.148
720.71	0.149
720.90	0.149
721.10	0.148
721.29	0.148
721.48	0.148
721.68	0.148
721.87	0.148
722.06	0.149
722.26	0.150
722.45	0.149
722.64	0.149
722.84	0.149
723.03	0.149
723.22	0.150
723.42	0.150
723.61	0.150
723.80	0.150
724.00	0.150
724.19	0.150
724.38	0.150
724.58	0.149
724.77	0.149
724.96	0.149
725.16	0.149
725.35	0.149
725.54	0.149
725.74	0.149
725.93	0.149
726.12	0.149
726.32	0.149
726.51	0.149
726.70	0.149
726.90	0.150
727.09	0.149
727.28	0.149
727.48	0.149
727.67	0.148
727.86	0.148
728.06	0.149
728.25	0.149
728.44	0.149
728.64	0.149
728.83	0.149
729.02	0.148
729.21	0.149
729.41	0.149
729.60	0.149
729.79	0.149
729.99	0.149
730.18	0.149
730.37	0.149
730.56	0.149
730.76	0.148
730.95	0.148
731.14	0.148
731.34	0.148
731.53	0.149
731.72	0.148
731.91	0.149
732.11	0.149
732.30	0.149
732.49	0.149
732.69	0.149
732.88	0.150
733.07	0.149
733.26	0.150
733.46	0.149
733.65	0.149
733.84	0.149
734.03	0.149
734.23	0.149
734.42	0.149
734.61	0.149
734.80	0.148
735.00	0.149
735.19	0.148
735.38	0.148
735.57	0.148
735.77	0.149
735.96	0.148
736.15	0.148
736.34	0.148
736.54	0.149
736.73	0.148
736.92	0.149
737.11	0.148
737.31	0.148
737.50	0.149
737.69	0.149
737.88	0.149
738.07	0.149
738.27	0.149
738.46	0.149
738.65	0.149
738.84	0.149
739.04	0.149
739.23	0.149
739.42	0.149
739.61	0.149
739.80	0.148
740.00	0.148
740.19	0.148
740.38	0.148
740.57	0.149
740.76	0.148
740.96	0.148
741.15	0.148
741.34	0.148
741.53	0.148
741.72	0.148
741.92	0.147
742.11	0.148
742.30	0.148
742.49	0.148
742.68	0.148
742.88	0.148
743.07	0.148
743.26	0.148
743.45	0.148
743.64	0.148
743.84	0.147
744.03	0.147
744.22	0.148
744.41	0.147
744.60	0.147
744.79	0.147
744.99	0.147
745.18	0.147
745.37	0.146
745.56	0.146
745.75	0.146
745.94	0.146
746.14	0.146
746.33	0.146
746.52	0.146
746.71	0.146
746.90	0.146
747.09	0.146
747.28	0.145
747.48	0.146
747.67	0.145
747.86	0.146
748.05	0.146
748.24	0.146
748.43	0.146
748.62	0.146
748.82	0.146
749.01	0.146
749.20	0.146
749.39	0.146
749.58	0.145
749.77	0.145
749.96	0.145
750.16	0.145
750.35	0.145
750.54	0.144
750.73	0.145
750.92	0.145
751.11	0.145
751.30	0.145
751.49	0.145
751.68	0.144
751.88	0.144
752.07	0.144
752.26	0.144
752.45	0.144
752.64	0.144
752.83	0.144
753.02	0.144
753.21	0.144
753.40	0.143
753.60	0.144
753.79	0.143
753.98	0.143
754.17	0.143
754.36	0.143
754.55	0.143
754.74	0.143
754.93	0.143
755.12	0.143
755.31	0.144
755.50	0.143
755.70	0.143
755.89	0.143
756.08	0.143
756.27	0.143
756.46	0.143
756.65	0.143
756.84	0.142
757.03	0.143
757.22	0.142
757.41	0.142
757.60	0.142
757.79	0.142
757.98	0.142
758.17	0.142
758.36	0.142
758.56	0.142
758.75	0.142
758.94	0.142
759.13	0.142
759.32	0.141
759.51	0.141
759.70	0.141
759.89	0.141
760.08	0.141
760.27	0.141
760.46	0.142
760.65	0.142
760.84	0.142
761.03	0.142
761.22	0.142
761.41	0.143
761.60	0.143
761.79	0.142
761.98	0.142
762.17	0.141
762.36	0.141
762.55	0.141
762.74	0.142
762.93	0.141
763.12	0.141
763.31	0.141
763.50	0.141
763.69	0.141
763.88	0.141
764.07	0.141
764.26	0.141
764.45	0.141
764.64	0.141
764.83	0.141
765.02	0.141
765.21	0.141
765.40	0.141
765.59	0.141
765.78	0.141
765.97	0.141
766.16	0.140
766.35	0.140
766.54	0.140
766.73	0.140
766.92	0.140
767.11	0.139
767.30	0.140
767.49	0.139
767.68	0.140
767.87	0.139
768.06	0.139
768.25	0.140
768.44	0.140
768.63	0.139
768.82	0.140
769.01	0.140
769.20	0.140
769.39	0.140
769.58	0.141
769.77	0.141
769.96	0.140
770.15	0.141
770.34	0.141
770.53	0.140
770.72	0.140
770.91	0.140
771.10	0.140
771.29	0.139
771.47	0.139
771.66	0.139
771.85	0.139
772.04	0.139
772.23	0.139
772.42	0.138
772.61	0.138
772.80	0.139
772.99	0.139
773.18	0.138
773.37	0.139
773.56	0.139
773.75	0.139
773.94	0.139
774.13	0.138
774.31	0.139
774.50	0.138
774.69	0.139
774.88	0.138
775.07	0.139
775.26	0.139
775.45	0.138
775.64	0.138
775.83	0.138
776.02	0.138
776.21	0.138
776.40	0.139
776.58	0.138
776.77	0.138
776.96	0.139
777.15	0.139
777.34	0.138
777.53	0.139
777.72	0.138
777.91	0.139
778.10	0.138
778.28	0.138
778.47	0.138
778.66	0.138
778.85	0.137
779.04	0.137
779.23	0.137
779.42	0.137
779.61	0.137
779.79	0.137
779.98	0.136
780.17	0.136
780.36	0.136
780.55	0.135
780.74	0.135
780.93	0.135
781.12	0.136
781.30	0.135
781.49	0.136
781.68	0.136
781.87	0.136
782.06	0.136
782.25	0.136
782.44	0.137
782.62	0.137
782.81	0.137
783.00	0.137
783.19	0.137
783.38	0.137
783.57	0.137
783.75	0.136
783.94	0.136
784.13	0.136
784.32	0.136
784.51	0.136
784.70	0.136
784.88	0.136
785.07	0.135
785.26	0.136
785.45	0.136
785.64	0.135
785.83	0.136
786.01	0.135
786.20	0.136
786.39	0.136
786.58	0.136
786.77	0.136
786.95	0.136
787.14	0.136
787.33	0.136
787.52	0.135
787.71	0.136
787.90	0.135
788.08	0.135
788.27	0.135
788.46	0.134
788.65	0.135
788.84	0.135
789.02	0.135
789.21	0.135
789.40	0.135
789.59	0.135
789.77	0.136
789.96	0.135
790.15	0.135
790.34	0.136
790.53	0.136
790.71	0.135
790.90	0.135
791.09	0.135
791.28	0.135
791.46	0.135
791.65	0.135
791.84	0.135
792.03	0.134
792.22	0.135
792.40	0.134
792.59	0.134
792.78	0.134
792.97	0.134
793.15	0.134
793.34	0.134
793.53	0.134
793.72	0.134
793.90	0.134
794.09	0.134
794.28	0.134
794.47	0.135
794.65	0.135
794.84	0.135
795.03	0.134
795.22	0.134
795.40	0.134
795.59	0.134
795.78	0.134
795.97	0.135
796.15	0.135
796.34	0.135
796.53	0.134
796.71	0.134
796.90	0.134
797.09	0.134
797.28	0.134
797.46	0.134
797.65	0.133
797.84	0.133
798.02	0.133
798.21	0.133
798.40	0.133
798.59	0.133
798.77	0.133
798.96	0.132
799.15	0.132
799.33	0.133
799.52	0.132
799.71	0.132
799.90	0.133
800.08	0.133
800.27	0.133
800.46	0.132
800.64	0.132
800.83	0.132
801.02	0.132
801.20	0.133
801.39	0.132
801.58	0.132
801.76	0.132
801.95	0.133
802.14	0.133
802.32	0.133
802.51	0.133
802.70	0.132
802.88	0.132
803.07	0.133
803.26	0.132
803.44	0.131
803.63	0.132
803.82	0.131
804.00	0.131
804.19	0.132
804.38	0.132
804.56	0.132
804.75	0.132
804.94	0.132
805.12	0.132
805.31	0.133
805.50	0.133
805.68	0.133
805.87	0.133
806.06	0.132
806.24	0.132
806.43	0.132
806.62	0.132
806.80	0.132
806.99	0.132
807.17	0.132
807.36	0.132
807.55	0.132
807.73	0.132
807.92	0.133
808.11	0.133
808.29	0.132
808.48	0.132
808.66	0.132
808.85	0.131
809.04	0.131
809.22	0.131
809.41	0.132
809.59	0.131
809.78	0.131
809.97	0.131
810.15	0.131
810.34	0.131
810.53	0.131
810.71	0.131
810.90	0.131
811.08	0.131
811.27	0.131
811.45	0.131
811.64	0.131
811.83	0.131
812.01	0.132
812.20	0.132
812.38	0.132
812.57	0.132
812.76	0.132
812.94	0.132
813.13	0.132
813.31	0.132
813.50	0.132
813.68	0.132
813.87	0.132
814.06	0.132
814.24	0.132
814.43	0.131
814.61	0.131
814.80	0.131
814.98	0.132
815.17	0.131
815.36	0.131
815.54	0.131
815.73	0.131
815.91	0.131
816.10	0.131
816.28	0.131
816.47	0.131
816.65	0.131
816.84	0.131
817.03	0.132
817.21	0.132
817.40	0.132
817.58	0.132
817.77	0.132
817.95	0.132
818.14	0.132
818.32	0.132
818.51	0.132
818.69	0.132
818.88	0.132
819.06	0.132
819.25	0.132
819.43	0.132
819.62	0.132
819.80	0.131
819.99	0.132
820.18	0.132
820.36	0.131
820.55	0.131
820.73	0.131
820.92	0.131
821.10	0.131
821.29	0.131
821.47	0.131
821.66	0.131
821.84	0.132
822.03	0.132
822.21	0.132
822.40	0.132
822.58	0.132
822.77	0.132
822.95	0.132
823.14	0.132
823.32	0.132
823.50	0.133
823.69	0.133
823.87	0.133
824.06	0.133
824.24	0.134
824.43	0.133
824.61	0.133
824.80	0.133
824.98	0.133
825.17	0.134
825.35	0.133
825.54	0.133
825.72	0.133
825.91	0.133
826.09	0.133
826.28	0.132
826.46	0.134
826.64	0.133
826.83	0.134
827.01	0.134
827.20	0.133
827.38	0.133
827.57	0.134
827.75	0.134
827.94	0.134
828.12	0.135
828.31	0.135
828.49	0.134
828.67	0.135
828.86	0.135
829.04	0.134
829.23	0.135
829.41	0.135
829.60	0.135
829.78	0.135
829.96	0.136
830.15	0.136
830.33	0.136
830.52	0.136
830.70	0.136
830.88	0.136
831.07	0.136
831.25	0.136
831.44	0.136
831.62	0.136
831.81	0.137
831.99	0.136
832.17	0.136
832.36	0.137
832.54	0.137
832.73	0.137
832.91	0.137
833.09	0.137
833.28	0.137
833.46	0.137
833.65	0.137
833.83	0.137
834.01	0.137
834.20	0.137
834.38	0.137
834.56	0.137
834.75	0.137
834.93	0.138
835.12	0.137
835.30	0.138
835.48	0.138
835.67	0.138
835.85	0.138
836.03	0.138
836.22	0.138
836.40	0.138
836.59	0.138
836.77	0.138
836.95	0.139
837.14	0.139
837.32	0.138
837.50	0.138
837.69	0.138
837.87	0.138
838.05	0.138
838.24	0.138
838.42	0.138
838.60	0.138
838.79	0.140
838.97	0.139
839.15	0.139
839.34	0.139
839.52	0.139
839.70	0.139
839.89	0.139
840.07	0.139
840.25	0.139
840.44	0.139
840.62	0.139
840.80	0.139
840.99	0.139
841.17	0.139
841.35	0.139
841.54	0.139
841.72	0.139
841.90	0.139
842.09	0.139
842.27	0.139
842.45	0.140
842.64	0.140
842.82	0.139
843.00	0.139
843.19	0.139
843.37	0.139
843.55	0.140
843.73	0.139
843.92	0.139
844.10	0.139
844.28	0.139
844.47	0.139
844.65	0.139
844.83	0.140
845.01	0.140
845.20	0.140
845.38	0.140
845.56	0.140
845.75	0.140
845.93	0.140
846.11	0.140
846.29	0.140
846.48	0.140
846.66	0.141
846.84	0.140
847.02	0.140
847.21	0.139
847.39	0.139
847.57	0.139
847.76	0.140
847.94	0.140
848.12	0.140
848.30	0.140
848.49	0.140
848.67	0.140
848.85	0.140
849.03	0.141
849.22	0.141
849.40	0.141
849.58	0.142
849.76	0.142
849.95	0.141
850.13	0.142
850.31	0.142
850.49	0.142
850.67	0.142
850.86	0.142
851.04	0.141
851.22	0.141
851.40	0.141
851.59	0.140
851.77	0.141
851.95	0.141
852.13	0.141
852.31	0.140
852.50	0.141
852.68	0.141
852.86	0.141
853.04	0.141
853.23	0.141
853.41	0.140
853.59	0.141
853.77	0.140
853.95	0.141
854.14	0.141
854.32	0.141
854.50	0.141
854.68	0.141
854.86	0.141
855.04	0.141
855.23	0.141
855.41	0.141
855.59	0.141
855.77	0.142
855.95	0.142
856.14	0.142
856.32	0.141
856.50	0.141
856.68	0.141
856.86	0.141
857.04	0.141
857.23	0.141
857.41	0.141
857.59	0.141
857.77	0.141
857.95	0.140
858.13	0.140
858.32	0.140
858.50	0.141
858.68	0.140
858.86	0.141
859.04	0.141
859.22	0.141
859.41	0.141
859.59	0.141
859.77	0.141
859.95	0.141
860.13	0.141
860.31	0.141
860.49	0.141
860.68	0.141
860.86	0.141
861.04	0.141
861.22	0.141
861.40	0.140
861.58	0.141
861.76	0.140
861.94	0.141
862.13	0.141
862.31	0.141
862.49	0.141
862.67	0.142
862.85	0.142
863.03	0.142
863.21	0.143
863.39	0.143
863.57	0.142
863.76	0.143
863.94	0.143
864.12	0.143
864.30	0.143
864.48	0.142
864.66	0.143
864.84	0.143
865.02	0.143
865.20	0.142
865.38	0.142
865.57	0.142
865.75	0.142
865.93	0.143
866.11	0.142
866.29	0.142
866.47	0.143
866.65	0.143
866.83	0.143
867.01	0.142
867.19	0.142
867.37	0.142
867.55	0.143
867.73	0.143
867.92	0.143
868.10	0.143
868.28	0.143
868.46	0.143
868.64	0.143
868.82	0.143
869.00	0.143
869.18	0.144
869.36	0.143
869.54	0.143
869.72	0.143
869.90	0.143
870.08	0.143
870.26	0.143
870.44	0.144
870.62	0.144
870.80	0.144
870.98	0.144
871.16	0.144
871.34	0.144
871.53	0.144
871.71	0.143
871.89	0.143
872.07	0.143
872.25	0.143
872.43	0.143
872.61	0.143
872.79	0.143
872.97	0.144
873.15	0.144
873.33	0.144
873.51	0.144
873.69	0.145
873.87	0.144
874.05	0.145
874.23	0.145
874.41	0.145
874.59	0.145
874.77	0.144
874.95	0.144
875.13	0.144
875.31	0.144
875.49	0.144
875.67	0.144
875.85	0.144
876.03	0.144
876.21	0.145
876.39	0.144
876.57	0.145
876.75	0.145
876.93	0.145
877.11	0.145
877.29	0.144
877.47	0.144
877.65	0.145
877.82	0.145
878.00	0.145
878.18	0.145
878.36	0.145
878.54	0.145
878.72	0.145
878.90	0.145
879.08	0.145
879.26	0.145
879.44	0.146
879.62	0.146
879.80	0.145
879.98	0.145
880.16	0.145
880.34	0.145
880.52	0.145
880.70	0.145
880.88	0.144
881.06	0.145
881.24	0.144
881.42	0.144
881.59	0.144
881.77	0.143
881.95	0.144
882.13	0.144
882.31	0.144
882.49	0.144
882.67	0.145
882.85	0.144
883.03	0.144
883.21	0.145
883.39	0.145
883.57	0.146
883.75	0.146
883.92	0.145
884.10	0.146
884.28	0.146
884.46	0.146
884.64	0.146
884.82	0.146
885.00	0.146
885.18	0.146
885.36	0.146
885.54	0.146
885.71	0.146
885.89	0.147
886.07	0.147
886.25	0.147
886.43	0.147
886.61	0.146
886.79	0.146
886.97	0.147
887.15	0.147
887.32	0.147
887.50	0.147
887.68	0.146
887.86	0.146
888.04	0.147
888.22	0.146
888.40	0.146
888.57	0.146
888.75	0.146
888.93	0.147
889.11	0.146
889.29	0.147
889.47	0.147
889.65	0.147
889.82	0.147
890.00	0.148
890.18	0.147
890.36	0.147
890.54	0.148
890.72	0.148
890.90	0.148
891.07	0.148
891.25	0.148
891.43	0.147
891.61	0.148
891.79	0.148
891.97	0.148
892.14	0.148
892.32	0.148
892.50	0.147
892.68	0.148
892.86	0.148
893.03	0.148
893.21	0.148
893.39	0.148
893.57	0.149
893.75	0.148
893.93	0.148
894.10	0.148
894.28	0.148
894.46	0.148
894.64	0.148
894.82	0.148
894.99	0.148
895.17	0.148
895.35	0.148
895.53	0.148
895.71	0.148
895.88	0.148
896.06	0.148
896.24	0.149
896.42	0.149
896.59	0.149
896.77	0.149
896.95	0.149
897.13	0.149
897.31	0.149
897.48	0.149
897.66	0.149
897.84	0.149
898.02	0.149
898.19	0.149
898.37	0.149
898.55	0.149
898.73	0.149
898.91	0.149
899.08	0.149
899.26	0.149
899.44	0.149
899.62	0.149
899.79	0.149
899.97	0.150
900.15	0.150
900.33	0.149
900.50	0.149
900.68	0.149
900.86	0.149
901.04	0.150
901.21	0.149
901.39	0.149
901.57	0.149
901.74	0.149
901.92	0.149
902.10	0.150
902.28	0.150
902.45	0.150
902.63	0.150
902.81	0.150
902.99	0.150
903.16	0.150
903.34	0.150
903.52	0.150
903.69	0.150
903.87	0.150
904.05	0.151
904.22	0.151
904.40	0.151
904.58	0.151
904.76	0.151
904.93	0.151
905.11	0.151
905.29	0.151
905.46	0.151
905.64	0.151
905.82	0.151
905.99	0.151
906.17	0.151
906.35	0.152
906.53	0.152
906.70	0.152
906.88	0.152
907.06	0.151
907.23	0.151
907.41	0.152
907.59	0.152
907.76	0.152
907.94	0.152
908.12	0.152
908.29	0.152
908.47	0.152
908.65	0.152
908.82	0.152
909.00	0.153
909.18	0.153
909.35	0.153
909.53	0.153
909.71	0.153
909.88	0.153
910.06	0.153
910.23	0.153
910.41	0.154
910.59	0.153
910.76	0.152
910.94	0.153
911.12	0.153
911.29	0.153
911.47	0.153
911.65	0.153
911.82	0.153
912.00	0.154
912.17	0.154
912.35	0.154
912.53	0.155
912.70	0.154
912.88	0.154
913.06	0.155
913.23	0.155
913.41	0.155
913.58	0.155
913.76	0.155
913.94	0.154
914.11	0.155
914.29	0.155
914.46	0.155
914.64	0.155
914.82	0.155
914.99	0.155
915.17	0.155
915.34	0.155
915.52	0.156
915.70	0.156
915.87	0.156
916.05	0.156
916.22	0.155
916.40	0.156
916.57	0.156
916.75	0.157
916.93	0.157
917.10	0.156
917.28	0.157
917.45	0.156
917.63	0.156
917.80	0.156
917.98	0.157
918.16	0.157
918.33	0.158
918.51	0.157
918.68	0.157
918.86	0.158
919.03	0.158
919.21	0.158
919.39	0.159
919.56	0.160
919.74	0.160
919.91	0.160
920.09	0.160
920.26	0.160
920.44	0.160
920.61	0.160
920.79	0.160
920.96	0.160
921.14	0.160
921.31	0.160
921.49	0.160
921.67	0.160
921.84	0.160
922.02	0.160
922.19	0.161
922.37	0.161
922.54	0.161
922.72	0.162
922.89	0.162
923.07	0.162
923.24	0.163
923.42	0.163
923.59	0.163
923.77	0.164
923.94	0.164
924.12	0.164
924.29	0.165
924.47	0.165
924.64	0.165
924.82	0.165
924.99	0.166
925.17	0.166
925.34	0.167
925.52	0.167
925.69	0.167
925.87	0.167
926.04	0.167
926.22	0.168
926.39	0.167
926.57	0.168
926.74	0.168
926.91	0.168
927.09	0.169
927.26	0.168
927.44	0.169
927.61	0.169
927.79	0.169
927.96	0.170
928.14	0.170
928.31	0.171
928.49	0.170
928.66	0.171
928.84	0.172
929.01	0.172
929.18	0.173
929.36	0.173
929.53	0.174
929.71	0.174
929.88	0.174
930.06	0.174
930.23	0.175
930.41	0.175
930.58	0.176
930.75	0.176
930.93	0.176
931.10	0.176
931.28	0.177
931.45	0.177
931.63	0.177
931.80	0.177
931.97	0.178
932.15	0.179
932.32	0.179
932.50	0.179
932.67	0.180
932.84	0.181
933.02	0.182
933.19	0.181
933.37	0.183
933.54	0.183
933.71	0.183
933.89	0.185
934.06	0.184
934.24	0.185
934.41	0.185
934.58	0.185
934.76	0.186
934.93	0.186
935.11	0.186
935.28	0.186
935.45	0.187
935.63	0.187
935.80	0.187
935.98	0.188
936.15	0.188
936.32	0.189
936.50	0.189
936.67	0.190
936.84	0.190
937.02	0.191
937.19	0.192
937.36	0.193
937.54	0.193
937.71	0.194
937.89	0.194
938.06	0.194
938.23	0.195
938.41	0.196
938.58	0.197
938.75	0.197
938.93	0.197
939.10	0.197
939.27	0.198
939.45	0.199
939.62	0.198
939.79	0.199
939.97	0.200
940.14	0.201
940.31	0.201
940.49	0.202
940.66	0.202
940.83	0.203
941.01	0.203
941.18	0.204
941.35	0.205
941.53	0.205
941.70	0.206
941.87	0.206
942.05	0.207
942.22	0.208
942.39	0.209
942.57	0.209
942.74	0.210
942.91	0.210
943.08	0.211
943.26	0.212
943.43	0.212
943.60	0.213
943.78	0.214
943.95	0.214
944.12	0.214
944.29	0.215
944.47	0.216
944.64	0.216
944.81	0.218
944.99	0.218
945.16	0.218
945.33	0.219
945.50	0.220
945.68	0.221
945.85	0.221
946.02	0.223
946.20	0.223
946.37	0.225
946.54	0.226
946.71	0.227
946.89	0.226
947.06	0.227
947.23	0.228
947.40	0.229
947.58	0.229
947.75	0.231
947.92	0.232
948.09	0.232
948.27	0.233
948.44	0.234
948.61	0.236
948.78	0.236
948.96	0.238
949.13	0.239
949.30	0.239
949.47	0.240
949.65	0.241
949.82	0.243
949.99	0.243
950.16	0.245
950.33	0.246
950.51	0.247
950.68	0.249
950.85	0.250
951.02	0.251
951.20	0.252
951.37	0.253
951.54	0.253
951.71	0.255
951.88	0.256
952.06	0.257
952.23	0.258
952.40	0.259
952.57	0.260
952.74	0.261
952.92	0.262
953.09	0.264
953.26	0.265
953.43	0.266
953.60	0.267
953.77	0.267
953.95	0.268
954.12	0.270
954.29	0.271
954.46	0.274
954.63	0.275
954.81	0.276
954.98	0.276
955.15	0.278
955.32	0.279
955.49	0.279
955.66	0.281
955.84	0.282
956.01	0.282
956.18	0.285
956.35	0.286
956.52	0.286
956.69	0.288
956.87	0.288
957.04	0.289
957.21	0.292
957.38	0.292
957.55	0.293
957.72	0.294
957.89	0.295
958.07	0.294
958.24	0.297
958.41	0.298
958.58	0.297
958.75	0.298
958.92	0.299
959.09	0.299
959.26	0.300
959.44	0.300
959.61	0.301
959.78	0.302
959.95	0.304
960.12	0.304
960.29	0.306
960.46	0.305
960.63	0.305
960.81	0.305
960.98	0.306
961.15	0.307
961.32	0.308
961.49	0.307
961.66	0.309
961.83	0.309
962.00	0.309
962.17	0.310
962.34	0.310
962.52	0.311
962.69	0.312
962.86	0.312
963.03	0.312
963.20	0.313
963.37	0.312
963.54	0.313
963.71	0.313
963.88	0.312
964.05	0.314
964.22	0.315
964.39	0.314
964.56	0.313
964.74	0.315
964.91	0.314
965.08	0.315
965.25	0.315
965.42	0.315
965.59	0.317
965.76	0.316
965.93	0.318
966.10	0.315
966.27	0.317
966.44	0.316
966.61	0.318
966.78	0.317
966.95	0.316
967.12	0.317
967.29	0.319
967.46	0.318
967.63	0.317
967.80	0.318
967.97	0.317
968.14	0.317
968.32	0.318
968.49	0.318
968.66	0.317
968.83	0.318
969.00	0.317
969.17	0.317
969.34	0.318
969.51	0.320
969.68	0.318
969.85	0.319
970.02	0.318
970.19	0.317
970.36	0.318
970.53	0.318
970.70	0.316
970.87	0.317
971.04	0.316
971.21	0.317
971.38	0.317
971.55	0.317
971.72	0.317
971.89	0.318
972.06	0.318
972.23	0.317
972.40	0.317
972.57	0.316
972.74	0.315
972.91	0.317
973.07	0.317
973.24	0.317
973.41	0.317
973.58	0.315
973.75	0.331
973.92	0.316
974.09	0.316
974.26	0.315
974.43	0.315
974.60	0.316
974.77	0.317
974.94	0.315
975.11	0.316
975.28	0.317
975.45	0.315
975.62	0.316
975.79	0.319
975.96	0.317
976.13	0.316
976.30	0.318
976.47	0.315
976.64	0.316
976.80	0.316
976.97	0.316
977.14	0.315
977.31	0.315
977.48	0.315
977.65	0.314
977.82	0.313
977.99	0.315
978.16	0.315
978.33	0.315
978.50	0.314
978.67	0.314
978.83	0.314
979.00	0.314
979.17	0.314
979.34	0.313
979.51	0.313
979.68	0.314
979.85	0.313
980.02	0.313
980.19	0.310
980.36	0.312
980.52	0.314
980.69	0.312
980.86	0.312
981.03	0.311
981.20	0.310
981.37	0.311
981.54	0.311
981.71	0.309
981.88	0.310
982.04	0.310
982.21	0.309
982.38	0.311
982.55	0.310
982.72	0.309
982.89	0.310
983.06	0.308
983.22	0.308
983.39	0.309
983.56	0.309
983.73	0.308
983.90	0.307
984.07	0.310
984.24	0.308
984.40	0.308
984.57	0.306
984.74	0.309
984.91	0.311
985.08	0.308
985.25	0.305
985.41	0.306
985.58	0.306
985.75	0.308
985.92	0.306
986.09	0.304
986.26	0.305
986.42	0.304
986.59	0.301
986.76	0.303
986.93	0.303
987.10	0.303
987.27	0.300
987.43	0.298
987.60	0.301
987.77	0.301
987.94	0.299
988.11	0.300
988.27	0.300
988.44	0.299
988.61	0.297
988.78	0.296
988.95	0.297
989.11	0.299
989.28	0.297
989.45	0.296
989.62	0.296
989.79	0.297
989.95	0.296
990.12	0.297
990.29	0.298
990.46	0.295
990.62	0.294
990.79	0.293
990.96	0.294
991.13	0.294
991.30	0.291
991.46	0.291
991.63	0.288
991.80	0.287
991.97	0.287
992.13	0.288
992.30	0.290
992.47	0.288
992.64	0.288
992.80	0.288
992.97	0.289
993.14	0.287
993.31	0.284
993.47	0.289
993.64	0.286
993.81	0.286
993.98	0.287
994.14	0.285
994.31	0.284
994.48	0.286
994.64	0.286
994.81	0.284
994.98	0.284
995.15	0.281
995.31	0.281
995.48	0.281
995.65	0.284
995.82	0.280
995.98	0.279
996.15	0.281
996.32	0.283
996.48	0.281
996.65	0.281
996.82	0.278
996.99	0.280
997.15	0.279
997.32	0.280
997.49	0.278
997.65	0.279
997.82	0.278
997.99	0.276
998.15	0.276
998.32	0.278
998.49	0.276
998.65	0.276
998.82	0.276
998.99	0.273
999.15	0.273
999.32	0.272
999.49	0.272
999.65	0.272
999.82	0.269
999.99	0.270
1000.15	0.270
1000.32	0.270
1000.49	0.270
1000.65	0.267
1000.82	0.267
1000.99	0.267
1001.15	0.267
1001.32	0.266
1001.49	0.267
1001.65	0.266
1001.82	0.269
1001.99	0.265
1002.15	0.265
1002.32	0.265
1002.49	0.267
1002.65	0.266
1002.82	0.264
1002.99	0.263
1003.15	0.266
1003.32	0.265
1003.48	0.265
1003.65	0.264
1003.82	0.263
1003.98	0.260
1004.15	0.260
1004.32	0.260
1004.48	0.260
1004.65	0.262
1004.81	0.259
1004.98	0.257
1005.15	0.258
1005.31	0.257
1005.48	0.255
1005.64	0.256
1005.81	0.259
1005.98	0.255
1006.14	0.255
1006.31	0.255
1006.47	0.253
1006.64	0.252
1006.81	0.251
1006.97	0.252
1007.14	0.252
1007.30	0.253
1007.47	0.254
1007.63	0.250
1007.80	0.248
1007.97	0.248
1008.13	0.249
1008.30	0.249
1008.46	0.249
1008.63	0.249
1008.79	0.250
1008.96	0.250
1009.13	0.251
1009.29	0.247
1009.46	0.247
1009.62	0.246
1009.79	0.244
1009.95	0.244
1010.12	0.245
1010.28	0.245
1010.45	0.243
1010.62	0.243
1010.78	0.240
1010.95	0.239
1011.11	0.240
1011.28	0.239
1011.44	0.242
1011.61	0.240
1011.77	0.239
1011.94	0.239
1012.10	0.238
1012.27	0.239
1012.43	0.238
1012.60	0.237
1012.76	0.238
1012.93	0.238
1013.10	0.237
1013.26	0.233
1013.43	0.236
1013.59	0.246
1013.76	0.237
1013.92	0.235
1014.09	0.232
1014.25	0.233
1014.42	0.234
1014.58	0.234
1014.75	0.237
1014.91	0.234
1015.08	0.237
1015.24	0.232
1015.41	0.234
1015.57	0.234
1015.73	0.232
1015.90	0.230
1016.06	0.234
1016.23	0.232
1016.39	0.232
1016.56	0.234
1016.72	0.232
1016.89	0.232
1017.05	0.235
1017.22	0.230
1017.38	0.231
1017.55	0.229
1017.71	0.231
1017.88	0.230
1018.04	0.230
1018.21	0.226
1018.37	0.225
1018.53	0.226
1018.70	0.224
1018.86	0.224
1019.03	0.227
1019.19	0.224
1019.36	0.224
1019.52	0.226
1019.69	0.227
1019.85	0.226
1020.01	0.225
1020.18	0.224
1020.34	0.224
1020.51	0.223
1020.67	0.224
1020.84	0.222
1021.00	0.223
1021.16	0.220
1021.33	0.221
1021.49	0.220
1021.66	0.221
1021.82	0.219
1021.98	0.220
1022.15	0.220
1022.31	0.220
1022.48	0.218
1022.64	0.220
1022.80	0.218
1022.97	0.217
1023.13	0.216
1023.30	0.217
1023.46	0.218
1023.62	0.214
1023.79	0.216
1023.95	0.217
1024.12	0.215
1024.28	0.214
1024.44	0.214
1024.61	0.213
1024.77	0.212
1024.93	0.211
1025.10	0.213
1025.26	0.210
1025.43	0.212
1025.59	0.206
1025.75	0.212
1025.92	0.211
1026.08	0.210
1026.24	0.210
1026.41	0.212
1026.57	0.210
1026.73	0.207
1026.90	0.209
1027.06	0.206
1027.23	0.208
1027.39	0.208
1027.55	0.208
1027.72	0.206
1027.88	0.205
1028.04	0.205
1028.21	0.206
1028.37	0.199
1028.53	0.206
1028.70	0.203
1028.86	0.201
1029.02	0.202
1029.19	0.203
1029.35	0.201
1029.51	0.202
1029.67	0.202
1029.84	0.204
1030.00	0.197
1030.16	0.198
1030.33	0.201
1030.49	0.198
1030.65	0.195
1030.82	0.217
1030.98	0.198
1031.14	0.198
1031.31	0.198
1031.47	0.194
1031.63	0.199
1031.79	0.197
1031.96	0.199
1032.12	0.200
1032.28	0.197
1032.45	0.203
1032.61	0.201
1032.77	0.200
1032.93	0.197
1033.10	0.197
1033.26	0.202
1033.42	0.199
1033.58	0.200
1033.75	0.202
1033.91	0.200
1034.07	0.203
1034.24	0.201
1034.40	0.198
1034.56	0.197
1034.72	0.198
1034.89	0.199
1035.05	0.196
1035.21	0.195
1035.37	0.193
1035.54	0.196
1035.70	0.193
1035.86	0.191
1036.02	0.194
1036.19	0.192
1036.35	0.189
1036.51	0.195
1036.67	0.191
1036.83	0.190
1037.00	0.189
1037.16	0.189
1037.32	0.191
1037.48	0.189
1037.65	0.196
1037.81	0.189
1037.97	0.189
1038.13	0.189
1038.29	0.187
1038.46	0.184
1038.62	0.190
1038.78	0.187
1038.94	0.183
1039.10	0.189
1039.27	0.183
1039.43	0.186
1039.59	0.186
1039.75	0.187
1039.91	0.184
1040.08	0.184
1040.24	0.188
1040.40	0.190
1040.56	0.189
1040.72	0.181
1040.89	0.186
1041.05	0.190
1041.21	0.187
1041.37	0.183
1041.53	0.192
1041.69	0.190
1041.86	0.188
1042.02	0.185
1042.18	0.184
1042.34	0.185
1042.50	0.191
1042.66	0.187
1042.83	0.184
1042.99	0.189
1043.15	0.183
1043.31	0.183
1043.47	0.190
1043.63	0.186
1043.79	0.186
1043.96	0.188
1044.12	0.195
1044.28	0.190
1044.44	0.192
1044.60	0.184
1044.76	0.182
1044.92	0.186
1045.09	0.190
1045.25	0.185
1045.41	0.185
1045.57	0.178
1045.73	0.179
1045.89	0.179
1046.05	0.182
1046.21	0.187
1046.38	0.183
1046.54	0.188
1046.70	0.174
1046.86	0.188
>>>>>End Processed Spectral Data<<<<<
