SpectraSuite Data File
++++++++++++++++++++++++++++++++++++
Date: Mon May 20 12:12:47 CDT 2013
User: Students
Dark Spectrum Present: Yes
Reference Spectrum Present: Yes
Number of Sampled Component Spectra: 1
Spectrometers: USB4H00887
Integration Time (usec): 60000 (USB4H00887)
Spectra Averaged: 5 (USB4H00887)
Boxcar Smoothing: 5 (USB4H00887)
Correct for Electrical Dark: No (USB4H00887)
Strobe/Lamp Enabled: No (USB4H00887)
Correct for Detector Non-linearity: No (USB4H00887)
Correct for Stray Light: No (USB4H00887)
Number of Pixels in Processed Spectrum: 3648
>>>>>Begin Processed Spectral Data<<<<<
345.83	0.185
346.05	0.185
346.26	0.185
346.48	-0.595
346.70	-0.000
346.92	0.025
347.14	0.032
347.35	0.054
347.57	0.384
347.79	-0.343
348.01	-0.268
348.23	-0.362
348.44	-0.000
348.66	0.272
348.88	-0.407
349.10	-0.186
349.32	0.103
349.53	-0.037
349.75	-0.025
349.97	-0.021
350.19	0.036
350.41	0.060
350.62	0.055
350.84	0.006
351.06	0.005
351.28	-0.011
351.50	-0.135
351.71	-0.054
351.93	-0.103
352.15	-0.029
352.37	-0.140
352.58	-0.045
352.80	-0.020
353.02	0.005
353.24	0.005
353.46	-0.031
353.67	0.050
353.89	0.014
354.11	0.003
354.33	0.035
354.54	0.067
354.76	0.163
354.98	0.320
355.20	0.220
355.41	0.097
355.63	0.208
355.85	0.130
356.07	-0.000
356.28	0.107
356.50	0.235
356.72	0.078
356.94	0.221
357.15	0.244
357.37	-0.000
357.59	0.139
357.81	0.075
358.02	0.111
358.24	0.073
358.46	0.168
358.68	0.133
358.89	0.058
359.11	-0.000
359.33	0.060
359.55	-0.519
359.76	0.103
359.98	0.082
360.20	0.091
360.42	0.074
360.63	0.070
360.85	0.045
361.07	0.227
361.29	0.063
361.50	0.199
361.72	0.079
361.94	0.330
362.15	0.128
362.37	0.092
362.59	0.099
362.81	0.154
363.02	0.270
363.24	0.387
363.46	0.211
363.68	0.282
363.89	0.156
364.11	0.207
364.33	0.246
364.54	0.153
364.76	0.202
364.98	0.178
365.20	0.212
365.41	0.115
365.63	0.164
365.85	0.128
366.06	0.277
366.28	0.319
366.50	0.171
366.71	0.070
366.93	0.101
367.15	0.084
367.37	0.097
367.58	0.109
367.80	0.147
368.02	0.319
368.23	0.090
368.45	0.119
368.67	0.105
368.88	0.117
369.10	-0.000
369.32	0.104
369.53	0.053
369.75	0.091
369.97	0.242
370.19	0.138
370.40	0.060
370.62	0.178
370.84	0.066
371.05	0.313
371.27	0.125
371.49	0.146
371.70	0.167
371.92	0.291
372.14	0.103
372.35	0.123
372.57	0.139
372.79	0.422
373.00	0.085
373.22	0.135
373.44	0.126
373.65	0.084
373.87	0.111
374.09	0.357
374.30	0.102
374.52	0.128
374.74	0.078
374.95	0.291
375.17	0.079
375.39	-0.000
375.60	0.135
375.82	0.249
376.04	0.104
376.25	0.119
376.47	0.088
376.68	0.196
376.90	0.120
377.12	0.242
377.33	0.125
377.55	0.329
377.77	0.144
377.98	0.194
378.20	0.112
378.42	0.139
378.63	0.193
378.85	-0.000
379.07	0.114
379.28	0.358
379.50	0.238
379.71	0.138
379.93	0.090
380.15	0.123
380.36	0.201
380.58	0.153
380.80	0.417
381.01	0.109
381.23	0.109
381.44	0.134
381.66	0.165
381.88	0.212
382.09	-0.093
382.31	0.154
382.53	0.171
382.74	1.745
382.96	0.235
383.17	0.190
383.39	0.265
383.61	0.349
383.82	0.225
384.04	0.260
384.25	0.313
384.47	0.280
384.69	0.259
384.90	0.229
385.12	0.474
385.33	0.318
385.55	0.239
385.77	0.371
385.98	0.190
386.20	0.269
386.41	0.234
386.63	0.276
386.85	0.232
387.06	0.294
387.28	0.473
387.49	0.292
387.71	0.194
387.93	0.173
388.14	0.538
388.36	0.207
388.57	0.195
388.79	0.207
389.01	1.195
389.22	0.257
389.44	0.220
389.65	0.180
389.87	0.186
390.08	0.220
390.30	0.165
390.52	0.328
390.73	0.353
390.95	0.233
391.16	0.235
391.38	-0.000
391.59	0.279
391.81	0.237
392.03	0.212
392.24	0.242
392.46	0.200
392.67	0.185
392.89	0.253
393.10	0.355
393.32	0.268
393.53	0.298
393.75	0.183
393.97	0.219
394.18	0.299
394.40	0.274
394.61	0.275
394.83	0.246
395.04	0.305
395.26	0.206
395.47	0.308
395.69	0.242
395.91	0.259
396.12	0.304
396.34	0.281
396.55	0.177
396.77	0.261
396.98	1.009
397.20	0.338
397.41	0.356
397.63	0.243
397.84	0.231
398.06	0.218
398.27	0.224
398.49	0.262
398.71	0.207
398.92	0.269
399.14	0.332
399.35	0.404
399.57	0.386
399.78	0.282
400.00	0.296
400.21	0.370
400.43	0.291
400.64	0.295
400.86	0.688
401.07	0.362
401.29	0.308
401.50	0.340
401.72	0.504
401.93	0.315
402.15	0.365
402.36	0.327
402.58	0.271
402.79	0.306
403.01	0.528
403.22	0.401
403.44	0.268
403.65	0.412
403.87	0.434
404.08	0.336
404.30	0.526
404.51	0.292
404.73	0.338
404.94	0.287
405.16	0.296
405.37	0.232
405.59	0.399
405.80	0.256
406.02	0.322
406.23	0.330
406.45	0.361
406.66	0.389
406.88	0.266
407.09	0.400
407.31	0.326
407.52	0.393
407.74	0.329
407.95	0.382
408.17	0.360
408.38	0.375
408.60	0.248
408.81	0.401
409.03	0.308
409.24	0.302
409.45	0.337
409.67	0.320
409.88	0.285
410.10	0.355
410.31	0.304
410.53	0.293
410.74	0.385
410.96	0.385
411.17	0.408
411.39	0.327
411.60	0.310
411.82	0.363
412.03	0.349
412.24	0.334
412.46	0.460
412.67	0.385
412.89	0.380
413.10	0.377
413.32	0.351
413.53	0.393
413.75	0.398
413.96	0.311
414.17	0.395
414.39	0.403
414.60	0.336
414.82	0.437
415.03	0.347
415.25	0.378
415.46	0.273
415.68	0.373
415.89	0.622
416.10	0.527
416.32	0.312
416.53	0.371
416.75	0.358
416.96	0.432
417.18	0.365
417.39	0.348
417.60	0.350
417.82	0.486
418.03	0.435
418.25	0.368
418.46	0.374
418.67	0.350
418.89	0.371
419.10	0.380
419.32	0.502
419.53	0.466
419.75	0.413
419.96	0.361
420.17	0.431
420.39	0.397
420.60	0.413
420.82	0.510
421.03	0.421
421.24	0.360
421.46	0.392
421.67	0.415
421.89	0.373
422.10	0.394
422.31	0.400
422.53	0.550
422.74	0.426
422.96	0.345
423.17	0.378
423.38	0.448
423.60	0.386
423.81	0.471
424.03	0.409
424.24	0.445
424.45	0.442
424.67	0.449
424.88	0.410
425.09	0.444
425.31	0.417
425.52	0.439
425.74	0.492
425.95	0.527
426.16	0.424
426.38	0.488
426.59	0.441
426.80	0.498
427.02	0.517
427.23	0.414
427.45	0.516
427.66	0.498
427.87	0.394
428.09	0.411
428.30	0.446
428.51	0.444
428.73	0.481
428.94	0.444
429.15	0.436
429.37	0.416
429.58	0.431
429.79	0.402
430.01	0.477
430.22	0.479
430.44	0.497
430.65	0.456
430.86	0.480
431.08	0.467
431.29	0.429
431.50	0.496
431.72	0.620
431.93	0.536
432.14	0.426
432.36	0.460
432.57	0.469
432.78	0.482
433.00	0.451
433.21	0.445
433.42	0.537
433.64	0.479
433.85	0.535
434.06	0.448
434.28	0.469
434.49	0.475
434.70	0.479
434.92	0.483
435.13	0.509
435.34	0.510
435.56	0.488
435.77	0.486
435.98	0.601
436.20	0.511
436.41	0.451
436.62	0.442
436.83	0.487
437.05	0.540
437.26	0.488
437.47	0.443
437.69	0.489
437.90	0.453
438.11	0.449
438.33	0.481
438.54	0.504
438.75	0.614
438.97	0.606
439.18	0.485
439.39	0.506
439.60	0.544
439.82	0.517
440.03	0.473
440.24	0.640
440.46	0.509
440.67	0.495
440.88	0.519
441.10	0.487
441.31	0.482
441.52	0.518
441.73	0.576
441.95	0.525
442.16	0.491
442.37	0.708
442.58	0.491
442.80	0.480
443.01	0.595
443.22	0.557
443.44	0.489
443.65	0.565
443.86	0.558
444.07	0.580
444.29	0.507
444.50	0.617
444.71	0.495
444.92	0.470
445.14	0.574
445.35	0.602
445.56	0.497
445.78	0.564
445.99	0.567
446.20	0.499
446.41	0.553
446.63	0.556
446.84	0.527
447.05	0.525
447.26	0.604
447.48	0.528
447.69	0.504
447.90	0.560
448.11	0.512
448.33	0.527
448.54	0.545
448.75	0.561
448.96	0.564
449.18	0.584
449.39	0.542
449.60	0.532
449.81	0.617
450.03	0.552
450.24	0.590
450.45	0.561
450.66	0.551
450.87	0.570
451.09	0.540
451.30	0.529
451.51	0.580
451.72	0.583
451.94	0.593
452.15	0.632
452.36	0.546
452.57	0.561
452.78	0.564
453.00	0.585
453.21	0.559
453.42	0.542
453.63	0.606
453.85	0.581
454.06	0.576
454.27	0.650
454.48	0.598
454.69	0.554
454.91	0.597
455.12	0.536
455.33	0.587
455.54	0.598
455.75	0.584
455.97	0.598
456.18	0.594
456.39	0.598
456.60	0.619
456.81	0.581
457.03	0.587
457.24	0.581
457.45	0.635
457.66	0.604
457.87	0.575
458.09	0.588
458.30	0.532
458.51	0.611
458.72	0.623
458.93	0.626
459.15	0.568
459.36	0.610
459.57	0.628
459.78	0.655
459.99	0.602
460.20	0.579
460.42	0.630
460.63	0.602
460.84	0.595
461.05	0.608
461.26	0.648
461.47	0.599
461.69	0.635
461.90	0.658
462.11	0.630
462.32	0.664
462.53	0.624
462.74	0.680
462.96	0.609
463.17	0.602
463.38	0.628
463.59	0.690
463.80	0.594
464.01	0.607
464.23	0.658
464.44	0.634
464.65	0.638
464.86	0.654
465.07	0.659
465.28	0.637
465.49	0.651
465.71	0.627
465.92	0.651
466.13	0.680
466.34	0.640
466.55	0.672
466.76	0.652
466.97	0.666
467.19	0.661
467.40	0.681
467.61	0.685
467.82	0.635
468.03	0.623
468.24	0.668
468.45	0.692
468.66	0.684
468.88	0.689
469.09	0.687
469.30	0.713
469.51	0.669
469.72	0.698
469.93	0.683
470.14	0.671
470.35	0.726
470.57	0.697
470.78	0.659
470.99	0.735
471.20	0.698
471.41	0.675
471.62	0.710
471.83	0.690
472.04	0.708
472.25	0.731
472.47	0.682
472.68	0.684
472.89	0.687
473.10	0.712
473.31	0.680
473.52	0.717
473.73	0.729
473.94	0.680
474.15	0.698
474.36	0.702
474.57	0.717
474.79	0.700
475.00	0.704
475.21	0.694
475.42	0.747
475.63	0.691
475.84	0.709
476.05	0.713
476.26	0.698
476.47	0.716
476.68	0.741
476.89	0.700
477.10	0.730
477.32	0.722
477.53	0.757
477.74	0.714
477.95	0.741
478.16	0.709
478.37	0.735
478.58	0.736
478.79	0.746
479.00	0.744
479.21	0.720
479.42	0.744
479.63	0.743
479.84	0.720
480.05	0.716
480.26	0.732
480.47	0.745
480.69	0.746
480.90	0.728
481.11	0.727
481.32	0.763
481.53	0.728
481.74	0.759
481.95	0.742
482.16	0.749
482.37	0.755
482.58	0.736
482.79	0.746
483.00	0.764
483.21	0.733
483.42	0.717
483.63	0.759
483.84	0.777
484.05	0.768
484.26	0.752
484.47	0.753
484.68	0.731
484.89	0.736
485.10	0.762
485.31	0.751
485.52	0.754
485.73	0.755
485.94	0.778
486.15	0.749
486.37	0.759
486.58	0.738
486.79	0.747
487.00	0.773
487.21	0.767
487.42	0.766
487.63	0.766
487.84	0.777
488.05	0.776
488.26	0.753
488.47	0.756
488.68	0.774
488.89	0.764
489.10	0.759
489.31	0.766
489.52	0.786
489.73	0.769
489.94	0.789
490.15	0.765
490.36	0.788
490.57	0.760
490.78	0.751
490.99	0.774
491.20	0.813
491.41	0.789
491.62	0.756
491.83	0.773
492.04	0.770
492.25	0.776
492.45	0.776
492.66	0.789
492.87	0.783
493.08	0.775
493.29	0.765
493.50	0.761
493.71	0.767
493.92	0.765
494.13	0.774
494.34	0.786
494.55	0.788
494.76	0.806
494.97	0.802
495.18	0.781
495.39	0.791
495.60	0.764
495.81	0.764
496.02	0.776
496.23	0.775
496.44	0.793
496.65	0.788
496.86	0.792
497.07	0.804
497.28	0.802
497.49	0.775
497.70	0.777
497.91	0.789
498.12	0.780
498.32	0.804
498.53	0.793
498.74	0.785
498.95	0.800
499.16	0.776
499.37	0.778
499.58	0.785
499.79	0.803
500.00	0.801
500.21	0.816
500.42	0.787
500.63	0.787
500.84	0.799
501.05	0.788
501.26	0.803
501.46	0.824
501.67	0.804
501.88	0.805
502.09	0.791
502.30	0.794
502.51	0.821
502.72	0.795
502.93	0.805
503.14	0.818
503.35	0.802
503.56	0.801
503.77	0.818
503.97	0.806
504.18	0.807
504.39	0.825
504.60	0.808
504.81	0.823
505.02	0.816
505.23	0.817
505.44	0.807
505.65	0.811
505.86	0.798
506.07	0.833
506.27	0.812
506.48	0.815
506.69	0.807
506.90	0.819
507.11	0.817
507.32	0.804
507.53	0.808
507.74	0.804
507.95	0.809
508.15	0.815
508.36	0.817
508.57	0.821
508.78	0.811
508.99	0.810
509.20	0.797
509.41	0.811
509.62	0.804
509.82	0.803
510.03	0.809
510.24	0.808
510.45	0.820
510.66	0.816
510.87	0.815
511.08	0.792
511.29	0.816
511.49	0.802
511.70	0.826
511.91	0.791
512.12	0.789
512.33	0.808
512.54	0.819
512.75	0.810
512.95	0.825
513.16	0.819
513.37	0.807
513.58	0.825
513.79	0.805
514.00	0.809
514.20	0.818
514.41	0.812
514.62	0.792
514.83	0.813
515.04	0.808
515.25	0.795
515.46	0.802
515.66	0.802
515.87	0.810
516.08	0.793
516.29	0.806
516.50	0.795
516.71	0.791
516.91	0.798
517.12	0.807
517.33	0.800
517.54	0.793
517.75	0.794
517.95	0.801
518.16	0.807
518.37	0.788
518.58	0.790
518.79	0.775
519.00	0.791
519.20	0.795
519.41	0.781
519.62	0.790
519.83	0.795
520.04	0.776
520.24	0.775
520.45	0.780
520.66	0.794
520.87	0.774
521.08	0.773
521.28	0.776
521.49	0.783
521.70	0.766
521.91	0.774
522.12	0.764
522.32	0.775
522.53	0.765
522.74	0.759
522.95	0.764
523.16	0.764
523.36	0.769
523.57	0.757
523.78	0.756
523.99	0.758
524.20	0.753
524.40	0.760
524.61	0.763
524.82	0.748
525.03	0.751
525.23	0.749
525.44	0.740
525.65	0.740
525.86	0.753
526.06	0.736
526.27	0.736
526.48	0.742
526.69	0.731
526.90	0.732
527.10	0.753
527.31	0.727
527.52	0.723
527.73	0.718
527.93	0.723
528.14	0.726
528.35	0.721
528.56	0.721
528.76	0.716
528.97	0.710
529.18	0.706
529.39	0.705
529.59	0.706
529.80	0.725
530.01	0.709
530.22	0.708
530.42	0.689
530.63	0.700
530.84	0.685
531.05	0.694
531.25	0.696
531.46	0.691
531.67	0.678
531.88	0.689
532.08	0.684
532.29	0.682
532.50	0.677
532.70	0.672
532.91	0.666
533.12	0.667
533.33	0.682
533.53	0.663
533.74	0.662
533.95	0.665
534.15	0.658
534.36	0.658
534.57	0.646
534.78	0.648
534.98	0.655
535.19	0.637
535.40	0.638
535.60	0.650
535.81	0.637
536.02	0.639
536.23	0.634
536.43	0.636
536.64	0.627
536.85	0.632
537.05	0.637
537.26	0.621
537.47	0.623
537.67	0.615
537.88	0.611
538.09	0.616
538.30	0.609
538.50	0.603
538.71	0.610
538.92	0.602
539.12	0.600
539.33	0.598
539.54	0.598
539.74	0.600
539.95	0.594
540.16	0.592
540.36	0.586
540.57	0.586
540.78	0.580
540.98	0.579
541.19	0.577
541.40	0.568
541.60	0.574
541.81	0.571
542.02	0.572
542.22	0.565
542.43	0.561
542.64	0.558
542.84	0.558
543.05	0.552
543.26	0.552
543.46	0.554
543.67	0.553
543.88	0.549
544.08	0.543
544.29	0.538
544.50	0.539
544.70	0.539
544.91	0.533
545.12	0.535
545.32	0.531
545.53	0.534
545.74	0.527
545.94	0.525
546.15	0.524
546.35	0.521
546.56	0.520
546.77	0.517
546.97	0.515
547.18	0.509
547.39	0.510
547.59	0.509
547.80	0.506
548.01	0.509
548.21	0.506
548.42	0.500
548.62	0.500
548.83	0.497
549.04	0.495
549.24	0.489
549.45	0.489
549.65	0.487
549.86	0.484
550.07	0.484
550.27	0.482
550.48	0.488
550.69	0.478
550.89	0.478
551.10	0.475
551.30	0.475
551.51	0.474
551.72	0.467
551.92	0.468
552.13	0.467
552.33	0.467
552.54	0.463
552.75	0.459
552.95	0.460
553.16	0.456
553.36	0.455
553.57	0.454
553.78	0.452
553.98	0.453
554.19	0.446
554.39	0.444
554.60	0.447
554.80	0.446
555.01	0.441
555.22	0.442
555.42	0.439
555.63	0.435
555.83	0.438
556.04	0.433
556.25	0.434
556.45	0.428
556.66	0.426
556.86	0.430
557.07	0.428
557.27	0.427
557.48	0.423
557.68	0.422
557.89	0.423
558.10	0.419
558.30	0.417
558.51	0.415
558.71	0.414
558.92	0.409
559.12	0.412
559.33	0.414
559.54	0.410
559.74	0.406
559.95	0.405
560.15	0.405
560.36	0.404
560.56	0.400
560.77	0.401
560.97	0.401
561.18	0.397
561.38	0.397
561.59	0.400
561.79	0.397
562.00	0.395
562.21	0.392
562.41	0.391
562.62	0.391
562.82	0.390
563.03	0.387
563.23	0.387
563.44	0.387
563.64	0.384
563.85	0.385
564.05	0.379
564.26	0.379
564.46	0.378
564.67	0.378
564.87	0.374
565.08	0.371
565.28	0.371
565.49	0.372
565.69	0.369
565.90	0.367
566.10	0.369
566.31	0.364
566.51	0.366
566.72	0.367
566.92	0.362
567.13	0.362
567.33	0.362
567.54	0.361
567.74	0.360
567.95	0.357
568.15	0.357
568.36	0.357
568.56	0.355
568.77	0.351
568.97	0.349
569.18	0.349
569.38	0.348
569.59	0.349
569.79	0.346
570.00	0.344
570.20	0.344
570.41	0.343
570.61	0.342
570.82	0.343
571.02	0.339
571.23	0.341
571.43	0.337
571.64	0.336
571.84	0.336
572.05	0.334
572.25	0.334
572.45	0.332
572.66	0.330
572.86	0.329
573.07	0.328
573.27	0.328
573.48	0.327
573.68	0.324
573.89	0.323
574.09	0.325
574.30	0.323
574.50	0.322
574.70	0.323
574.91	0.321
575.11	0.322
575.32	0.322
575.52	0.319
575.73	0.319
575.93	0.319
576.14	0.318
576.34	0.316
576.54	0.315
576.75	0.314
576.95	0.313
577.16	0.311
577.36	0.310
577.57	0.310
577.77	0.308
577.97	0.305
578.18	0.307
578.38	0.304
578.59	0.302
578.79	0.301
579.00	0.302
579.20	0.300
579.40	0.300
579.61	0.299
579.81	0.298
580.02	0.296
580.22	0.296
580.42	0.295
580.63	0.296
580.83	0.295
581.04	0.293
581.24	0.293
581.45	0.292
581.65	0.291
581.85	0.290
582.06	0.288
582.26	0.288
582.47	0.287
582.67	0.287
582.87	0.286
583.08	0.285
583.28	0.285
583.48	0.283
583.69	0.280
583.89	0.280
584.10	0.282
584.30	0.280
584.50	0.278
584.71	0.278
584.91	0.278
585.12	0.276
585.32	0.276
585.52	0.274
585.73	0.273
585.93	0.273
586.13	0.273
586.34	0.272
586.54	0.272
586.75	0.271
586.95	0.270
587.15	0.270
587.36	0.269
587.56	0.268
587.76	0.267
587.97	0.267
588.17	0.266
588.37	0.266
588.58	0.266
588.78	0.263
588.98	0.264
589.19	0.262
589.39	0.260
589.60	0.262
589.80	0.260
590.00	0.260
590.21	0.260
590.41	0.258
590.61	0.258
590.82	0.257
591.02	0.257
591.22	0.255
591.43	0.256
591.63	0.254
591.83	0.254
592.04	0.253
592.24	0.253
592.44	0.251
592.65	0.250
592.85	0.251
593.05	0.251
593.26	0.249
593.46	0.249
593.66	0.248
593.86	0.247
594.07	0.246
594.27	0.246
594.47	0.245
594.68	0.244
594.88	0.245
595.08	0.245
595.29	0.245
595.49	0.243
595.69	0.242
595.90	0.241
596.10	0.242
596.30	0.242
596.50	0.240
596.71	0.240
596.91	0.240
597.11	0.239
597.32	0.239
597.52	0.238
597.72	0.237
597.93	0.237
598.13	0.236
598.33	0.236
598.53	0.235
598.74	0.234
598.94	0.234
599.14	0.233
599.35	0.233
599.55	0.233
599.75	0.232
599.95	0.232
600.16	0.232
600.36	0.231
600.56	0.231
600.76	0.230
600.97	0.228
601.17	0.228
601.37	0.228
601.58	0.227
601.78	0.227
601.98	0.226
602.18	0.225
602.39	0.225
602.59	0.225
602.79	0.224
602.99	0.225
603.20	0.223
603.40	0.224
603.60	0.224
603.80	0.224
604.01	0.223
604.21	0.223
604.41	0.222
604.61	0.221
604.82	0.221
605.02	0.221
605.22	0.220
605.42	0.220
605.62	0.220
605.83	0.218
606.03	0.217
606.23	0.217
606.43	0.217
606.64	0.217
606.84	0.216
607.04	0.215
607.24	0.215
607.45	0.215
607.65	0.214
607.85	0.215
608.05	0.213
608.25	0.213
608.46	0.213
608.66	0.213
608.86	0.212
609.06	0.211
609.26	0.210
609.47	0.211
609.67	0.209
609.87	0.210
610.07	0.209
610.28	0.208
610.48	0.208
610.68	0.208
610.88	0.207
611.08	0.207
611.29	0.206
611.49	0.206
611.69	0.206
611.89	0.205
612.09	0.205
612.29	0.205
612.50	0.204
612.70	0.205
612.90	0.204
613.10	0.203
613.30	0.203
613.51	0.203
613.71	0.203
613.91	0.207
614.11	0.202
614.31	0.202
614.51	0.201
614.72	0.200
614.92	0.200
615.12	0.200
615.32	0.200
615.52	0.199
615.72	0.200
615.93	0.199
616.13	0.199
616.33	0.199
616.53	0.198
616.73	0.199
616.93	0.198
617.14	0.198
617.34	0.198
617.54	0.198
617.74	0.198
617.94	0.198
618.14	0.198
618.34	0.197
618.55	0.196
618.75	0.197
618.95	0.196
619.15	0.196
619.35	0.195
619.55	0.194
619.75	0.195
619.96	0.193
620.16	0.194
620.36	0.194
620.56	0.193
620.76	0.193
620.96	0.192
621.16	0.192
621.36	0.192
621.57	0.192
621.77	0.193
621.97	0.191
622.17	0.191
622.37	0.191
622.57	0.192
622.77	0.191
622.97	0.190
623.18	0.190
623.38	0.190
623.58	0.190
623.78	0.189
623.98	0.189
624.18	0.188
624.38	0.188
624.58	0.188
624.78	0.188
624.98	0.189
625.19	0.188
625.39	0.188
625.59	0.188
625.79	0.188
625.99	0.187
626.19	0.187
626.39	0.186
626.59	0.186
626.79	0.186
626.99	0.186
627.19	0.185
627.40	0.185
627.60	0.185
627.80	0.185
628.00	0.185
628.20	0.184
628.40	0.184
628.60	0.184
628.80	0.183
629.00	0.183
629.20	0.182
629.40	0.183
629.60	0.182
629.80	0.182
630.00	0.182
630.20	0.182
630.41	0.181
630.61	0.181
630.81	0.181
631.01	0.182
631.21	0.181
631.41	0.181
631.61	0.181
631.81	0.180
632.01	0.180
632.21	0.180
632.41	0.178
632.61	0.178
632.81	0.178
633.01	0.178
633.21	0.178
633.41	0.178
633.61	0.177
633.81	0.177
634.01	0.176
634.21	0.176
634.41	0.176
634.61	0.176
634.81	0.175
635.01	0.175
635.22	0.175
635.42	0.174
635.62	0.174
635.82	0.174
636.02	0.174
636.22	0.174
636.42	0.173
636.62	0.173
636.82	0.173
637.02	0.172
637.22	0.173
637.42	0.172
637.62	0.171
637.82	0.171
638.02	0.170
638.22	0.170
638.42	0.170
638.62	0.170
638.82	0.170
639.02	0.169
639.22	0.169
639.42	0.169
639.62	0.169
639.82	0.168
640.02	0.169
640.22	0.168
640.42	0.168
640.62	0.168
640.82	0.168
641.02	0.168
641.22	0.168
641.42	0.167
641.61	0.168
641.81	0.168
642.01	0.168
642.21	0.167
642.41	0.167
642.61	0.167
642.81	0.166
643.01	0.166
643.21	0.166
643.41	0.166
643.61	0.166
643.81	0.165
644.01	0.164
644.21	0.164
644.41	0.164
644.61	0.164
644.81	0.164
645.01	0.164
645.21	0.163
645.41	0.163
645.61	0.163
645.81	0.163
646.01	0.163
646.21	0.163
646.40	0.162
646.60	0.162
646.80	0.162
647.00	0.161
647.20	0.161
647.40	0.161
647.60	0.161
647.80	0.160
648.00	0.160
648.20	0.160
648.40	0.159
648.60	0.159
648.80	0.159
649.00	0.159
649.20	0.160
649.39	0.159
649.59	0.158
649.79	0.158
649.99	0.158
650.19	0.157
650.39	0.157
650.59	0.157
650.79	0.157
650.99	0.157
651.19	0.155
651.39	0.156
651.58	0.155
651.78	0.155
651.98	0.155
652.18	0.154
652.38	0.154
652.58	0.154
652.78	0.154
652.98	0.153
653.18	0.153
653.38	0.153
653.57	0.152
653.77	0.153
653.97	0.152
654.17	0.152
654.37	0.151
654.57	0.152
654.77	0.151
654.97	0.151
655.16	0.151
655.36	0.151
655.56	0.151
655.76	0.150
655.96	0.150
656.16	0.149
656.36	0.149
656.56	0.149
656.75	0.149
656.95	0.148
657.15	0.148
657.35	0.148
657.55	0.148
657.75	0.148
657.95	0.148
658.14	0.148
658.34	0.148
658.54	0.148
658.74	0.148
658.94	0.147
659.14	0.147
659.34	0.147
659.53	0.146
659.73	0.146
659.93	0.145
660.13	0.145
660.33	0.145
660.53	0.145
660.72	0.145
660.92	0.145
661.12	0.144
661.32	0.145
661.52	0.144
661.72	0.144
661.91	0.143
662.11	0.143
662.31	0.143
662.51	0.143
662.71	0.142
662.90	0.141
663.10	0.141
663.30	0.141
663.50	0.140
663.70	0.140
663.90	0.140
664.09	0.140
664.29	0.139
664.49	0.139
664.69	0.139
664.89	0.138
665.08	0.139
665.28	0.138
665.48	0.138
665.68	0.138
665.88	0.138
666.07	0.138
666.27	0.138
666.47	0.138
666.67	0.138
666.87	0.138
667.06	0.137
667.26	0.137
667.46	0.136
667.66	0.136
667.85	0.136
668.05	0.136
668.25	0.136
668.45	0.135
668.65	0.135
668.84	0.135
669.04	0.135
669.24	0.134
669.44	0.133
669.63	0.133
669.83	0.133
670.03	0.132
670.23	0.132
670.42	0.132
670.62	0.132
670.82	0.132
671.02	0.132
671.22	0.131
671.41	0.131
671.61	0.132
671.81	0.132
672.01	0.132
672.20	0.131
672.40	0.131
672.60	0.131
672.80	0.131
672.99	0.130
673.19	0.130
673.39	0.130
673.58	0.129
673.78	0.129
673.98	0.129
674.18	0.129
674.37	0.128
674.57	0.127
674.77	0.128
674.97	0.127
675.16	0.127
675.36	0.127
675.56	0.126
675.75	0.126
675.95	0.126
676.15	0.126
676.35	0.126
676.54	0.126
676.74	0.126
676.94	0.126
677.13	0.125
677.33	0.125
677.53	0.125
677.73	0.125
677.92	0.124
678.12	0.124
678.32	0.124
678.51	0.124
678.71	0.123
678.91	0.123
679.11	0.122
679.30	0.123
679.50	0.122
679.70	0.122
679.89	0.122
680.09	0.122
680.29	0.121
680.48	0.121
680.68	0.121
680.88	0.121
681.07	0.121
681.27	0.121
681.47	0.121
681.66	0.121
681.86	0.120
682.06	0.120
682.25	0.120
682.45	0.120
682.65	0.120
682.84	0.119
683.04	0.119
683.24	0.119
683.43	0.119
683.63	0.118
683.83	0.118
684.02	0.118
684.22	0.118
684.42	0.118
684.61	0.117
684.81	0.117
685.01	0.117
685.20	0.116
685.40	0.116
685.60	0.116
685.79	0.116
685.99	0.116
686.19	0.115
686.38	0.115
686.58	0.115
686.77	0.115
686.97	0.115
687.17	0.115
687.36	0.115
687.56	0.114
687.76	0.114
687.95	0.114
688.15	0.114
688.34	0.113
688.54	0.113
688.74	0.113
688.93	0.112
689.13	0.112
689.33	0.113
689.52	0.112
689.72	0.113
689.91	0.112
690.11	0.111
690.31	0.111
690.50	0.111
690.70	0.111
690.89	0.111
691.09	0.110
691.29	0.110
691.48	0.110
691.68	0.110
691.87	0.109
692.07	0.110
692.27	0.109
692.46	0.109
692.66	0.109
692.85	0.109
693.05	0.109
693.25	0.109
693.44	0.108
693.64	0.108
693.83	0.108
694.03	0.108
694.22	0.107
694.42	0.107
694.62	0.108
694.81	0.108
695.01	0.108
695.20	0.108
695.40	0.107
695.59	0.107
695.79	0.106
695.99	0.107
696.18	0.107
696.38	0.106
696.57	0.106
696.77	0.106
696.96	0.106
697.16	0.106
697.36	0.106
697.55	0.105
697.75	0.105
697.94	0.105
698.14	0.105
698.33	0.104
698.53	0.104
698.72	0.104
698.92	0.104
699.11	0.104
699.31	0.104
699.51	0.104
699.70	0.103
699.90	0.104
700.09	0.104
700.29	0.103
700.48	0.103
700.68	0.103
700.87	0.103
701.07	0.102
701.26	0.102
701.46	0.102
701.65	0.102
701.85	0.102
702.04	0.101
702.24	0.101
702.43	0.101
702.63	0.101
702.82	0.101
703.02	0.101
703.21	0.101
703.41	0.101
703.60	0.100
703.80	0.100
703.99	0.100
704.19	0.100
704.38	0.100
704.58	0.099
704.77	0.099
704.97	0.099
705.16	0.099
705.36	0.100
705.55	0.099
705.75	0.099
705.94	0.099
706.14	0.099
706.33	0.099
706.53	0.099
706.72	0.099
706.92	0.099
707.11	0.099
707.31	0.098
707.50	0.098
707.70	0.098
707.89	0.098
708.09	0.098
708.28	0.098
708.48	0.098
708.67	0.097
708.86	0.097
709.06	0.098
709.25	0.098
709.45	0.098
709.64	0.097
709.84	0.097
710.03	0.097
710.23	0.097
710.42	0.096
710.62	0.096
710.81	0.096
711.00	0.096
711.20	0.096
711.39	0.095
711.59	0.095
711.78	0.095
711.98	0.095
712.17	0.095
712.37	0.095
712.56	0.095
712.75	0.095
712.95	0.095
713.14	0.095
713.34	0.095
713.53	0.096
713.73	0.096
713.92	0.095
714.11	0.095
714.31	0.095
714.50	0.095
714.70	0.095
714.89	0.094
715.08	0.094
715.28	0.094
715.47	0.094
715.67	0.093
715.86	0.093
716.06	0.093
716.25	0.093
716.44	0.093
716.64	0.093
716.83	0.093
717.03	0.092
717.22	0.092
717.41	0.092
717.61	0.092
717.80	0.093
717.99	0.093
718.19	0.093
718.38	0.093
718.58	0.093
718.77	0.092
718.96	0.092
719.16	0.092
719.35	0.092
719.55	0.092
719.74	0.092
719.93	0.091
720.13	0.091
720.32	0.091
720.51	0.091
720.71	0.091
720.90	0.091
721.10	0.091
721.29	0.091
721.48	0.091
721.68	0.091
721.87	0.091
722.06	0.091
722.26	0.091
722.45	0.091
722.64	0.091
722.84	0.091
723.03	0.091
723.22	0.091
723.42	0.091
723.61	0.091
723.80	0.091
724.00	0.091
724.19	0.091
724.38	0.091
724.58	0.091
724.77	0.090
724.96	0.090
725.16	0.090
725.35	0.090
725.54	0.090
725.74	0.090
725.93	0.090
726.12	0.090
726.32	0.090
726.51	0.090
726.70	0.090
726.90	0.090
727.09	0.089
727.28	0.089
727.48	0.090
727.67	0.089
727.86	0.090
728.06	0.089
728.25	0.089
728.44	0.090
728.64	0.090
728.83	0.090
729.02	0.090
729.21	0.090
729.41	0.090
729.60	0.089
729.79	0.089
729.99	0.089
730.18	0.089
730.37	0.089
730.56	0.089
730.76	0.089
730.95	0.089
731.14	0.089
731.34	0.089
731.53	0.089
731.72	0.089
731.91	0.090
732.11	0.089
732.30	0.090
732.49	0.090
732.69	0.090
732.88	0.090
733.07	0.090
733.26	0.091
733.46	0.090
733.65	0.090
733.84	0.090
734.03	0.090
734.23	0.090
734.42	0.090
734.61	0.090
734.80	0.089
735.00	0.089
735.19	0.089
735.38	0.090
735.57	0.090
735.77	0.090
735.96	0.090
736.15	0.090
736.34	0.089
736.54	0.090
736.73	0.089
736.92	0.089
737.11	0.089
737.31	0.089
737.50	0.089
737.69	0.089
737.88	0.089
738.07	0.089
738.27	0.090
738.46	0.090
738.65	0.089
738.84	0.090
739.04	0.090
739.23	0.090
739.42	0.089
739.61	0.089
739.80	0.089
740.00	0.089
740.19	0.089
740.38	0.089
740.57	0.089
740.76	0.088
740.96	0.088
741.15	0.088
741.34	0.088
741.53	0.088
741.72	0.088
741.92	0.088
742.11	0.088
742.30	0.088
742.49	0.088
742.68	0.088
742.88	0.088
743.07	0.088
743.26	0.088
743.45	0.088
743.64	0.087
743.84	0.087
744.03	0.087
744.22	0.087
744.41	0.087
744.60	0.087
744.79	0.087
744.99	0.087
745.18	0.086
745.37	0.086
745.56	0.086
745.75	0.086
745.94	0.086
746.14	0.086
746.33	0.086
746.52	0.086
746.71	0.085
746.90	0.085
747.09	0.085
747.28	0.085
747.48	0.086
747.67	0.086
747.86	0.085
748.05	0.086
748.24	0.086
748.43	0.086
748.62	0.086
748.82	0.086
749.01	0.086
749.20	0.086
749.39	0.085
749.58	0.085
749.77	0.085
749.96	0.085
750.16	0.085
750.35	0.084
750.54	0.084
750.73	0.084
750.92	0.085
751.11	0.084
751.30	0.084
751.49	0.084
751.68	0.084
751.88	0.085
752.07	0.084
752.26	0.084
752.45	0.084
752.64	0.084
752.83	0.084
753.02	0.083
753.21	0.083
753.40	0.083
753.60	0.083
753.79	0.083
753.98	0.083
754.17	0.083
754.36	0.083
754.55	0.083
754.74	0.083
754.93	0.083
755.12	0.083
755.31	0.083
755.50	0.083
755.70	0.083
755.89	0.082
756.08	0.082
756.27	0.082
756.46	0.082
756.65	0.082
756.84	0.082
757.03	0.082
757.22	0.082
757.41	0.083
757.60	0.082
757.79	0.083
757.98	0.083
758.17	0.083
758.36	0.083
758.56	0.082
758.75	0.082
758.94	0.082
759.13	0.082
759.32	0.082
759.51	0.081
759.70	0.081
759.89	0.081
760.08	0.081
760.27	0.081
760.46	0.081
760.65	0.081
760.84	0.081
761.03	0.081
761.22	0.081
761.41	0.081
761.60	0.081
761.79	0.081
761.98	0.081
762.17	0.081
762.36	0.081
762.55	0.080
762.74	0.080
762.93	0.080
763.12	0.080
763.31	0.080
763.50	0.080
763.69	0.080
763.88	0.080
764.07	0.079
764.26	0.080
764.45	0.080
764.64	0.080
764.83	0.080
765.02	0.080
765.21	0.080
765.40	0.080
765.59	0.079
765.78	0.080
765.97	0.080
766.16	0.080
766.35	0.080
766.54	0.080
766.73	0.080
766.92	0.079
767.11	0.079
767.30	0.079
767.49	0.079
767.68	0.079
767.87	0.079
768.06	0.078
768.25	0.078
768.44	0.078
768.63	0.078
768.82	0.078
769.01	0.078
769.20	0.078
769.39	0.078
769.58	0.078
769.77	0.078
769.96	0.078
770.15	0.079
770.34	0.079
770.53	0.079
770.72	0.078
770.91	0.078
771.10	0.079
771.29	0.078
771.47	0.078
771.66	0.078
771.85	0.078
772.04	0.078
772.23	0.078
772.42	0.077
772.61	0.078
772.80	0.078
772.99	0.077
773.18	0.077
773.37	0.078
773.56	0.078
773.75	0.078
773.94	0.078
774.13	0.077
774.31	0.077
774.50	0.077
774.69	0.077
774.88	0.077
775.07	0.077
775.26	0.077
775.45	0.076
775.64	0.076
775.83	0.076
776.02	0.076
776.21	0.076
776.40	0.077
776.58	0.076
776.77	0.077
776.96	0.077
777.15	0.077
777.34	0.077
777.53	0.077
777.72	0.077
777.91	0.077
778.10	0.077
778.28	0.076
778.47	0.076
778.66	0.076
778.85	0.075
779.04	0.075
779.23	0.075
779.42	0.075
779.61	0.075
779.79	0.075
779.98	0.075
780.17	0.075
780.36	0.075
780.55	0.074
780.74	0.074
780.93	0.074
781.12	0.074
781.30	0.074
781.49	0.074
781.68	0.075
781.87	0.074
782.06	0.074
782.25	0.074
782.44	0.074
782.62	0.074
782.81	0.075
783.00	0.074
783.19	0.075
783.38	0.074
783.57	0.075
783.75	0.074
783.94	0.074
784.13	0.075
784.32	0.074
784.51	0.075
784.70	0.075
784.88	0.075
785.07	0.075
785.26	0.075
785.45	0.075
785.64	0.074
785.83	0.075
786.01	0.074
786.20	0.074
786.39	0.074
786.58	0.074
786.77	0.074
786.95	0.074
787.14	0.074
787.33	0.073
787.52	0.073
787.71	0.073
787.90	0.073
788.08	0.073
788.27	0.073
788.46	0.073
788.65	0.073
788.84	0.073
789.02	0.073
789.21	0.073
789.40	0.073
789.59	0.073
789.77	0.073
789.96	0.073
790.15	0.074
790.34	0.074
790.53	0.074
790.71	0.073
790.90	0.073
791.09	0.073
791.28	0.073
791.46	0.073
791.65	0.073
791.84	0.073
792.03	0.073
792.22	0.073
792.40	0.072
792.59	0.072
792.78	0.072
792.97	0.073
793.15	0.073
793.34	0.072
793.53	0.072
793.72	0.072
793.90	0.072
794.09	0.072
794.28	0.072
794.47	0.072
794.65	0.071
794.84	0.072
795.03	0.071
795.22	0.071
795.40	0.071
795.59	0.071
795.78	0.071
795.97	0.072
796.15	0.072
796.34	0.072
796.53	0.072
796.71	0.072
796.90	0.072
797.09	0.072
797.28	0.072
797.46	0.072
797.65	0.072
797.84	0.072
798.02	0.071
798.21	0.071
798.40	0.071
798.59	0.071
798.77	0.071
798.96	0.071
799.15	0.071
799.33	0.071
799.52	0.071
799.71	0.071
799.90	0.071
800.08	0.071
800.27	0.071
800.46	0.071
800.64	0.071
800.83	0.070
801.02	0.070
801.20	0.071
801.39	0.070
801.58	0.070
801.76	0.070
801.95	0.070
802.14	0.070
802.32	0.070
802.51	0.070
802.70	0.070
802.88	0.069
803.07	0.070
803.26	0.069
803.44	0.069
803.63	0.069
803.82	0.069
804.00	0.069
804.19	0.069
804.38	0.070
804.56	0.070
804.75	0.070
804.94	0.070
805.12	0.070
805.31	0.070
805.50	0.070
805.68	0.070
805.87	0.070
806.06	0.070
806.24	0.070
806.43	0.070
806.62	0.070
806.80	0.070
806.99	0.070
807.17	0.070
807.36	0.070
807.55	0.070
807.73	0.070
807.92	0.070
808.11	0.070
808.29	0.070
808.48	0.070
808.66	0.070
808.85	0.069
809.04	0.069
809.22	0.069
809.41	0.070
809.59	0.069
809.78	0.069
809.97	0.068
810.15	0.068
810.34	0.069
810.53	0.069
810.71	0.069
810.90	0.069
811.08	0.069
811.27	0.069
811.45	0.069
811.64	0.069
811.83	0.069
812.01	0.069
812.20	0.069
812.38	0.069
812.57	0.069
812.76	0.069
812.94	0.069
813.13	0.069
813.31	0.069
813.50	0.069
813.68	0.069
813.87	0.069
814.06	0.069
814.24	0.069
814.43	0.069
814.61	0.069
814.80	0.069
814.98	0.069
815.17	0.069
815.36	0.069
815.54	0.069
815.73	0.069
815.91	0.069
816.10	0.069
816.28	0.069
816.47	0.069
816.65	0.069
816.84	0.069
817.03	0.069
817.21	0.069
817.40	0.069
817.58	0.069
817.77	0.069
817.95	0.069
818.14	0.069
818.32	0.069
818.51	0.070
818.69	0.070
818.88	0.069
819.06	0.069
819.25	0.069
819.43	0.069
819.62	0.069
819.80	0.069
819.99	0.069
820.18	0.070
820.36	0.069
820.55	0.069
820.73	0.069
820.92	0.069
821.10	0.069
821.29	0.069
821.47	0.068
821.66	0.069
821.84	0.069
822.03	0.069
822.21	0.068
822.40	0.068
822.58	0.069
822.77	0.068
822.95	0.069
823.14	0.069
823.32	0.069
823.50	0.069
823.69	0.069
823.87	0.069
824.06	0.070
824.24	0.070
824.43	0.070
824.61	0.070
824.80	0.070
824.98	0.070
825.17	0.071
825.35	0.071
825.54	0.071
825.72	0.070
825.91	0.070
826.09	0.070
826.28	0.070
826.46	0.071
826.64	0.071
826.83	0.071
827.01	0.071
827.20	0.071
827.38	0.071
827.57	0.071
827.75	0.071
827.94	0.071
828.12	0.071
828.31	0.071
828.49	0.071
828.67	0.071
828.86	0.071
829.04	0.071
829.23	0.072
829.41	0.072
829.60	0.072
829.78	0.073
829.96	0.073
830.15	0.073
830.33	0.073
830.52	0.073
830.70	0.073
830.88	0.073
831.07	0.074
831.25	0.074
831.44	0.073
831.62	0.073
831.81	0.073
831.99	0.073
832.17	0.073
832.36	0.073
832.54	0.073
832.73	0.073
832.91	0.073
833.09	0.073
833.28	0.073
833.46	0.073
833.65	0.073
833.83	0.073
834.01	0.074
834.20	0.074
834.38	0.074
834.56	0.074
834.75	0.074
834.93	0.074
835.12	0.075
835.30	0.074
835.48	0.075
835.67	0.075
835.85	0.075
836.03	0.075
836.22	0.075
836.40	0.075
836.59	0.075
836.77	0.074
836.95	0.075
837.14	0.075
837.32	0.075
837.50	0.075
837.69	0.075
837.87	0.075
838.05	0.075
838.24	0.076
838.42	0.076
838.60	0.076
838.79	0.077
838.97	0.076
839.15	0.076
839.34	0.076
839.52	0.076
839.70	0.076
839.89	0.076
840.07	0.076
840.25	0.076
840.44	0.075
840.62	0.075
840.80	0.075
840.99	0.075
841.17	0.075
841.35	0.075
841.54	0.075
841.72	0.076
841.90	0.076
842.09	0.076
842.27	0.076
842.45	0.076
842.64	0.076
842.82	0.076
843.00	0.076
843.19	0.076
843.37	0.076
843.55	0.076
843.73	0.076
843.92	0.076
844.10	0.076
844.28	0.076
844.47	0.076
844.65	0.076
844.83	0.076
845.01	0.076
845.20	0.076
845.38	0.077
845.56	0.077
845.75	0.077
845.93	0.077
846.11	0.077
846.29	0.077
846.48	0.077
846.66	0.077
846.84	0.077
847.02	0.076
847.21	0.076
847.39	0.076
847.57	0.076
847.76	0.076
847.94	0.076
848.12	0.076
848.30	0.077
848.49	0.077
848.67	0.077
848.85	0.077
849.03	0.077
849.22	0.077
849.40	0.077
849.58	0.077
849.76	0.077
849.95	0.077
850.13	0.077
850.31	0.077
850.49	0.078
850.67	0.078
850.86	0.078
851.04	0.077
851.22	0.077
851.40	0.077
851.59	0.077
851.77	0.077
851.95	0.077
852.13	0.078
852.31	0.077
852.50	0.078
852.68	0.078
852.86	0.077
853.04	0.077
853.23	0.077
853.41	0.077
853.59	0.077
853.77	0.077
853.95	0.078
854.14	0.077
854.32	0.077
854.50	0.077
854.68	0.077
854.86	0.077
855.04	0.077
855.23	0.077
855.41	0.078
855.59	0.078
855.77	0.078
855.95	0.078
856.14	0.078
856.32	0.078
856.50	0.077
856.68	0.078
856.86	0.078
857.04	0.077
857.23	0.077
857.41	0.077
857.59	0.077
857.77	0.077
857.95	0.077
858.13	0.077
858.32	0.077
858.50	0.078
858.68	0.077
858.86	0.077
859.04	0.078
859.22	0.078
859.41	0.078
859.59	0.078
859.77	0.078
859.95	0.078
860.13	0.078
860.31	0.078
860.49	0.078
860.68	0.078
860.86	0.078
861.04	0.078
861.22	0.078
861.40	0.078
861.58	0.078
861.76	0.078
861.94	0.078
862.13	0.078
862.31	0.078
862.49	0.078
862.67	0.078
862.85	0.078
863.03	0.078
863.21	0.078
863.39	0.078
863.57	0.078
863.76	0.078
863.94	0.078
864.12	0.078
864.30	0.078
864.48	0.078
864.66	0.078
864.84	0.078
865.02	0.079
865.20	0.079
865.38	0.079
865.57	0.079
865.75	0.079
865.93	0.079
866.11	0.079
866.29	0.079
866.47	0.079
866.65	0.079
866.83	0.079
867.01	0.079
867.19	0.079
867.37	0.079
867.55	0.079
867.73	0.079
867.92	0.079
868.10	0.079
868.28	0.079
868.46	0.079
868.64	0.079
868.82	0.080
869.00	0.080
869.18	0.080
869.36	0.080
869.54	0.080
869.72	0.080
869.90	0.080
870.08	0.080
870.26	0.080
870.44	0.080
870.62	0.080
870.80	0.080
870.98	0.079
871.16	0.079
871.34	0.079
871.53	0.079
871.71	0.079
871.89	0.079
872.07	0.080
872.25	0.079
872.43	0.079
872.61	0.080
872.79	0.080
872.97	0.080
873.15	0.080
873.33	0.081
873.51	0.080
873.69	0.081
873.87	0.081
874.05	0.081
874.23	0.081
874.41	0.081
874.59	0.081
874.77	0.081
874.95	0.081
875.13	0.081
875.31	0.081
875.49	0.081
875.67	0.081
875.85	0.081
876.03	0.081
876.21	0.081
876.39	0.081
876.57	0.081
876.75	0.082
876.93	0.081
877.11	0.081
877.29	0.081
877.47	0.081
877.65	0.081
877.82	0.081
878.00	0.081
878.18	0.082
878.36	0.081
878.54	0.082
878.72	0.081
878.90	0.082
879.08	0.082
879.26	0.082
879.44	0.082
879.62	0.082
879.80	0.082
879.98	0.082
880.16	0.081
880.34	0.081
880.52	0.082
880.70	0.081
880.88	0.081
881.06	0.081
881.24	0.081
881.42	0.081
881.59	0.081
881.77	0.080
881.95	0.081
882.13	0.081
882.31	0.081
882.49	0.081
882.67	0.081
882.85	0.081
883.03	0.082
883.21	0.082
883.39	0.082
883.57	0.082
883.75	0.083
883.92	0.083
884.10	0.083
884.28	0.083
884.46	0.083
884.64	0.083
884.82	0.083
885.00	0.083
885.18	0.083
885.36	0.083
885.54	0.083
885.71	0.083
885.89	0.083
886.07	0.083
886.25	0.083
886.43	0.083
886.61	0.083
886.79	0.082
886.97	0.082
887.15	0.083
887.32	0.083
887.50	0.083
887.68	0.083
887.86	0.083
888.04	0.084
888.22	0.084
888.40	0.083
888.57	0.084
888.75	0.084
888.93	0.084
889.11	0.084
889.29	0.085
889.47	0.085
889.65	0.084
889.82	0.084
890.00	0.085
890.18	0.085
890.36	0.085
890.54	0.085
890.72	0.085
890.90	0.085
891.07	0.085
891.25	0.084
891.43	0.084
891.61	0.084
891.79	0.084
891.97	0.083
892.14	0.084
892.32	0.084
892.50	0.084
892.68	0.084
892.86	0.084
893.03	0.084
893.21	0.084
893.39	0.085
893.57	0.085
893.75	0.085
893.93	0.085
894.10	0.085
894.28	0.085
894.46	0.085
894.64	0.085
894.82	0.085
894.99	0.085
895.17	0.085
895.35	0.085
895.53	0.085
895.71	0.085
895.88	0.085
896.06	0.085
896.24	0.085
896.42	0.085
896.59	0.085
896.77	0.085
896.95	0.085
897.13	0.085
897.31	0.085
897.48	0.085
897.66	0.086
897.84	0.085
898.02	0.085
898.19	0.086
898.37	0.086
898.55	0.086
898.73	0.086
898.91	0.086
899.08	0.086
899.26	0.086
899.44	0.086
899.62	0.087
899.79	0.087
899.97	0.087
900.15	0.086
900.33	0.086
900.50	0.086
900.68	0.086
900.86	0.086
901.04	0.087
901.21	0.087
901.39	0.087
901.57	0.087
901.74	0.087
901.92	0.086
902.10	0.087
902.28	0.087
902.45	0.087
902.63	0.087
902.81	0.087
902.99	0.087
903.16	0.087
903.34	0.088
903.52	0.087
903.69	0.087
903.87	0.088
904.05	0.088
904.22	0.088
904.40	0.088
904.58	0.088
904.76	0.088
904.93	0.088
905.11	0.089
905.29	0.089
905.46	0.088
905.64	0.088
905.82	0.089
905.99	0.088
906.17	0.088
906.35	0.089
906.53	0.089
906.70	0.089
906.88	0.089
907.06	0.089
907.23	0.089
907.41	0.089
907.59	0.089
907.76	0.089
907.94	0.089
908.12	0.089
908.29	0.089
908.47	0.089
908.65	0.089
908.82	0.089
909.00	0.089
909.18	0.089
909.35	0.089
909.53	0.089
909.71	0.089
909.88	0.089
910.06	0.089
910.23	0.089
910.41	0.090
910.59	0.089
910.76	0.089
910.94	0.089
911.12	0.089
911.29	0.089
911.47	0.089
911.65	0.089
911.82	0.089
912.00	0.090
912.17	0.090
912.35	0.091
912.53	0.091
912.70	0.091
912.88	0.092
913.06	0.092
913.23	0.092
913.41	0.092
913.58	0.093
913.76	0.092
913.94	0.092
914.11	0.093
914.29	0.092
914.46	0.093
914.64	0.092
914.82	0.093
914.99	0.093
915.17	0.093
915.34	0.093
915.52	0.093
915.70	0.093
915.87	0.093
916.05	0.093
916.22	0.093
916.40	0.093
916.57	0.094
916.75	0.094
916.93	0.094
917.10	0.094
917.28	0.094
917.45	0.094
917.63	0.094
917.80	0.094
917.98	0.094
918.16	0.095
918.33	0.095
918.51	0.095
918.68	0.095
918.86	0.096
919.03	0.096
919.21	0.097
919.39	0.097
919.56	0.097
919.74	0.098
919.91	0.098
920.09	0.098
920.26	0.098
920.44	0.098
920.61	0.098
920.79	0.098
920.96	0.098
921.14	0.098
921.31	0.098
921.49	0.098
921.67	0.098
921.84	0.098
922.02	0.098
922.19	0.099
922.37	0.099
922.54	0.099
922.72	0.099
922.89	0.100
923.07	0.100
923.24	0.100
923.42	0.100
923.59	0.101
923.77	0.101
923.94	0.102
924.12	0.102
924.29	0.103
924.47	0.103
924.64	0.103
924.82	0.104
924.99	0.104
925.17	0.104
925.34	0.104
925.52	0.104
925.69	0.105
925.87	0.105
926.04	0.105
926.22	0.106
926.39	0.106
926.57	0.106
926.74	0.106
926.91	0.106
927.09	0.107
927.26	0.107
927.44	0.107
927.61	0.108
927.79	0.108
927.96	0.109
928.14	0.109
928.31	0.109
928.49	0.109
928.66	0.109
928.84	0.110
929.01	0.110
929.18	0.111
929.36	0.111
929.53	0.112
929.71	0.112
929.88	0.112
930.06	0.112
930.23	0.113
930.41	0.114
930.58	0.114
930.75	0.115
930.93	0.115
931.10	0.115
931.28	0.116
931.45	0.116
931.63	0.117
931.80	0.117
931.97	0.117
932.15	0.118
932.32	0.118
932.50	0.118
932.67	0.119
932.84	0.120
933.02	0.120
933.19	0.120
933.37	0.121
933.54	0.122
933.71	0.122
933.89	0.123
934.06	0.123
934.24	0.124
934.41	0.124
934.58	0.125
934.76	0.125
934.93	0.126
935.11	0.126
935.28	0.126
935.45	0.127
935.63	0.127
935.80	0.127
935.98	0.128
936.15	0.128
936.32	0.128
936.50	0.129
936.67	0.129
936.84	0.129
937.02	0.130
937.19	0.131
937.36	0.131
937.54	0.131
937.71	0.133
937.89	0.133
938.06	0.134
938.23	0.135
938.41	0.135
938.58	0.136
938.75	0.136
938.93	0.137
939.10	0.137
939.27	0.137
939.45	0.138
939.62	0.138
939.79	0.140
939.97	0.140
940.14	0.140
940.31	0.141
940.49	0.142
940.66	0.143
940.83	0.143
941.01	0.144
941.18	0.145
941.35	0.145
941.53	0.146
941.70	0.146
941.87	0.147
942.05	0.147
942.22	0.148
942.39	0.148
942.57	0.148
942.74	0.149
942.91	0.149
943.08	0.150
943.26	0.150
943.43	0.151
943.60	0.152
943.78	0.153
943.95	0.154
944.12	0.154
944.29	0.155
944.47	0.156
944.64	0.156
944.81	0.158
944.99	0.159
945.16	0.160
945.33	0.160
945.50	0.162
945.68	0.162
945.85	0.162
946.02	0.164
946.20	0.165
946.37	0.166
946.54	0.167
946.71	0.168
946.89	0.168
947.06	0.169
947.23	0.169
947.40	0.171
947.58	0.171
947.75	0.173
947.92	0.173
948.09	0.173
948.27	0.175
948.44	0.176
948.61	0.177
948.78	0.178
948.96	0.179
949.13	0.180
949.30	0.181
949.47	0.182
949.65	0.183
949.82	0.184
949.99	0.184
950.16	0.186
950.33	0.187
950.51	0.188
950.68	0.189
950.85	0.190
951.02	0.191
951.20	0.192
951.37	0.194
951.54	0.194
951.71	0.196
951.88	0.197
952.06	0.198
952.23	0.199
952.40	0.201
952.57	0.202
952.74	0.204
952.92	0.205
953.09	0.206
953.26	0.207
953.43	0.208
953.60	0.210
953.77	0.210
953.95	0.211
954.12	0.213
954.29	0.213
954.46	0.216
954.63	0.217
954.81	0.218
954.98	0.218
955.15	0.220
955.32	0.222
955.49	0.222
955.66	0.223
955.84	0.224
956.01	0.225
956.18	0.227
956.35	0.229
956.52	0.229
956.69	0.231
956.87	0.231
957.04	0.232
957.21	0.234
957.38	0.234
957.55	0.236
957.72	0.237
957.89	0.238
958.07	0.238
958.24	0.240
958.41	0.242
958.58	0.241
958.75	0.242
958.92	0.244
959.09	0.244
959.26	0.245
959.44	0.245
959.61	0.246
959.78	0.247
959.95	0.248
960.12	0.249
960.29	0.251
960.46	0.250
960.63	0.250
960.81	0.250
960.98	0.251
961.15	0.252
961.32	0.253
961.49	0.252
961.66	0.254
961.83	0.254
962.00	0.254
962.17	0.255
962.34	0.255
962.52	0.256
962.69	0.257
962.86	0.256
963.03	0.256
963.20	0.257
963.37	0.257
963.54	0.257
963.71	0.257
963.88	0.257
964.05	0.257
964.22	0.258
964.39	0.257
964.56	0.257
964.74	0.258
964.91	0.258
965.08	0.259
965.25	0.259
965.42	0.259
965.59	0.260
965.76	0.259
965.93	0.261
966.10	0.259
966.27	0.260
966.44	0.260
966.61	0.261
966.78	0.261
966.95	0.260
967.12	0.261
967.29	0.263
967.46	0.263
967.63	0.262
967.80	0.263
967.97	0.263
968.14	0.263
968.32	0.264
968.49	0.264
968.66	0.263
968.83	0.264
969.00	0.263
969.17	0.263
969.34	0.264
969.51	0.265
969.68	0.263
969.85	0.264
970.02	0.264
970.19	0.264
970.36	0.264
970.53	0.265
970.70	0.263
970.87	0.264
971.04	0.264
971.21	0.264
971.38	0.264
971.55	0.265
971.72	0.265
971.89	0.266
972.06	0.265
972.23	0.265
972.40	0.265
972.57	0.264
972.74	0.264
972.91	0.265
973.07	0.265
973.24	0.264
973.41	0.264
973.58	0.262
973.75	0.275
973.92	0.263
974.09	0.263
974.26	0.263
974.43	0.262
974.60	0.263
974.77	0.264
974.94	0.263
975.11	0.264
975.28	0.265
975.45	0.263
975.62	0.264
975.79	0.265
975.96	0.264
976.13	0.263
976.30	0.264
976.47	0.263
976.64	0.263
976.80	0.263
976.97	0.263
977.14	0.263
977.31	0.263
977.48	0.263
977.65	0.263
977.82	0.262
977.99	0.263
978.16	0.263
978.33	0.262
978.50	0.262
978.67	0.262
978.83	0.261
979.00	0.262
979.17	0.261
979.34	0.260
979.51	0.260
979.68	0.261
979.85	0.260
980.02	0.261
980.19	0.259
980.36	0.261
980.52	0.262
980.69	0.260
980.86	0.260
981.03	0.260
981.20	0.258
981.37	0.259
981.54	0.259
981.71	0.258
981.88	0.259
982.04	0.259
982.21	0.258
982.38	0.260
982.55	0.258
982.72	0.257
982.89	0.259
983.06	0.257
983.22	0.256
983.39	0.257
983.56	0.257
983.73	0.256
983.90	0.255
984.07	0.257
984.24	0.255
984.40	0.255
984.57	0.254
984.74	0.256
984.91	0.257
985.08	0.255
985.25	0.253
985.41	0.254
985.58	0.254
985.75	0.255
985.92	0.254
986.09	0.252
986.26	0.253
986.42	0.252
986.59	0.251
986.76	0.252
986.93	0.253
987.10	0.252
987.27	0.249
987.43	0.248
987.60	0.250
987.77	0.249
987.94	0.248
988.11	0.249
988.27	0.249
988.44	0.249
988.61	0.247
988.78	0.246
988.95	0.246
989.11	0.248
989.28	0.246
989.45	0.245
989.62	0.245
989.79	0.246
989.95	0.244
990.12	0.246
990.29	0.245
990.46	0.243
990.62	0.241
990.79	0.242
990.96	0.242
991.13	0.242
991.30	0.241
991.46	0.240
991.63	0.239
991.80	0.238
991.97	0.238
992.13	0.239
992.30	0.240
992.47	0.238
992.64	0.237
992.80	0.237
992.97	0.238
993.14	0.237
993.31	0.234
993.47	0.237
993.64	0.235
993.81	0.234
993.98	0.235
994.14	0.233
994.31	0.232
994.48	0.233
994.64	0.233
994.81	0.232
994.98	0.232
995.15	0.230
995.31	0.230
995.48	0.229
995.65	0.231
995.82	0.229
995.98	0.229
996.15	0.230
996.32	0.232
996.48	0.230
996.65	0.229
996.82	0.227
996.99	0.228
997.15	0.227
997.32	0.228
997.49	0.226
997.65	0.227
997.82	0.226
997.99	0.224
998.15	0.225
998.32	0.226
998.49	0.225
998.65	0.226
998.82	0.226
998.99	0.224
999.15	0.224
999.32	0.223
999.49	0.222
999.65	0.223
999.82	0.220
999.99	0.221
1000.15	0.220
1000.32	0.221
1000.49	0.221
1000.65	0.218
1000.82	0.218
1000.99	0.218
1001.15	0.219
1001.32	0.218
1001.49	0.218
1001.65	0.218
1001.82	0.220
1001.99	0.216
1002.15	0.215
1002.32	0.215
1002.49	0.215
1002.65	0.214
1002.82	0.212
1002.99	0.211
1003.15	0.212
1003.32	0.211
1003.48	0.212
1003.65	0.212
1003.82	0.210
1003.98	0.208
1004.15	0.208
1004.32	0.209
1004.48	0.209
1004.65	0.211
1004.81	0.208
1004.98	0.207
1005.15	0.207
1005.31	0.207
1005.48	0.205
1005.64	0.206
1005.81	0.208
1005.98	0.205
1006.14	0.204
1006.31	0.203
1006.47	0.201
1006.64	0.201
1006.81	0.200
1006.97	0.200
1007.14	0.200
1007.30	0.201
1007.47	0.200
1007.63	0.198
1007.80	0.197
1007.97	0.197
1008.13	0.198
1008.30	0.198
1008.46	0.198
1008.63	0.198
1008.79	0.198
1008.96	0.197
1009.13	0.199
1009.29	0.197
1009.46	0.197
1009.62	0.196
1009.79	0.194
1009.95	0.194
1010.12	0.195
1010.28	0.195
1010.45	0.194
1010.62	0.193
1010.78	0.192
1010.95	0.191
1011.11	0.192
1011.28	0.191
1011.44	0.193
1011.61	0.191
1011.77	0.190
1011.94	0.190
1012.10	0.190
1012.27	0.190
1012.43	0.191
1012.60	0.189
1012.76	0.189
1012.93	0.188
1013.10	0.187
1013.26	0.184
1013.43	0.186
1013.59	0.192
1013.76	0.184
1013.92	0.183
1014.09	0.181
1014.25	0.182
1014.42	0.183
1014.58	0.182
1014.75	0.184
1014.91	0.183
1015.08	0.185
1015.24	0.182
1015.41	0.184
1015.57	0.183
1015.73	0.181
1015.90	0.180
1016.06	0.181
1016.23	0.179
1016.39	0.180
1016.56	0.181
1016.72	0.180
1016.89	0.180
1017.05	0.181
1017.22	0.177
1017.38	0.179
1017.55	0.179
1017.71	0.180
1017.88	0.180
1018.04	0.181
1018.21	0.178
1018.37	0.177
1018.53	0.177
1018.70	0.176
1018.86	0.174
1019.03	0.178
1019.19	0.175
1019.36	0.174
1019.52	0.176
1019.69	0.177
1019.85	0.175
1020.01	0.175
1020.18	0.174
1020.34	0.174
1020.51	0.173
1020.67	0.174
1020.84	0.172
1021.00	0.172
1021.16	0.169
1021.33	0.170
1021.49	0.168
1021.66	0.170
1021.82	0.168
1021.98	0.168
1022.15	0.167
1022.31	0.167
1022.48	0.166
1022.64	0.169
1022.80	0.167
1022.97	0.167
1023.13	0.166
1023.30	0.166
1023.46	0.167
1023.62	0.163
1023.79	0.165
1023.95	0.165
1024.12	0.164
1024.28	0.163
1024.44	0.163
1024.61	0.161
1024.77	0.160
1024.93	0.159
1025.10	0.161
1025.26	0.158
1025.43	0.160
1025.59	0.155
1025.75	0.160
1025.92	0.159
1026.08	0.158
1026.24	0.158
1026.41	0.160
1026.57	0.159
1026.73	0.156
1026.90	0.158
1027.06	0.156
1027.23	0.157
1027.39	0.156
1027.55	0.156
1027.72	0.155
1027.88	0.155
1028.04	0.155
1028.21	0.154
1028.37	0.149
1028.53	0.154
1028.70	0.153
1028.86	0.151
1029.02	0.152
1029.19	0.153
1029.35	0.150
1029.51	0.150
1029.67	0.149
1029.84	0.151
1030.00	0.146
1030.16	0.146
1030.33	0.148
1030.49	0.146
1030.65	0.144
1030.82	0.158
1030.98	0.146
1031.14	0.145
1031.31	0.145
1031.47	0.143
1031.63	0.145
1031.79	0.144
1031.96	0.145
1032.12	0.146
1032.28	0.144
1032.45	0.148
1032.61	0.146
1032.77	0.146
1032.93	0.143
1033.10	0.144
1033.26	0.146
1033.42	0.144
1033.58	0.145
1033.75	0.145
1033.91	0.143
1034.07	0.146
1034.24	0.143
1034.40	0.142
1034.56	0.141
1034.72	0.142
1034.89	0.142
1035.05	0.140
1035.21	0.140
1035.37	0.139
1035.54	0.144
1035.70	0.141
1035.86	0.141
1036.02	0.142
1036.19	0.139
1036.35	0.139
1036.51	0.143
1036.67	0.141
1036.83	0.141
1037.00	0.140
1037.16	0.140
1037.32	0.140
1037.48	0.139
1037.65	0.142
1037.81	0.138
1037.97	0.138
1038.13	0.136
1038.29	0.134
1038.46	0.132
1038.62	0.137
1038.78	0.135
1038.94	0.132
1039.10	0.136
1039.27	0.132
1039.43	0.135
1039.59	0.135
1039.75	0.135
1039.91	0.135
1040.08	0.134
1040.24	0.136
1040.40	0.138
1040.56	0.136
1040.72	0.132
1040.89	0.134
1041.05	0.137
1041.21	0.135
1041.37	0.132
1041.53	0.138
1041.69	0.136
1041.86	0.135
1042.02	0.132
1042.18	0.131
1042.34	0.133
1042.50	0.137
1042.66	0.132
1042.83	0.130
1042.99	0.133
1043.15	0.128
1043.31	0.128
1043.47	0.133
1043.63	0.130
1043.79	0.128
1043.96	0.130
1044.12	0.132
1044.28	0.129
1044.44	0.131
1044.60	0.127
1044.76	0.126
1044.92	0.128
1045.09	0.130
1045.25	0.127
1045.41	0.128
1045.57	0.125
1045.73	0.125
1045.89	0.127
1046.05	0.128
1046.21	0.144
1046.38	0.125
1046.54	0.132
1046.70	0.130
1046.86	0.121
>>>>>End Processed Spectral Data<<<<<
