SpectraSuite Data File
++++++++++++++++++++++++++++++++++++
Date: Mon May 20 12:12:22 CDT 2013
User: Students
Dark Spectrum Present: Yes
Reference Spectrum Present: Yes
Number of Sampled Component Spectra: 1
Spectrometers: USB4H00887
Integration Time (usec): 60000 (USB4H00887)
Spectra Averaged: 5 (USB4H00887)
Boxcar Smoothing: 5 (USB4H00887)
Correct for Electrical Dark: No (USB4H00887)
Strobe/Lamp Enabled: No (USB4H00887)
Correct for Detector Non-linearity: No (USB4H00887)
Correct for Stray Light: No (USB4H00887)
Number of Pixels in Processed Spectrum: 3648
>>>>>Begin Processed Spectral Data<<<<<
345.83	-0.098
346.05	-0.098
346.26	-0.098
346.48	-0.000
346.70	0.087
346.92	0.129
347.14	0.083
347.35	0.070
347.57	0.298
347.79	-0.212
348.01	-0.143
348.23	-0.264
348.44	-0.000
348.66	0.199
348.88	-0.385
349.10	-0.124
349.32	0.033
349.53	0.025
349.75	0.032
349.97	-0.001
350.19	-0.002
350.41	-0.038
350.62	-0.032
350.84	0.002
351.06	0.004
351.28	0.037
351.50	0.092
351.71	0.098
351.93	0.020
352.15	0.022
352.37	0.146
352.58	0.054
352.80	0.063
353.02	0.099
353.24	0.120
353.46	0.792
353.67	-0.135
353.89	0.035
354.11	0.041
354.33	0.052
354.54	0.057
354.76	0.092
354.98	0.145
355.20	0.145
355.41	0.077
355.63	0.137
355.85	0.073
356.07	-0.000
356.28	0.090
356.50	0.152
356.72	0.067
356.94	0.192
357.15	0.275
357.37	-0.000
357.59	0.105
357.81	0.037
358.02	0.074
358.24	0.067
358.46	0.156
358.68	0.147
358.89	0.076
359.11	-0.000
359.33	0.058
359.55	-0.454
359.76	0.107
359.98	0.128
360.20	0.136
360.42	0.133
360.63	0.136
360.85	0.069
361.07	0.421
361.29	0.065
361.50	0.213
361.72	0.096
361.94	0.371
362.15	0.154
362.37	0.087
362.59	0.110
362.81	0.157
363.02	0.298
363.24	0.478
363.46	0.252
363.68	0.359
363.89	0.196
364.11	0.307
364.33	0.362
364.54	0.218
364.76	0.263
364.98	0.230
365.20	0.278
365.41	0.155
365.63	0.194
365.85	0.134
366.06	0.344
366.28	0.346
366.50	0.204
366.71	0.086
366.93	0.125
367.15	0.109
367.37	0.126
367.58	0.142
367.80	0.183
368.02	0.549
368.23	0.140
368.45	0.171
368.67	0.150
368.88	0.136
369.10	-0.000
369.32	0.133
369.53	0.088
369.75	0.131
369.97	0.404
370.19	0.219
370.40	0.103
370.62	0.335
370.84	0.115
371.05	0.699
371.27	0.153
371.49	0.185
371.70	0.217
371.92	0.311
372.14	0.113
372.35	0.120
372.57	0.129
372.79	0.301
373.00	0.081
373.22	0.118
373.44	0.108
373.65	0.104
373.87	0.168
374.09	0.753
374.30	0.157
374.52	0.198
374.74	0.147
374.95	0.773
375.17	0.164
375.39	-0.000
375.60	0.188
375.82	0.427
376.04	0.163
376.25	0.172
376.47	0.106
376.68	0.288
376.90	0.148
377.12	0.307
377.33	0.170
377.55	0.390
377.77	0.212
377.98	0.330
378.20	0.166
378.42	0.190
378.63	0.250
378.85	-0.000
379.07	0.170
379.28	0.931
379.50	0.466
379.71	0.220
379.93	0.157
380.15	0.214
380.36	0.314
380.58	0.216
380.80	0.818
381.01	0.191
381.23	0.147
381.44	0.143
381.66	0.151
381.88	0.166
382.09	-0.085
382.31	0.122
382.53	0.127
382.74	0.767
382.96	0.185
383.17	0.143
383.39	0.185
383.61	0.263
383.82	0.185
384.04	0.226
384.25	0.304
384.47	0.289
384.69	0.275
384.90	0.266
385.12	0.553
385.33	0.367
385.55	0.276
385.77	0.424
385.98	0.203
386.20	0.288
386.41	0.248
386.63	0.271
386.85	0.219
387.06	0.280
387.28	0.424
387.49	0.272
387.71	0.196
387.93	0.172
388.14	0.593
388.36	0.223
388.57	0.192
388.79	0.217
389.01	-0.000
389.22	0.281
389.44	0.242
389.65	0.208
389.87	0.202
390.08	0.235
390.30	0.189
390.52	0.372
390.73	0.400
390.95	0.282
391.16	0.272
391.38	-0.000
391.59	0.316
391.81	0.267
392.03	0.248
392.24	0.273
392.46	0.226
392.67	0.206
392.89	0.271
393.10	0.393
393.32	0.288
393.53	0.329
393.75	0.194
393.97	0.221
394.18	0.304
394.40	0.262
394.61	0.288
394.83	0.250
395.04	0.300
395.26	0.207
395.47	0.324
395.69	0.248
395.91	0.263
396.12	0.328
396.34	0.344
396.55	0.225
396.77	0.336
396.98	-0.000
397.20	0.427
397.41	0.478
397.63	0.329
397.84	0.291
398.06	0.278
398.27	0.288
398.49	0.341
398.71	0.237
398.92	0.288
399.14	0.386
399.35	0.475
399.57	0.450
399.78	0.292
400.00	0.284
400.21	0.360
400.43	0.289
400.64	0.300
400.86	0.665
401.07	0.366
401.29	0.315
401.50	0.334
401.72	0.495
401.93	0.316
402.15	0.392
402.36	0.344
402.58	0.281
402.79	0.314
403.01	0.545
403.22	0.417
403.44	0.285
403.65	0.473
403.87	0.508
404.08	0.397
404.30	0.678
404.51	0.362
404.73	0.448
404.94	0.389
405.16	0.403
405.37	0.311
405.59	0.584
405.80	0.342
406.02	0.420
406.23	0.422
406.45	0.464
406.66	0.492
406.88	0.310
407.09	0.477
407.31	0.381
407.52	0.462
407.74	0.386
407.95	0.465
408.17	0.433
408.38	0.448
408.60	0.294
408.81	0.510
409.03	0.375
409.24	0.375
409.45	0.440
409.67	0.409
409.88	0.381
410.10	0.471
410.31	0.389
410.53	0.363
410.74	0.514
410.96	0.496
411.17	0.506
411.39	0.390
411.60	0.366
411.82	0.427
412.03	0.410
412.24	0.389
412.46	0.565
412.67	0.458
412.89	0.465
413.10	0.461
413.32	0.425
413.53	0.502
413.75	0.523
413.96	0.393
414.17	0.523
414.39	0.535
414.60	0.431
414.82	0.557
415.03	0.425
415.25	0.482
415.46	0.331
415.68	0.473
415.89	0.874
416.10	0.685
416.32	0.377
416.53	0.447
416.75	0.423
416.96	0.517
417.18	0.451
417.39	0.437
417.60	0.434
417.82	0.656
418.03	0.551
418.25	0.453
418.46	0.468
418.67	0.426
418.89	0.463
419.10	0.482
419.32	0.659
419.53	0.608
419.75	0.512
419.96	0.447
420.17	0.549
420.39	0.518
420.60	0.550
420.82	0.696
421.03	0.547
421.24	0.458
421.46	0.507
421.67	0.543
421.89	0.465
422.10	0.505
422.31	0.497
422.53	0.714
422.74	0.512
422.96	0.399
423.17	0.445
423.38	0.534
423.60	0.447
423.81	0.553
424.03	0.480
424.24	0.530
424.45	0.520
424.67	0.517
424.88	0.458
425.09	0.511
425.31	0.481
425.52	0.511
425.74	0.581
425.95	0.638
426.16	0.494
426.38	0.570
426.59	0.527
426.80	0.610
427.02	0.641
427.23	0.499
427.45	0.635
427.66	0.609
427.87	0.472
428.09	0.499
428.30	0.556
428.51	0.550
428.73	0.608
428.94	0.540
429.15	0.526
429.37	0.505
429.58	0.535
429.79	0.497
430.01	0.602
430.22	0.593
430.44	0.617
430.65	0.550
430.86	0.597
431.08	0.577
431.29	0.528
431.50	0.619
431.72	0.818
431.93	0.658
432.14	0.510
432.36	0.554
432.57	0.573
432.78	0.586
433.00	0.543
433.21	0.531
433.42	0.661
433.64	0.572
433.85	0.653
434.06	0.541
434.28	0.576
434.49	0.584
434.70	0.604
434.92	0.614
435.13	0.670
435.34	0.675
435.56	0.638
435.77	0.632
435.98	0.817
436.20	0.679
436.41	0.575
436.62	0.562
436.83	0.641
437.05	0.714
437.26	0.633
437.47	0.551
437.69	0.604
437.90	0.550
438.11	0.547
438.33	0.598
438.54	0.613
438.75	0.790
438.97	0.782
439.18	0.585
439.39	0.616
439.60	0.667
439.82	0.627
440.03	0.580
440.24	0.860
440.46	0.645
440.67	0.622
440.88	0.670
441.10	0.621
441.31	0.616
441.52	0.666
441.73	0.745
441.95	0.652
442.16	0.611
442.37	0.968
442.58	0.596
442.80	0.577
443.01	0.753
443.22	0.693
443.44	0.589
443.65	0.696
443.86	0.695
444.07	0.746
444.29	0.645
444.50	0.806
444.71	0.610
444.92	0.569
445.14	0.721
445.35	0.759
445.56	0.594
445.78	0.693
445.99	0.690
446.20	0.600
446.41	0.678
446.63	0.681
446.84	0.646
447.05	0.649
447.26	0.776
447.48	0.665
447.69	0.627
447.90	0.719
448.11	0.640
448.33	0.668
448.54	0.687
448.75	0.710
448.96	0.720
449.18	0.760
449.39	0.679
449.60	0.669
449.81	0.801
450.03	0.697
450.24	0.753
450.45	0.709
450.66	0.692
450.87	0.722
451.09	0.679
451.30	0.658
451.51	0.727
451.72	0.738
451.94	0.755
452.15	0.824
452.36	0.685
452.57	0.701
452.78	0.704
453.00	0.735
453.21	0.697
453.42	0.667
453.63	0.764
453.85	0.733
454.06	0.726
454.27	0.853
454.48	0.762
454.69	0.690
454.91	0.764
455.12	0.667
455.33	0.747
455.54	0.756
455.75	0.732
455.97	0.757
456.18	0.755
456.39	0.764
456.60	0.788
456.81	0.722
457.03	0.735
457.24	0.731
457.45	0.824
457.66	0.767
457.87	0.731
458.09	0.752
458.30	0.662
458.51	0.782
458.72	0.805
458.93	0.812
459.15	0.717
459.36	0.779
459.57	0.804
459.78	0.848
459.99	0.757
460.20	0.717
460.42	0.792
460.63	0.751
460.84	0.729
461.05	0.749
461.26	0.807
461.47	0.727
461.69	0.780
461.90	0.813
462.11	0.771
462.32	0.827
462.53	0.767
462.74	0.869
462.96	0.751
463.17	0.742
463.38	0.785
463.59	0.896
463.80	0.747
464.01	0.772
464.23	0.856
464.44	0.811
464.65	0.817
464.86	0.840
465.07	0.838
465.28	0.804
465.49	0.827
465.71	0.779
465.92	0.817
466.13	0.863
466.34	0.794
466.55	0.850
466.76	0.817
466.97	0.839
467.19	0.829
467.40	0.866
467.61	0.870
467.82	0.788
468.03	0.773
468.24	0.834
468.45	0.865
468.66	0.853
468.88	0.860
469.09	0.863
469.30	0.907
469.51	0.836
469.72	0.882
469.93	0.850
470.14	0.832
470.35	0.922
470.57	0.877
470.78	0.821
470.99	0.952
471.20	0.883
471.41	0.845
471.62	0.898
471.83	0.868
472.04	0.893
472.25	0.940
472.47	0.858
472.68	0.866
472.89	0.871
473.10	0.909
473.31	0.860
473.52	0.928
473.73	0.949
473.94	0.870
474.15	0.897
474.36	0.897
474.57	0.922
474.79	0.894
475.00	0.890
475.21	0.877
475.42	0.969
475.63	0.873
475.84	0.899
476.05	0.901
476.26	0.873
476.47	0.906
476.68	0.950
476.89	0.881
477.10	0.927
477.32	0.915
477.53	0.966
477.74	0.884
477.95	0.922
478.16	0.875
478.37	0.917
478.58	0.919
478.79	0.932
479.00	0.936
479.21	0.892
479.42	0.932
479.63	0.938
479.84	0.903
480.05	0.901
480.26	0.929
480.47	0.946
480.69	0.946
480.90	0.916
481.11	0.912
481.32	0.970
481.53	0.918
481.74	0.970
481.95	0.938
482.16	0.953
482.37	0.967
482.58	0.933
482.79	0.954
483.00	0.986
483.21	0.926
483.42	0.903
483.63	0.979
483.84	1.003
484.05	0.988
484.26	0.961
484.47	0.955
484.68	0.917
484.89	0.923
485.10	0.967
485.31	0.943
485.52	0.953
485.73	0.953
485.94	0.994
486.15	0.943
486.37	0.961
486.58	0.925
486.79	0.939
487.00	0.989
487.21	0.980
487.42	0.973
487.63	0.980
487.84	1.000
488.05	0.991
488.26	0.949
488.47	0.954
488.68	0.983
488.89	0.960
489.10	0.955
489.31	0.962
489.52	0.996
489.73	0.964
489.94	0.998
490.15	0.954
490.36	0.995
490.57	0.948
490.78	0.933
490.99	0.969
491.20	1.042
491.41	1.001
491.62	0.947
491.83	0.972
492.04	0.970
492.25	0.977
492.45	0.977
492.66	1.002
492.87	0.992
493.08	0.980
493.29	0.963
493.50	0.954
493.71	0.961
493.92	0.960
494.13	0.976
494.34	0.994
494.55	1.001
494.76	1.030
494.97	1.018
495.18	0.985
495.39	0.999
495.60	0.954
495.81	0.958
496.02	0.976
496.23	0.967
496.44	0.996
496.65	0.989
496.86	0.994
497.07	1.021
497.28	1.018
497.49	0.969
497.70	0.972
497.91	0.990
498.12	0.972
498.32	1.015
498.53	1.002
498.74	0.993
498.95	1.017
499.16	0.975
499.37	0.978
499.58	0.987
499.79	1.016
500.00	1.012
500.21	1.041
500.42	0.986
500.63	0.987
500.84	1.007
501.05	0.986
501.26	1.009
501.46	1.047
501.67	1.007
501.88	1.011
502.09	0.988
502.30	0.994
502.51	1.041
502.72	0.996
502.93	1.012
503.14	1.032
503.35	1.005
503.56	1.004
503.77	1.033
503.97	1.011
504.18	1.009
504.39	1.041
504.60	1.013
504.81	1.039
505.02	1.029
505.23	1.030
505.44	1.012
505.65	1.018
505.86	1.000
506.07	1.062
506.27	1.022
506.48	1.028
506.69	1.012
506.90	1.032
507.11	1.028
507.32	1.005
507.53	1.012
507.74	1.005
507.95	1.018
508.15	1.021
508.36	1.025
508.57	1.035
508.78	1.020
508.99	1.019
509.20	0.996
509.41	1.019
509.62	1.006
509.82	1.003
510.03	1.014
510.24	1.015
510.45	1.038
510.66	1.030
510.87	1.025
511.08	0.984
511.29	1.025
511.49	1.002
511.70	1.046
511.91	0.986
512.12	0.985
512.33	1.017
512.54	1.031
512.75	1.012
512.95	1.038
513.16	1.034
513.37	1.014
513.58	1.052
513.79	1.019
514.00	1.023
514.20	1.042
514.41	1.030
514.62	0.996
514.83	1.037
515.04	1.030
515.25	1.009
515.46	1.020
515.66	1.023
515.87	1.034
516.08	1.002
516.29	1.026
516.50	1.005
516.71	1.000
516.91	1.010
517.12	1.025
517.33	1.010
517.54	0.997
517.75	0.997
517.95	1.007
518.16	1.017
518.37	0.984
518.58	0.988
518.79	0.964
519.00	0.994
519.20	1.001
519.41	0.977
519.62	0.996
519.83	1.006
520.04	0.973
520.24	0.972
520.45	0.980
520.66	1.003
520.87	0.969
521.08	0.969
521.28	0.973
521.49	0.991
521.70	0.961
521.91	0.974
522.12	0.955
522.32	0.979
522.53	0.960
522.74	0.951
522.95	0.959
523.16	0.961
523.36	0.969
523.57	0.950
523.78	0.944
523.99	0.948
524.20	0.941
524.40	0.954
524.61	0.959
524.82	0.935
525.03	0.938
525.23	0.938
525.44	0.924
525.65	0.922
525.86	0.943
526.06	0.915
526.27	0.916
526.48	0.928
526.69	0.909
526.90	0.913
527.10	0.946
527.31	0.905
527.52	0.899
527.73	0.893
527.93	0.904
528.14	0.909
528.35	0.900
528.56	0.900
528.76	0.892
528.97	0.883
529.18	0.874
529.39	0.875
529.59	0.877
529.80	0.907
530.01	0.880
530.22	0.878
530.42	0.849
530.63	0.865
530.84	0.845
531.05	0.858
531.25	0.860
531.46	0.852
531.67	0.832
531.88	0.849
532.08	0.843
532.29	0.838
532.50	0.831
532.70	0.824
532.91	0.815
533.12	0.818
533.33	0.842
533.53	0.815
533.74	0.815
533.95	0.821
534.15	0.809
534.36	0.810
534.57	0.794
534.78	0.796
534.98	0.807
535.19	0.778
535.40	0.779
535.60	0.796
535.81	0.776
536.02	0.780
536.23	0.771
536.43	0.773
536.64	0.761
536.85	0.767
537.05	0.775
537.26	0.753
537.47	0.755
537.67	0.746
537.88	0.740
538.09	0.747
538.30	0.735
538.50	0.727
538.71	0.737
538.92	0.725
539.12	0.721
539.33	0.715
539.54	0.715
539.74	0.719
539.95	0.710
540.16	0.708
540.36	0.699
540.57	0.699
540.78	0.692
540.98	0.691
541.19	0.688
541.40	0.677
541.60	0.687
541.81	0.682
542.02	0.682
542.22	0.672
542.43	0.668
542.64	0.663
542.84	0.662
543.05	0.653
543.26	0.653
543.46	0.657
543.67	0.656
543.88	0.651
544.08	0.642
544.29	0.637
544.50	0.636
544.70	0.637
544.91	0.628
545.12	0.631
545.32	0.627
545.53	0.631
545.74	0.619
545.94	0.616
546.15	0.613
546.35	0.610
546.56	0.606
546.77	0.604
546.97	0.601
547.18	0.594
547.39	0.594
547.59	0.592
547.80	0.588
548.01	0.592
548.21	0.587
548.42	0.579
548.62	0.578
548.83	0.575
549.04	0.572
549.24	0.565
549.45	0.564
549.65	0.560
549.86	0.556
550.07	0.555
550.27	0.554
550.48	0.562
550.69	0.548
550.89	0.548
551.10	0.544
551.30	0.541
551.51	0.541
551.72	0.531
551.92	0.533
552.13	0.532
552.33	0.534
552.54	0.528
552.75	0.521
552.95	0.522
553.16	0.518
553.36	0.516
553.57	0.514
553.78	0.512
553.98	0.512
554.19	0.503
554.39	0.499
554.60	0.502
554.80	0.501
555.01	0.494
555.22	0.496
555.42	0.493
555.63	0.487
555.83	0.491
556.04	0.485
556.25	0.487
556.45	0.478
556.66	0.477
556.86	0.480
557.07	0.478
557.27	0.477
557.48	0.471
557.68	0.469
557.89	0.470
558.10	0.466
558.30	0.463
558.51	0.461
558.71	0.458
558.92	0.454
559.12	0.455
559.33	0.458
559.54	0.453
559.74	0.449
559.95	0.446
560.15	0.446
560.36	0.444
560.56	0.439
560.77	0.439
560.97	0.439
561.18	0.434
561.38	0.433
561.59	0.435
561.79	0.431
562.00	0.429
562.21	0.426
562.41	0.424
562.62	0.423
562.82	0.421
563.03	0.418
563.23	0.418
563.44	0.417
563.64	0.413
563.85	0.414
564.05	0.408
564.26	0.407
564.46	0.406
564.67	0.407
564.87	0.402
565.08	0.400
565.28	0.399
565.49	0.399
565.69	0.397
565.90	0.394
566.10	0.396
566.31	0.390
566.51	0.391
566.72	0.392
566.92	0.386
567.13	0.385
567.33	0.384
567.54	0.383
567.74	0.382
567.95	0.378
568.15	0.379
568.36	0.379
568.56	0.377
568.77	0.372
568.97	0.371
569.18	0.371
569.38	0.369
569.59	0.370
569.79	0.368
570.00	0.366
570.20	0.365
570.41	0.362
570.61	0.361
570.82	0.362
571.02	0.358
571.23	0.360
571.43	0.356
571.64	0.354
571.84	0.353
572.05	0.351
572.25	0.351
572.45	0.349
572.66	0.346
572.86	0.345
573.07	0.344
573.27	0.344
573.48	0.343
573.68	0.339
573.89	0.339
574.09	0.340
574.30	0.338
574.50	0.336
574.70	0.337
574.91	0.334
575.11	0.334
575.32	0.334
575.52	0.329
575.73	0.329
575.93	0.328
576.14	0.327
576.34	0.324
576.54	0.323
576.75	0.321
576.95	0.320
577.16	0.318
577.36	0.316
577.57	0.316
577.77	0.315
577.97	0.312
578.18	0.314
578.38	0.311
578.59	0.309
578.79	0.308
579.00	0.309
579.20	0.307
579.40	0.307
579.61	0.306
579.81	0.305
580.02	0.303
580.22	0.302
580.42	0.301
580.63	0.301
580.83	0.300
581.04	0.298
581.24	0.298
581.45	0.296
581.65	0.296
581.85	0.295
582.06	0.293
582.26	0.293
582.47	0.292
582.67	0.292
582.87	0.291
583.08	0.288
583.28	0.289
583.48	0.287
583.69	0.284
583.89	0.284
584.10	0.285
584.30	0.283
584.50	0.281
584.71	0.280
584.91	0.279
585.12	0.277
585.32	0.278
585.52	0.275
585.73	0.274
585.93	0.274
586.13	0.273
586.34	0.272
586.54	0.271
586.75	0.270
586.95	0.269
587.15	0.269
587.36	0.268
587.56	0.267
587.76	0.266
587.97	0.265
588.17	0.264
588.37	0.263
588.58	0.263
588.78	0.260
588.98	0.260
589.19	0.259
589.39	0.258
589.60	0.259
589.80	0.257
590.00	0.256
590.21	0.257
590.41	0.255
590.61	0.255
590.82	0.255
591.02	0.254
591.22	0.252
591.43	0.253
591.63	0.251
591.83	0.251
592.04	0.249
592.24	0.249
592.44	0.247
592.65	0.246
592.85	0.246
593.05	0.246
593.26	0.245
593.46	0.244
593.66	0.244
593.86	0.244
594.07	0.242
594.27	0.242
594.47	0.240
594.68	0.239
594.88	0.240
595.08	0.239
595.29	0.239
595.49	0.237
595.69	0.236
595.90	0.235
596.10	0.235
596.30	0.234
596.50	0.233
596.71	0.233
596.91	0.232
597.11	0.231
597.32	0.231
597.52	0.230
597.72	0.229
597.93	0.229
598.13	0.228
598.33	0.228
598.53	0.227
598.74	0.226
598.94	0.226
599.14	0.226
599.35	0.226
599.55	0.226
599.75	0.224
599.95	0.223
600.16	0.224
600.36	0.222
600.56	0.223
600.76	0.222
600.97	0.220
601.17	0.219
601.37	0.220
601.58	0.218
601.78	0.218
601.98	0.217
602.18	0.216
602.39	0.216
602.59	0.216
602.79	0.215
602.99	0.215
603.20	0.213
603.40	0.214
603.60	0.213
603.80	0.213
604.01	0.212
604.21	0.211
604.41	0.211
604.61	0.210
604.82	0.210
605.02	0.210
605.22	0.209
605.42	0.209
605.62	0.208
605.83	0.208
606.03	0.207
606.23	0.208
606.43	0.207
606.64	0.207
606.84	0.206
607.04	0.205
607.24	0.205
607.45	0.204
607.65	0.203
607.85	0.204
608.05	0.202
608.25	0.202
608.46	0.201
608.66	0.202
608.86	0.201
609.06	0.200
609.26	0.199
609.47	0.200
609.67	0.199
609.87	0.200
610.07	0.198
610.28	0.197
610.48	0.197
610.68	0.197
610.88	0.196
611.08	0.196
611.29	0.195
611.49	0.194
611.69	0.195
611.89	0.193
612.09	0.193
612.29	0.192
612.50	0.192
612.70	0.191
612.90	0.190
613.10	0.190
613.30	0.189
613.51	0.189
613.71	0.189
613.91	0.193
614.11	0.188
614.31	0.188
614.51	0.188
614.72	0.187
614.92	0.187
615.12	0.187
615.32	0.187
615.52	0.187
615.72	0.187
615.93	0.187
616.13	0.186
616.33	0.186
616.53	0.185
616.73	0.185
616.93	0.184
617.14	0.185
617.34	0.184
617.54	0.184
617.74	0.184
617.94	0.183
618.14	0.182
618.34	0.181
618.55	0.181
618.75	0.182
618.95	0.182
619.15	0.182
619.35	0.181
619.55	0.180
619.75	0.180
619.96	0.180
620.16	0.180
620.36	0.180
620.56	0.179
620.76	0.179
620.96	0.178
621.16	0.178
621.36	0.178
621.57	0.178
621.77	0.178
621.97	0.177
622.17	0.177
622.37	0.177
622.57	0.177
622.77	0.177
622.97	0.176
623.18	0.176
623.38	0.176
623.58	0.176
623.78	0.175
623.98	0.174
624.18	0.174
624.38	0.174
624.58	0.174
624.78	0.174
624.98	0.174
625.19	0.173
625.39	0.173
625.59	0.173
625.79	0.173
625.99	0.172
626.19	0.172
626.39	0.172
626.59	0.172
626.79	0.172
626.99	0.172
627.19	0.171
627.40	0.171
627.60	0.171
627.80	0.171
628.00	0.170
628.20	0.170
628.40	0.170
628.60	0.170
628.80	0.168
629.00	0.169
629.20	0.168
629.40	0.168
629.60	0.167
629.80	0.167
630.00	0.167
630.20	0.167
630.41	0.166
630.61	0.166
630.81	0.166
631.01	0.166
631.21	0.165
631.41	0.165
631.61	0.166
631.81	0.165
632.01	0.165
632.21	0.165
632.41	0.164
632.61	0.164
632.81	0.164
633.01	0.164
633.21	0.164
633.41	0.164
633.61	0.163
633.81	0.163
634.01	0.162
634.21	0.162
634.41	0.161
634.61	0.161
634.81	0.161
635.01	0.160
635.22	0.161
635.42	0.160
635.62	0.160
635.82	0.161
636.02	0.160
636.22	0.160
636.42	0.159
636.62	0.160
636.82	0.160
637.02	0.160
637.22	0.160
637.42	0.160
637.62	0.159
637.82	0.159
638.02	0.159
638.22	0.158
638.42	0.158
638.62	0.158
638.82	0.157
639.02	0.157
639.22	0.156
639.42	0.155
639.62	0.155
639.82	0.154
640.02	0.154
640.22	0.154
640.42	0.154
640.62	0.154
640.82	0.154
641.02	0.154
641.22	0.154
641.42	0.153
641.61	0.154
641.81	0.154
642.01	0.154
642.21	0.154
642.41	0.153
642.61	0.153
642.81	0.152
643.01	0.151
643.21	0.151
643.41	0.152
643.61	0.151
643.81	0.151
644.01	0.149
644.21	0.149
644.41	0.149
644.61	0.149
644.81	0.149
645.01	0.149
645.21	0.149
645.41	0.149
645.61	0.148
645.81	0.148
646.01	0.148
646.21	0.149
646.40	0.148
646.60	0.148
646.80	0.149
647.00	0.148
647.20	0.147
647.40	0.147
647.60	0.147
647.80	0.146
648.00	0.147
648.20	0.146
648.40	0.146
648.60	0.145
648.80	0.145
649.00	0.145
649.20	0.145
649.39	0.145
649.59	0.145
649.79	0.145
649.99	0.145
650.19	0.144
650.39	0.144
650.59	0.144
650.79	0.144
650.99	0.144
651.19	0.144
651.39	0.144
651.58	0.144
651.78	0.143
651.98	0.142
652.18	0.143
652.38	0.142
652.58	0.142
652.78	0.142
652.98	0.142
653.18	0.142
653.38	0.142
653.57	0.142
653.77	0.142
653.97	0.141
654.17	0.142
654.37	0.141
654.57	0.141
654.77	0.141
654.97	0.141
655.16	0.140
655.36	0.139
655.56	0.139
655.76	0.138
655.96	0.139
656.16	0.137
656.36	0.138
656.56	0.137
656.75	0.137
656.95	0.136
657.15	0.136
657.35	0.136
657.55	0.135
657.75	0.136
657.95	0.135
658.14	0.135
658.34	0.135
658.54	0.134
658.74	0.134
658.94	0.133
659.14	0.134
659.34	0.133
659.53	0.133
659.73	0.133
659.93	0.132
660.13	0.132
660.33	0.132
660.53	0.131
660.72	0.132
660.92	0.132
661.12	0.131
661.32	0.132
661.52	0.131
661.72	0.131
661.91	0.130
662.11	0.131
662.31	0.131
662.51	0.130
662.71	0.130
662.90	0.129
663.10	0.129
663.30	0.129
663.50	0.129
663.70	0.129
663.90	0.129
664.09	0.129
664.29	0.128
664.49	0.128
664.69	0.128
664.89	0.128
665.08	0.128
665.28	0.127
665.48	0.127
665.68	0.126
665.88	0.126
666.07	0.126
666.27	0.126
666.47	0.126
666.67	0.126
666.87	0.126
667.06	0.125
667.26	0.125
667.46	0.125
667.66	0.125
667.85	0.125
668.05	0.125
668.25	0.125
668.45	0.125
668.65	0.125
668.84	0.125
669.04	0.125
669.24	0.124
669.44	0.124
669.63	0.123
669.83	0.124
670.03	0.122
670.23	0.122
670.42	0.122
670.62	0.121
670.82	0.121
671.02	0.120
671.22	0.119
671.41	0.119
671.61	0.120
671.81	0.120
672.01	0.120
672.20	0.120
672.40	0.119
672.60	0.119
672.80	0.120
672.99	0.120
673.19	0.119
673.39	0.119
673.58	0.119
673.78	0.119
673.98	0.119
674.18	0.118
674.37	0.117
674.57	0.117
674.77	0.117
674.97	0.117
675.16	0.117
675.36	0.116
675.56	0.116
675.75	0.116
675.95	0.115
676.15	0.115
676.35	0.115
676.54	0.115
676.74	0.115
676.94	0.115
677.13	0.114
677.33	0.114
677.53	0.114
677.73	0.114
677.92	0.114
678.12	0.114
678.32	0.113
678.51	0.113
678.71	0.113
678.91	0.112
679.11	0.112
679.30	0.112
679.50	0.112
679.70	0.111
679.89	0.111
680.09	0.111
680.29	0.110
680.48	0.111
680.68	0.110
680.88	0.111
681.07	0.111
681.27	0.110
681.47	0.110
681.66	0.111
681.86	0.110
682.06	0.110
682.25	0.110
682.45	0.110
682.65	0.110
682.84	0.110
683.04	0.109
683.24	0.109
683.43	0.109
683.63	0.108
683.83	0.108
684.02	0.108
684.22	0.108
684.42	0.108
684.61	0.108
684.81	0.108
685.01	0.108
685.20	0.107
685.40	0.107
685.60	0.107
685.79	0.107
685.99	0.107
686.19	0.107
686.38	0.107
686.58	0.107
686.77	0.107
686.97	0.106
687.17	0.106
687.36	0.106
687.56	0.105
687.76	0.105
687.95	0.105
688.15	0.104
688.34	0.104
688.54	0.103
688.74	0.103
688.93	0.103
689.13	0.103
689.33	0.103
689.52	0.103
689.72	0.103
689.91	0.103
690.11	0.103
690.31	0.102
690.50	0.103
690.70	0.103
690.89	0.102
691.09	0.102
691.29	0.102
691.48	0.102
691.68	0.102
691.87	0.102
692.07	0.102
692.27	0.101
692.46	0.101
692.66	0.101
692.85	0.101
693.05	0.101
693.25	0.101
693.44	0.100
693.64	0.100
693.83	0.100
694.03	0.099
694.22	0.098
694.42	0.098
694.62	0.099
694.81	0.099
695.01	0.099
695.20	0.098
695.40	0.098
695.59	0.098
695.79	0.098
695.99	0.098
696.18	0.098
696.38	0.098
696.57	0.098
696.77	0.098
696.96	0.098
697.16	0.098
697.36	0.098
697.55	0.098
697.75	0.098
697.94	0.097
698.14	0.097
698.33	0.097
698.53	0.096
698.72	0.097
698.92	0.096
699.11	0.096
699.31	0.096
699.51	0.096
699.70	0.096
699.90	0.095
700.09	0.095
700.29	0.095
700.48	0.095
700.68	0.095
700.87	0.095
701.07	0.095
701.26	0.094
701.46	0.094
701.65	0.094
701.85	0.094
702.04	0.093
702.24	0.093
702.43	0.093
702.63	0.093
702.82	0.093
703.02	0.093
703.21	0.093
703.41	0.093
703.60	0.093
703.80	0.093
703.99	0.093
704.19	0.093
704.38	0.093
704.58	0.092
704.77	0.092
704.97	0.092
705.16	0.092
705.36	0.092
705.55	0.092
705.75	0.092
705.94	0.092
706.14	0.092
706.33	0.092
706.53	0.092
706.72	0.093
706.92	0.092
707.11	0.092
707.31	0.092
707.50	0.092
707.70	0.092
707.89	0.092
708.09	0.092
708.28	0.091
708.48	0.091
708.67	0.091
708.86	0.091
709.06	0.091
709.25	0.091
709.45	0.090
709.64	0.090
709.84	0.090
710.03	0.089
710.23	0.089
710.42	0.089
710.62	0.089
710.81	0.089
711.00	0.089
711.20	0.089
711.39	0.088
711.59	0.088
711.78	0.088
711.98	0.088
712.17	0.088
712.37	0.088
712.56	0.088
712.75	0.089
712.95	0.089
713.14	0.089
713.34	0.089
713.53	0.089
713.73	0.090
713.92	0.090
714.11	0.089
714.31	0.090
714.50	0.090
714.70	0.090
714.89	0.089
715.08	0.089
715.28	0.089
715.47	0.089
715.67	0.089
715.86	0.088
716.06	0.089
716.25	0.088
716.44	0.088
716.64	0.088
716.83	0.088
717.03	0.087
717.22	0.087
717.41	0.087
717.61	0.087
717.80	0.087
717.99	0.087
718.19	0.087
718.38	0.087
718.58	0.087
718.77	0.087
718.96	0.087
719.16	0.087
719.35	0.087
719.55	0.087
719.74	0.087
719.93	0.087
720.13	0.086
720.32	0.086
720.51	0.086
720.71	0.085
720.90	0.086
721.10	0.085
721.29	0.085
721.48	0.085
721.68	0.085
721.87	0.085
722.06	0.085
722.26	0.086
722.45	0.086
722.64	0.086
722.84	0.086
723.03	0.086
723.22	0.086
723.42	0.086
723.61	0.086
723.80	0.086
724.00	0.086
724.19	0.086
724.38	0.086
724.58	0.086
724.77	0.086
724.96	0.085
725.16	0.085
725.35	0.085
725.54	0.085
725.74	0.085
725.93	0.085
726.12	0.085
726.32	0.085
726.51	0.085
726.70	0.085
726.90	0.085
727.09	0.085
727.28	0.085
727.48	0.085
727.67	0.085
727.86	0.085
728.06	0.085
728.25	0.085
728.44	0.085
728.64	0.085
728.83	0.085
729.02	0.085
729.21	0.085
729.41	0.085
729.60	0.085
729.79	0.085
729.99	0.085
730.18	0.085
730.37	0.084
730.56	0.084
730.76	0.084
730.95	0.084
731.14	0.084
731.34	0.084
731.53	0.084
731.72	0.084
731.91	0.084
732.11	0.084
732.30	0.085
732.49	0.085
732.69	0.085
732.88	0.085
733.07	0.085
733.26	0.086
733.46	0.085
733.65	0.085
733.84	0.085
734.03	0.085
734.23	0.085
734.42	0.085
734.61	0.085
734.80	0.085
735.00	0.085
735.19	0.085
735.38	0.085
735.57	0.085
735.77	0.085
735.96	0.085
736.15	0.085
736.34	0.085
736.54	0.085
736.73	0.085
736.92	0.085
737.11	0.085
737.31	0.085
737.50	0.085
737.69	0.085
737.88	0.085
738.07	0.085
738.27	0.085
738.46	0.085
738.65	0.085
738.84	0.085
739.04	0.085
739.23	0.085
739.42	0.085
739.61	0.085
739.80	0.085
740.00	0.085
740.19	0.085
740.38	0.085
740.57	0.084
740.76	0.084
740.96	0.084
741.15	0.084
741.34	0.084
741.53	0.084
741.72	0.084
741.92	0.084
742.11	0.084
742.30	0.084
742.49	0.084
742.68	0.084
742.88	0.084
743.07	0.084
743.26	0.084
743.45	0.084
743.64	0.084
743.84	0.083
744.03	0.083
744.22	0.083
744.41	0.083
744.60	0.082
744.79	0.082
744.99	0.082
745.18	0.082
745.37	0.082
745.56	0.082
745.75	0.082
745.94	0.081
746.14	0.082
746.33	0.082
746.52	0.082
746.71	0.082
746.90	0.082
747.09	0.082
747.28	0.082
747.48	0.082
747.67	0.082
747.86	0.082
748.05	0.082
748.24	0.082
748.43	0.082
748.62	0.082
748.82	0.082
749.01	0.081
749.20	0.081
749.39	0.081
749.58	0.081
749.77	0.081
749.96	0.081
750.16	0.081
750.35	0.081
750.54	0.081
750.73	0.081
750.92	0.082
751.11	0.081
751.30	0.082
751.49	0.082
751.68	0.081
751.88	0.081
752.07	0.081
752.26	0.081
752.45	0.081
752.64	0.081
752.83	0.081
753.02	0.081
753.21	0.081
753.40	0.080
753.60	0.081
753.79	0.081
753.98	0.080
754.17	0.081
754.36	0.080
754.55	0.080
754.74	0.081
754.93	0.080
755.12	0.080
755.31	0.081
755.50	0.080
755.70	0.080
755.89	0.080
756.08	0.080
756.27	0.080
756.46	0.080
756.65	0.080
756.84	0.079
757.03	0.079
757.22	0.079
757.41	0.079
757.60	0.079
757.79	0.079
757.98	0.079
758.17	0.079
758.36	0.079
758.56	0.078
758.75	0.078
758.94	0.079
759.13	0.079
759.32	0.079
759.51	0.079
759.70	0.079
759.89	0.079
760.08	0.079
760.27	0.079
760.46	0.079
760.65	0.079
760.84	0.079
761.03	0.079
761.22	0.079
761.41	0.079
761.60	0.079
761.79	0.079
761.98	0.078
762.17	0.078
762.36	0.078
762.55	0.077
762.74	0.077
762.93	0.077
763.12	0.077
763.31	0.077
763.50	0.077
763.69	0.077
763.88	0.077
764.07	0.077
764.26	0.077
764.45	0.077
764.64	0.078
764.83	0.077
765.02	0.078
765.21	0.077
765.40	0.077
765.59	0.077
765.78	0.077
765.97	0.078
766.16	0.078
766.35	0.077
766.54	0.077
766.73	0.077
766.92	0.077
767.11	0.076
767.30	0.077
767.49	0.077
767.68	0.077
767.87	0.077
768.06	0.077
768.25	0.076
768.44	0.076
768.63	0.076
768.82	0.076
769.01	0.076
769.20	0.076
769.39	0.076
769.58	0.076
769.77	0.076
769.96	0.075
770.15	0.075
770.34	0.076
770.53	0.075
770.72	0.075
770.91	0.075
771.10	0.075
771.29	0.075
771.47	0.075
771.66	0.075
771.85	0.075
772.04	0.075
772.23	0.075
772.42	0.075
772.61	0.075
772.80	0.075
772.99	0.075
773.18	0.075
773.37	0.075
773.56	0.075
773.75	0.075
773.94	0.075
774.13	0.075
774.31	0.075
774.50	0.075
774.69	0.075
774.88	0.075
775.07	0.075
775.26	0.075
775.45	0.074
775.64	0.074
775.83	0.074
776.02	0.074
776.21	0.074
776.40	0.074
776.58	0.074
776.77	0.075
776.96	0.075
777.15	0.075
777.34	0.075
777.53	0.075
777.72	0.075
777.91	0.075
778.10	0.075
778.28	0.075
778.47	0.075
778.66	0.074
778.85	0.074
779.04	0.074
779.23	0.074
779.42	0.074
779.61	0.074
779.79	0.073
779.98	0.073
780.17	0.074
780.36	0.073
780.55	0.073
780.74	0.073
780.93	0.073
781.12	0.073
781.30	0.073
781.49	0.073
781.68	0.073
781.87	0.073
782.06	0.073
782.25	0.073
782.44	0.073
782.62	0.073
782.81	0.074
783.00	0.073
783.19	0.073
783.38	0.073
783.57	0.073
783.75	0.072
783.94	0.073
784.13	0.073
784.32	0.073
784.51	0.072
784.70	0.072
784.88	0.072
785.07	0.072
785.26	0.072
785.45	0.072
785.64	0.072
785.83	0.072
786.01	0.072
786.20	0.072
786.39	0.072
786.58	0.072
786.77	0.072
786.95	0.072
787.14	0.072
787.33	0.072
787.52	0.072
787.71	0.072
787.90	0.072
788.08	0.072
788.27	0.072
788.46	0.071
788.65	0.072
788.84	0.072
789.02	0.072
789.21	0.072
789.40	0.071
789.59	0.071
789.77	0.071
789.96	0.071
790.15	0.071
790.34	0.071
790.53	0.071
790.71	0.071
790.90	0.071
791.09	0.071
791.28	0.071
791.46	0.071
791.65	0.071
791.84	0.071
792.03	0.071
792.22	0.071
792.40	0.071
792.59	0.071
792.78	0.071
792.97	0.071
793.15	0.071
793.34	0.071
793.53	0.071
793.72	0.071
793.90	0.070
794.09	0.070
794.28	0.070
794.47	0.070
794.65	0.070
794.84	0.070
795.03	0.070
795.22	0.070
795.40	0.070
795.59	0.069
795.78	0.070
795.97	0.070
796.15	0.070
796.34	0.070
796.53	0.070
796.71	0.071
796.90	0.071
797.09	0.071
797.28	0.071
797.46	0.071
797.65	0.071
797.84	0.070
798.02	0.070
798.21	0.070
798.40	0.070
798.59	0.069
798.77	0.069
798.96	0.069
799.15	0.069
799.33	0.069
799.52	0.069
799.71	0.069
799.90	0.070
800.08	0.069
800.27	0.069
800.46	0.069
800.64	0.069
800.83	0.069
801.02	0.069
801.20	0.069
801.39	0.069
801.58	0.069
801.76	0.069
801.95	0.069
802.14	0.069
802.32	0.069
802.51	0.069
802.70	0.069
802.88	0.068
803.07	0.069
803.26	0.068
803.44	0.068
803.63	0.069
803.82	0.068
804.00	0.068
804.19	0.069
804.38	0.069
804.56	0.069
804.75	0.069
804.94	0.069
805.12	0.069
805.31	0.069
805.50	0.069
805.68	0.069
805.87	0.069
806.06	0.069
806.24	0.069
806.43	0.069
806.62	0.069
806.80	0.069
806.99	0.069
807.17	0.069
807.36	0.069
807.55	0.069
807.73	0.069
807.92	0.069
808.11	0.069
808.29	0.068
808.48	0.068
808.66	0.068
808.85	0.068
809.04	0.068
809.22	0.068
809.41	0.068
809.59	0.068
809.78	0.068
809.97	0.068
810.15	0.068
810.34	0.068
810.53	0.068
810.71	0.067
810.90	0.068
811.08	0.067
811.27	0.067
811.45	0.067
811.64	0.067
811.83	0.067
812.01	0.067
812.20	0.067
812.38	0.067
812.57	0.068
812.76	0.068
812.94	0.068
813.13	0.068
813.31	0.068
813.50	0.068
813.68	0.068
813.87	0.067
814.06	0.068
814.24	0.068
814.43	0.068
814.61	0.067
814.80	0.067
814.98	0.068
815.17	0.068
815.36	0.068
815.54	0.068
815.73	0.068
815.91	0.068
816.10	0.068
816.28	0.068
816.47	0.068
816.65	0.068
816.84	0.068
817.03	0.069
817.21	0.069
817.40	0.069
817.58	0.068
817.77	0.068
817.95	0.068
818.14	0.069
818.32	0.069
818.51	0.069
818.69	0.069
818.88	0.069
819.06	0.069
819.25	0.069
819.43	0.069
819.62	0.069
819.80	0.069
819.99	0.069
820.18	0.069
820.36	0.068
820.55	0.069
820.73	0.069
820.92	0.068
821.10	0.068
821.29	0.068
821.47	0.068
821.66	0.067
821.84	0.068
822.03	0.067
822.21	0.067
822.40	0.067
822.58	0.067
822.77	0.067
822.95	0.068
823.14	0.068
823.32	0.068
823.50	0.069
823.69	0.069
823.87	0.068
824.06	0.068
824.24	0.069
824.43	0.069
824.61	0.068
824.80	0.069
824.98	0.069
825.17	0.069
825.35	0.069
825.54	0.069
825.72	0.069
825.91	0.069
826.09	0.069
826.28	0.069
826.46	0.070
826.64	0.070
826.83	0.070
827.01	0.070
827.20	0.070
827.38	0.070
827.57	0.070
827.75	0.070
827.94	0.070
828.12	0.071
828.31	0.071
828.49	0.071
828.67	0.071
828.86	0.071
829.04	0.071
829.23	0.071
829.41	0.072
829.60	0.072
829.78	0.072
829.96	0.072
830.15	0.073
830.33	0.073
830.52	0.073
830.70	0.073
830.88	0.073
831.07	0.073
831.25	0.073
831.44	0.073
831.62	0.073
831.81	0.073
831.99	0.073
832.17	0.073
832.36	0.073
832.54	0.073
832.73	0.073
832.91	0.073
833.09	0.073
833.28	0.073
833.46	0.073
833.65	0.073
833.83	0.074
834.01	0.074
834.20	0.073
834.38	0.073
834.56	0.073
834.75	0.074
834.93	0.074
835.12	0.074
835.30	0.074
835.48	0.074
835.67	0.074
835.85	0.074
836.03	0.074
836.22	0.074
836.40	0.074
836.59	0.074
836.77	0.074
836.95	0.074
837.14	0.074
837.32	0.074
837.50	0.074
837.69	0.074
837.87	0.074
838.05	0.074
838.24	0.074
838.42	0.074
838.60	0.074
838.79	0.075
838.97	0.074
839.15	0.074
839.34	0.074
839.52	0.075
839.70	0.075
839.89	0.075
840.07	0.075
840.25	0.075
840.44	0.075
840.62	0.075
840.80	0.075
840.99	0.075
841.17	0.075
841.35	0.075
841.54	0.075
841.72	0.075
841.90	0.075
842.09	0.075
842.27	0.075
842.45	0.075
842.64	0.075
842.82	0.075
843.00	0.075
843.19	0.075
843.37	0.075
843.55	0.075
843.73	0.075
843.92	0.075
844.10	0.075
844.28	0.075
844.47	0.075
844.65	0.075
844.83	0.075
845.01	0.075
845.20	0.075
845.38	0.075
845.56	0.076
845.75	0.076
845.93	0.075
846.11	0.076
846.29	0.076
846.48	0.076
846.66	0.076
846.84	0.076
847.02	0.076
847.21	0.075
847.39	0.076
847.57	0.075
847.76	0.076
847.94	0.076
848.12	0.076
848.30	0.076
848.49	0.076
848.67	0.076
848.85	0.076
849.03	0.077
849.22	0.077
849.40	0.077
849.58	0.077
849.76	0.077
849.95	0.077
850.13	0.077
850.31	0.077
850.49	0.077
850.67	0.078
850.86	0.078
851.04	0.078
851.22	0.077
851.40	0.077
851.59	0.077
851.77	0.077
851.95	0.077
852.13	0.077
852.31	0.076
852.50	0.077
852.68	0.077
852.86	0.077
853.04	0.076
853.23	0.076
853.41	0.076
853.59	0.076
853.77	0.077
853.95	0.077
854.14	0.077
854.32	0.077
854.50	0.076
854.68	0.076
854.86	0.076
855.04	0.076
855.23	0.076
855.41	0.077
855.59	0.077
855.77	0.077
855.95	0.077
856.14	0.077
856.32	0.077
856.50	0.077
856.68	0.077
856.86	0.077
857.04	0.077
857.23	0.077
857.41	0.077
857.59	0.077
857.77	0.077
857.95	0.077
858.13	0.076
858.32	0.077
858.50	0.077
858.68	0.076
858.86	0.076
859.04	0.077
859.22	0.077
859.41	0.077
859.59	0.077
859.77	0.077
859.95	0.077
860.13	0.077
860.31	0.077
860.49	0.077
860.68	0.077
860.86	0.077
861.04	0.077
861.22	0.077
861.40	0.077
861.58	0.077
861.76	0.077
861.94	0.077
862.13	0.077
862.31	0.076
862.49	0.077
862.67	0.077
862.85	0.077
863.03	0.077
863.21	0.077
863.39	0.077
863.57	0.077
863.76	0.077
863.94	0.078
864.12	0.078
864.30	0.078
864.48	0.078
864.66	0.078
864.84	0.078
865.02	0.078
865.20	0.078
865.38	0.078
865.57	0.078
865.75	0.078
865.93	0.079
866.11	0.078
866.29	0.079
866.47	0.079
866.65	0.079
866.83	0.079
867.01	0.079
867.19	0.079
867.37	0.078
867.55	0.079
867.73	0.079
867.92	0.078
868.10	0.079
868.28	0.079
868.46	0.078
868.64	0.078
868.82	0.078
869.00	0.078
869.18	0.079
869.36	0.079
869.54	0.079
869.72	0.079
869.90	0.079
870.08	0.078
870.26	0.078
870.44	0.078
870.62	0.079
870.80	0.079
870.98	0.079
871.16	0.079
871.34	0.078
871.53	0.078
871.71	0.078
871.89	0.078
872.07	0.079
872.25	0.079
872.43	0.079
872.61	0.079
872.79	0.079
872.97	0.079
873.15	0.079
873.33	0.080
873.51	0.080
873.69	0.081
873.87	0.081
874.05	0.080
874.23	0.080
874.41	0.080
874.59	0.081
874.77	0.080
874.95	0.080
875.13	0.080
875.31	0.080
875.49	0.080
875.67	0.079
875.85	0.079
876.03	0.079
876.21	0.080
876.39	0.080
876.57	0.080
876.75	0.080
876.93	0.080
877.11	0.080
877.29	0.080
877.47	0.080
877.65	0.080
877.82	0.081
878.00	0.081
878.18	0.080
878.36	0.080
878.54	0.080
878.72	0.080
878.90	0.080
879.08	0.080
879.26	0.080
879.44	0.081
879.62	0.081
879.80	0.081
879.98	0.081
880.16	0.081
880.34	0.081
880.52	0.081
880.70	0.081
880.88	0.081
881.06	0.081
881.24	0.081
881.42	0.081
881.59	0.081
881.77	0.080
881.95	0.080
882.13	0.080
882.31	0.080
882.49	0.080
882.67	0.081
882.85	0.081
883.03	0.081
883.21	0.081
883.39	0.081
883.57	0.081
883.75	0.082
883.92	0.082
884.10	0.082
884.28	0.082
884.46	0.082
884.64	0.082
884.82	0.082
885.00	0.082
885.18	0.083
885.36	0.083
885.54	0.083
885.71	0.083
885.89	0.083
886.07	0.083
886.25	0.083
886.43	0.083
886.61	0.082
886.79	0.082
886.97	0.082
887.15	0.082
887.32	0.082
887.50	0.082
887.68	0.082
887.86	0.082
888.04	0.083
888.22	0.083
888.40	0.083
888.57	0.083
888.75	0.083
888.93	0.084
889.11	0.083
889.29	0.084
889.47	0.084
889.65	0.084
889.82	0.084
890.00	0.084
890.18	0.084
890.36	0.084
890.54	0.084
890.72	0.084
890.90	0.084
891.07	0.084
891.25	0.083
891.43	0.083
891.61	0.083
891.79	0.083
891.97	0.083
892.14	0.084
892.32	0.084
892.50	0.083
892.68	0.084
892.86	0.084
893.03	0.084
893.21	0.085
893.39	0.085
893.57	0.085
893.75	0.084
893.93	0.084
894.10	0.084
894.28	0.084
894.46	0.084
894.64	0.084
894.82	0.084
894.99	0.084
895.17	0.084
895.35	0.084
895.53	0.084
895.71	0.084
895.88	0.085
896.06	0.084
896.24	0.085
896.42	0.085
896.59	0.085
896.77	0.085
896.95	0.085
897.13	0.085
897.31	0.085
897.48	0.085
897.66	0.085
897.84	0.085
898.02	0.085
898.19	0.085
898.37	0.085
898.55	0.085
898.73	0.085
898.91	0.085
899.08	0.085
899.26	0.085
899.44	0.085
899.62	0.085
899.79	0.086
899.97	0.086
900.15	0.086
900.33	0.086
900.50	0.086
900.68	0.085
900.86	0.086
901.04	0.086
901.21	0.086
901.39	0.086
901.57	0.086
901.74	0.085
901.92	0.086
902.10	0.086
902.28	0.086
902.45	0.086
902.63	0.086
902.81	0.086
902.99	0.086
903.16	0.086
903.34	0.087
903.52	0.087
903.69	0.087
903.87	0.087
904.05	0.087
904.22	0.088
904.40	0.088
904.58	0.088
904.76	0.088
904.93	0.088
905.11	0.088
905.29	0.088
905.46	0.088
905.64	0.088
905.82	0.088
905.99	0.087
906.17	0.087
906.35	0.087
906.53	0.087
906.70	0.088
906.88	0.088
907.06	0.087
907.23	0.087
907.41	0.088
907.59	0.087
907.76	0.088
907.94	0.088
908.12	0.088
908.29	0.088
908.47	0.089
908.65	0.089
908.82	0.089
909.00	0.089
909.18	0.089
909.35	0.089
909.53	0.090
909.71	0.090
909.88	0.090
910.06	0.090
910.23	0.090
910.41	0.090
910.59	0.089
910.76	0.089
910.94	0.089
911.12	0.089
911.29	0.089
911.47	0.089
911.65	0.090
911.82	0.090
912.00	0.090
912.17	0.090
912.35	0.090
912.53	0.091
912.70	0.091
912.88	0.091
913.06	0.092
913.23	0.092
913.41	0.092
913.58	0.092
913.76	0.092
913.94	0.092
914.11	0.092
914.29	0.092
914.46	0.092
914.64	0.092
914.82	0.092
914.99	0.092
915.17	0.092
915.34	0.092
915.52	0.092
915.70	0.092
915.87	0.092
916.05	0.092
916.22	0.092
916.40	0.092
916.57	0.092
916.75	0.092
916.93	0.093
917.10	0.092
917.28	0.093
917.45	0.093
917.63	0.093
917.80	0.093
917.98	0.093
918.16	0.093
918.33	0.094
918.51	0.094
918.68	0.094
918.86	0.094
919.03	0.094
919.21	0.095
919.39	0.095
919.56	0.095
919.74	0.096
919.91	0.096
920.09	0.096
920.26	0.096
920.44	0.096
920.61	0.096
920.79	0.096
920.96	0.096
921.14	0.097
921.31	0.097
921.49	0.097
921.67	0.097
921.84	0.097
922.02	0.098
922.19	0.098
922.37	0.099
922.54	0.099
922.72	0.099
922.89	0.099
923.07	0.099
923.24	0.099
923.42	0.099
923.59	0.100
923.77	0.100
923.94	0.100
924.12	0.101
924.29	0.101
924.47	0.101
924.64	0.102
924.82	0.102
924.99	0.103
925.17	0.103
925.34	0.104
925.52	0.104
925.69	0.104
925.87	0.104
926.04	0.105
926.22	0.105
926.39	0.105
926.57	0.105
926.74	0.106
926.91	0.106
927.09	0.107
927.26	0.106
927.44	0.107
927.61	0.107
927.79	0.107
927.96	0.108
928.14	0.108
928.31	0.108
928.49	0.108
928.66	0.109
928.84	0.110
929.01	0.110
929.18	0.111
929.36	0.111
929.53	0.112
929.71	0.112
929.88	0.112
930.06	0.113
930.23	0.113
930.41	0.113
930.58	0.114
930.75	0.114
930.93	0.115
931.10	0.115
931.28	0.115
931.45	0.116
931.63	0.116
931.80	0.116
931.97	0.117
932.15	0.118
932.32	0.118
932.50	0.118
932.67	0.119
932.84	0.120
933.02	0.120
933.19	0.121
933.37	0.121
933.54	0.121
933.71	0.122
933.89	0.123
934.06	0.123
934.24	0.124
934.41	0.124
934.58	0.124
934.76	0.124
934.93	0.125
935.11	0.125
935.28	0.126
935.45	0.126
935.63	0.127
935.80	0.127
935.98	0.127
936.15	0.127
936.32	0.128
936.50	0.129
936.67	0.129
936.84	0.129
937.02	0.130
937.19	0.131
937.36	0.131
937.54	0.131
937.71	0.132
937.89	0.132
938.06	0.133
938.23	0.133
938.41	0.134
938.58	0.135
938.75	0.135
938.93	0.136
939.10	0.137
939.27	0.137
939.45	0.138
939.62	0.138
939.79	0.139
939.97	0.140
940.14	0.140
940.31	0.141
940.49	0.141
940.66	0.141
940.83	0.142
941.01	0.143
941.18	0.144
941.35	0.144
941.53	0.145
941.70	0.145
941.87	0.145
942.05	0.146
942.22	0.147
942.39	0.148
942.57	0.148
942.74	0.149
942.91	0.149
943.08	0.150
943.26	0.150
943.43	0.150
943.60	0.151
943.78	0.152
943.95	0.153
944.12	0.153
944.29	0.154
944.47	0.155
944.64	0.155
944.81	0.157
944.99	0.157
945.16	0.158
945.33	0.159
945.50	0.159
945.68	0.160
945.85	0.160
946.02	0.162
946.20	0.163
946.37	0.164
946.54	0.165
946.71	0.166
946.89	0.166
947.06	0.167
947.23	0.168
947.40	0.170
947.58	0.170
947.75	0.171
947.92	0.172
948.09	0.172
948.27	0.173
948.44	0.174
948.61	0.175
948.78	0.176
948.96	0.178
949.13	0.178
949.30	0.179
949.47	0.180
949.65	0.181
949.82	0.183
949.99	0.183
950.16	0.185
950.33	0.186
950.51	0.188
950.68	0.189
950.85	0.190
951.02	0.191
951.20	0.192
951.37	0.193
951.54	0.194
951.71	0.195
951.88	0.196
952.06	0.198
952.23	0.198
952.40	0.200
952.57	0.201
952.74	0.203
952.92	0.203
953.09	0.205
953.26	0.206
953.43	0.207
953.60	0.208
953.77	0.209
953.95	0.210
954.12	0.212
954.29	0.213
954.46	0.215
954.63	0.216
954.81	0.217
954.98	0.218
955.15	0.220
955.32	0.222
955.49	0.222
955.66	0.223
955.84	0.225
956.01	0.225
956.18	0.227
956.35	0.228
956.52	0.229
956.69	0.230
956.87	0.230
957.04	0.231
957.21	0.234
957.38	0.233
957.55	0.235
957.72	0.236
957.89	0.237
958.07	0.237
958.24	0.240
958.41	0.241
958.58	0.241
958.75	0.242
958.92	0.243
959.09	0.243
959.26	0.244
959.44	0.245
959.61	0.247
959.78	0.247
959.95	0.249
960.12	0.249
960.29	0.251
960.46	0.251
960.63	0.251
960.81	0.251
960.98	0.252
961.15	0.252
961.32	0.253
961.49	0.252
961.66	0.253
961.83	0.253
962.00	0.253
962.17	0.254
962.34	0.253
962.52	0.254
962.69	0.255
962.86	0.255
963.03	0.256
963.20	0.256
963.37	0.256
963.54	0.257
963.71	0.257
963.88	0.257
964.05	0.257
964.22	0.259
964.39	0.258
964.56	0.257
964.74	0.259
964.91	0.258
965.08	0.259
965.25	0.259
965.42	0.260
965.59	0.261
965.76	0.260
965.93	0.262
966.10	0.261
966.27	0.262
966.44	0.261
966.61	0.263
966.78	0.262
966.95	0.261
967.12	0.261
967.29	0.263
967.46	0.263
967.63	0.262
967.80	0.263
967.97	0.262
968.14	0.262
968.32	0.263
968.49	0.263
968.66	0.263
968.83	0.263
969.00	0.264
969.17	0.263
969.34	0.264
969.51	0.265
969.68	0.263
969.85	0.264
970.02	0.264
970.19	0.264
970.36	0.265
970.53	0.264
970.70	0.263
970.87	0.264
971.04	0.263
971.21	0.264
971.38	0.264
971.55	0.265
971.72	0.264
971.89	0.265
972.06	0.265
972.23	0.264
972.40	0.264
972.57	0.264
972.74	0.263
972.91	0.264
973.07	0.265
973.24	0.264
973.41	0.264
973.58	0.263
973.75	0.275
973.92	0.263
974.09	0.263
974.26	0.263
974.43	0.262
974.60	0.263
974.77	0.263
974.94	0.262
975.11	0.263
975.28	0.264
975.45	0.262
975.62	0.263
975.79	0.265
975.96	0.263
976.13	0.262
976.30	0.264
976.47	0.262
976.64	0.262
976.80	0.263
976.97	0.263
977.14	0.262
977.31	0.262
977.48	0.263
977.65	0.263
977.82	0.262
977.99	0.264
978.16	0.263
978.33	0.264
978.50	0.263
978.67	0.263
978.83	0.262
979.00	0.263
979.17	0.262
979.34	0.261
979.51	0.260
979.68	0.261
979.85	0.260
980.02	0.261
980.19	0.259
980.36	0.260
980.52	0.261
980.69	0.259
980.86	0.260
981.03	0.259
981.20	0.257
981.37	0.258
981.54	0.258
981.71	0.257
981.88	0.257
982.04	0.258
982.21	0.257
982.38	0.258
982.55	0.257
982.72	0.256
982.89	0.257
983.06	0.256
983.22	0.256
983.39	0.257
983.56	0.256
983.73	0.256
983.90	0.255
984.07	0.256
984.24	0.255
984.40	0.255
984.57	0.253
984.74	0.255
984.91	0.256
985.08	0.253
985.25	0.251
985.41	0.252
985.58	0.253
985.75	0.254
985.92	0.253
986.09	0.252
986.26	0.252
986.42	0.251
986.59	0.250
986.76	0.251
986.93	0.251
987.10	0.251
987.27	0.249
987.43	0.247
987.60	0.249
987.77	0.248
987.94	0.247
988.11	0.248
988.27	0.248
988.44	0.248
988.61	0.246
988.78	0.245
988.95	0.246
989.11	0.247
989.28	0.246
989.45	0.245
989.62	0.245
989.79	0.245
989.95	0.244
990.12	0.245
990.29	0.245
990.46	0.244
990.62	0.243
990.79	0.243
990.96	0.243
991.13	0.243
991.30	0.242
991.46	0.241
991.63	0.239
991.80	0.239
991.97	0.239
992.13	0.239
992.30	0.240
992.47	0.238
992.64	0.238
992.80	0.237
992.97	0.238
993.14	0.236
993.31	0.234
993.47	0.237
993.64	0.235
993.81	0.234
993.98	0.235
994.14	0.233
994.31	0.232
994.48	0.233
994.64	0.233
994.81	0.232
994.98	0.231
995.15	0.229
995.31	0.229
995.48	0.229
995.65	0.231
995.82	0.228
995.98	0.228
996.15	0.229
996.32	0.230
996.48	0.229
996.65	0.228
996.82	0.226
996.99	0.227
997.15	0.226
997.32	0.227
997.49	0.225
997.65	0.226
997.82	0.225
997.99	0.224
998.15	0.224
998.32	0.226
998.49	0.225
998.65	0.226
998.82	0.225
998.99	0.222
999.15	0.223
999.32	0.221
999.49	0.221
999.65	0.221
999.82	0.218
999.99	0.219
1000.15	0.219
1000.32	0.219
1000.49	0.219
1000.65	0.217
1000.82	0.217
1000.99	0.217
1001.15	0.218
1001.32	0.217
1001.49	0.217
1001.65	0.217
1001.82	0.218
1001.99	0.215
1002.15	0.214
1002.32	0.214
1002.49	0.214
1002.65	0.213
1002.82	0.211
1002.99	0.210
1003.15	0.212
1003.32	0.211
1003.48	0.211
1003.65	0.211
1003.82	0.210
1003.98	0.208
1004.15	0.208
1004.32	0.209
1004.48	0.209
1004.65	0.211
1004.81	0.208
1004.98	0.207
1005.15	0.208
1005.31	0.208
1005.48	0.205
1005.64	0.205
1005.81	0.207
1005.98	0.204
1006.14	0.203
1006.31	0.203
1006.47	0.201
1006.64	0.200
1006.81	0.200
1006.97	0.200
1007.14	0.199
1007.30	0.200
1007.47	0.200
1007.63	0.198
1007.80	0.196
1007.97	0.196
1008.13	0.196
1008.30	0.196
1008.46	0.197
1008.63	0.196
1008.79	0.196
1008.96	0.196
1009.13	0.198
1009.29	0.196
1009.46	0.196
1009.62	0.196
1009.79	0.195
1009.95	0.196
1010.12	0.196
1010.28	0.195
1010.45	0.194
1010.62	0.194
1010.78	0.192
1010.95	0.190
1011.11	0.191
1011.28	0.191
1011.44	0.193
1011.61	0.191
1011.77	0.190
1011.94	0.189
1012.10	0.188
1012.27	0.188
1012.43	0.189
1012.60	0.188
1012.76	0.188
1012.93	0.188
1013.10	0.186
1013.26	0.184
1013.43	0.185
1013.59	0.192
1013.76	0.185
1013.92	0.185
1014.09	0.184
1014.25	0.185
1014.42	0.185
1014.58	0.184
1014.75	0.186
1014.91	0.185
1015.08	0.187
1015.24	0.183
1015.41	0.185
1015.57	0.185
1015.73	0.183
1015.90	0.180
1016.06	0.182
1016.23	0.180
1016.39	0.181
1016.56	0.181
1016.72	0.180
1016.89	0.180
1017.05	0.183
1017.22	0.179
1017.38	0.179
1017.55	0.178
1017.71	0.179
1017.88	0.178
1018.04	0.180
1018.21	0.176
1018.37	0.176
1018.53	0.176
1018.70	0.174
1018.86	0.173
1019.03	0.175
1019.19	0.174
1019.36	0.173
1019.52	0.176
1019.69	0.176
1019.85	0.175
1020.01	0.175
1020.18	0.173
1020.34	0.174
1020.51	0.173
1020.67	0.174
1020.84	0.172
1021.00	0.172
1021.16	0.170
1021.33	0.171
1021.49	0.169
1021.66	0.170
1021.82	0.168
1021.98	0.168
1022.15	0.168
1022.31	0.167
1022.48	0.166
1022.64	0.168
1022.80	0.166
1022.97	0.164
1023.13	0.163
1023.30	0.164
1023.46	0.164
1023.62	0.162
1023.79	0.164
1023.95	0.164
1024.12	0.164
1024.28	0.163
1024.44	0.163
1024.61	0.162
1024.77	0.162
1024.93	0.161
1025.10	0.162
1025.26	0.160
1025.43	0.161
1025.59	0.158
1025.75	0.161
1025.92	0.160
1026.08	0.159
1026.24	0.159
1026.41	0.161
1026.57	0.159
1026.73	0.157
1026.90	0.159
1027.06	0.157
1027.23	0.157
1027.39	0.157
1027.55	0.157
1027.72	0.155
1027.88	0.155
1028.04	0.156
1028.21	0.156
1028.37	0.150
1028.53	0.154
1028.70	0.153
1028.86	0.151
1029.02	0.152
1029.19	0.153
1029.35	0.151
1029.51	0.151
1029.67	0.151
1029.84	0.152
1030.00	0.147
1030.16	0.148
1030.33	0.150
1030.49	0.147
1030.65	0.145
1030.82	0.160
1030.98	0.147
1031.14	0.147
1031.31	0.146
1031.47	0.143
1031.63	0.147
1031.79	0.146
1031.96	0.148
1032.12	0.149
1032.28	0.146
1032.45	0.151
1032.61	0.148
1032.77	0.148
1032.93	0.145
1033.10	0.147
1033.26	0.149
1033.42	0.146
1033.58	0.147
1033.75	0.148
1033.91	0.146
1034.07	0.149
1034.24	0.146
1034.40	0.144
1034.56	0.143
1034.72	0.144
1034.89	0.143
1035.05	0.140
1035.21	0.141
1035.37	0.139
1035.54	0.141
1035.70	0.139
1035.86	0.138
1036.02	0.139
1036.19	0.137
1036.35	0.136
1036.51	0.140
1036.67	0.139
1036.83	0.138
1037.00	0.137
1037.16	0.136
1037.32	0.137
1037.48	0.137
1037.65	0.141
1037.81	0.139
1037.97	0.138
1038.13	0.138
1038.29	0.134
1038.46	0.133
1038.62	0.136
1038.78	0.134
1038.94	0.132
1039.10	0.136
1039.27	0.132
1039.43	0.133
1039.59	0.131
1039.75	0.132
1039.91	0.130
1040.08	0.131
1040.24	0.133
1040.40	0.136
1040.56	0.134
1040.72	0.128
1040.89	0.131
1041.05	0.134
1041.21	0.132
1041.37	0.131
1041.53	0.136
1041.69	0.134
1041.86	0.134
1042.02	0.131
1042.18	0.131
1042.34	0.134
1042.50	0.138
1042.66	0.133
1042.83	0.131
1042.99	0.133
1043.15	0.128
1043.31	0.129
1043.47	0.134
1043.63	0.130
1043.79	0.129
1043.96	0.129
1044.12	0.132
1044.28	0.128
1044.44	0.130
1044.60	0.124
1044.76	0.124
1044.92	0.127
1045.09	0.129
1045.25	0.125
1045.41	0.126
1045.57	0.121
1045.73	0.122
1045.89	0.124
1046.05	0.126
1046.21	0.129
1046.38	0.121
1046.54	0.129
1046.70	0.138
1046.86	0.135
>>>>>End Processed Spectral Data<<<<<
