SpectraSuite Data File
++++++++++++++++++++++++++++++++++++
Date: Mon May 20 12:13:46 CDT 2013
User: Students
Dark Spectrum Present: Yes
Reference Spectrum Present: Yes
Number of Sampled Component Spectra: 1
Spectrometers: USB4H00887
Integration Time (usec): 60000 (USB4H00887)
Spectra Averaged: 5 (USB4H00887)
Boxcar Smoothing: 5 (USB4H00887)
Correct for Electrical Dark: No (USB4H00887)
Strobe/Lamp Enabled: No (USB4H00887)
Correct for Detector Non-linearity: No (USB4H00887)
Correct for Stray Light: No (USB4H00887)
Number of Pixels in Processed Spectrum: 3648
>>>>>Begin Processed Spectral Data<<<<<
345.83	0.262
346.05	0.262
346.26	0.262
346.48	0.273
346.70	0.342
346.92	-0.011
347.14	0.030
347.35	0.050
347.57	0.259
347.79	-0.251
348.01	-0.188
348.23	-0.296
348.44	-0.000
348.66	0.251
348.88	-0.353
349.10	-0.177
349.32	0.069
349.53	0.006
349.75	0.064
349.97	0.022
350.19	0.062
350.41	0.067
350.62	-0.178
350.84	0.015
351.06	0.016
351.28	-0.000
351.50	-0.060
351.71	0.026
351.93	-0.025
352.15	0.002
352.37	0.020
352.58	0.028
352.80	0.050
353.02	0.095
353.24	0.153
353.46	1.414
353.67	-0.255
353.89	0.094
354.11	0.078
354.33	0.088
354.54	0.127
354.76	0.217
354.98	0.277
355.20	0.176
355.41	0.067
355.63	0.091
355.85	0.075
356.07	0.601
356.28	0.080
356.50	0.133
356.72	0.050
356.94	0.116
357.15	0.162
357.37	-0.000
357.59	0.084
357.81	0.052
358.02	0.107
358.24	0.061
358.46	0.160
358.68	0.127
358.89	0.084
359.11	-0.000
359.33	0.077
359.55	-0.595
359.76	0.124
359.98	0.168
360.20	0.160
360.42	0.123
360.63	0.119
360.85	0.070
361.07	0.378
361.29	0.051
361.50	0.167
361.72	0.085
361.94	0.278
362.15	0.138
362.37	0.076
362.59	0.089
362.81	0.150
363.02	0.280
363.24	0.469
363.46	0.208
363.68	0.303
363.89	0.192
364.11	0.264
364.33	0.307
364.54	0.181
364.76	0.230
364.98	0.238
365.20	0.254
365.41	0.163
365.63	0.186
365.85	0.148
366.06	0.455
366.28	0.556
366.50	0.293
366.71	0.127
366.93	0.170
367.15	0.145
367.37	0.131
367.58	0.161
367.80	0.196
368.02	0.679
368.23	0.158
368.45	0.170
368.67	0.126
368.88	0.137
369.10	-0.000
369.32	0.125
369.53	0.086
369.75	0.161
369.97	0.603
370.19	0.272
370.40	0.107
370.62	0.362
370.84	0.113
371.05	0.663
371.27	0.166
371.49	0.217
371.70	0.226
371.92	0.321
372.14	0.108
372.35	0.097
372.57	0.111
372.79	0.294
373.00	0.078
373.22	0.131
373.44	0.135
373.65	0.106
373.87	0.136
374.09	0.559
374.30	0.122
374.52	0.144
374.74	0.102
374.95	0.486
375.17	0.125
375.39	-0.000
375.60	0.131
375.82	0.228
376.04	0.086
376.25	0.103
376.47	0.063
376.68	0.134
376.90	0.086
377.12	0.216
377.33	0.116
377.55	0.253
377.77	0.167
377.98	0.236
378.20	0.145
378.42	0.186
378.63	0.240
378.85	-0.000
379.07	0.172
379.28	0.715
379.50	0.374
379.71	0.193
379.93	0.141
380.15	0.181
380.36	0.278
380.58	0.169
380.80	0.430
381.01	0.138
381.23	0.123
381.44	0.113
381.66	0.134
381.88	0.155
382.09	-0.076
382.31	0.109
382.53	0.125
382.74	0.600
382.96	0.185
383.17	0.154
383.39	0.209
383.61	0.244
383.82	0.197
384.04	0.237
384.25	0.282
384.47	0.249
384.69	0.227
384.90	0.220
385.12	0.496
385.33	0.311
385.55	0.240
385.77	0.360
385.98	0.188
386.20	0.263
386.41	0.221
386.63	0.267
386.85	0.225
387.06	0.312
387.28	0.483
387.49	0.270
387.71	0.198
387.93	0.181
388.14	0.597
388.36	0.235
388.57	0.204
388.79	0.232
389.01	-0.000
389.22	0.287
389.44	0.248
389.65	0.194
389.87	0.207
390.08	0.245
390.30	0.185
390.52	0.375
390.73	0.387
390.95	0.261
391.16	0.237
391.38	-0.000
391.59	0.280
391.81	0.224
392.03	0.214
392.24	0.250
392.46	0.215
392.67	0.196
392.89	0.269
393.10	0.415
393.32	0.291
393.53	0.357
393.75	0.217
393.97	0.241
394.18	0.334
394.40	0.304
394.61	0.315
394.83	0.260
395.04	0.298
395.26	0.196
395.47	0.282
395.69	0.233
395.91	0.265
396.12	0.339
396.34	0.341
396.55	0.226
396.77	0.326
396.98	2.022
397.20	0.402
397.41	0.472
397.63	0.334
397.84	0.307
398.06	0.292
398.27	0.287
398.49	0.317
398.71	0.238
398.92	0.284
399.14	0.378
399.35	0.484
399.57	0.444
399.78	0.296
400.00	0.280
400.21	0.346
400.43	0.291
400.64	0.301
400.86	0.702
401.07	0.373
401.29	0.314
401.50	0.333
401.72	0.488
401.93	0.306
402.15	0.366
402.36	0.334
402.58	0.277
402.79	0.301
403.01	0.535
403.22	0.425
403.44	0.286
403.65	0.491
403.87	0.575
404.08	0.433
404.30	0.867
404.51	0.404
404.73	0.524
404.94	0.433
405.16	0.445
405.37	0.327
405.59	0.621
405.80	0.365
406.02	0.438
406.23	0.419
406.45	0.484
406.66	0.498
406.88	0.325
407.09	0.500
407.31	0.390
407.52	0.481
407.74	0.384
407.95	0.461
408.17	0.430
408.38	0.443
408.60	0.288
408.81	0.474
409.03	0.349
409.24	0.348
409.45	0.408
409.67	0.404
409.88	0.357
410.10	0.468
410.31	0.392
410.53	0.377
410.74	0.556
410.96	0.540
411.17	0.575
411.39	0.428
411.60	0.407
411.82	0.458
412.03	0.441
412.24	0.430
412.46	0.627
412.67	0.508
412.89	0.493
413.10	0.479
413.32	0.444
413.53	0.502
413.75	0.534
413.96	0.386
414.17	0.525
414.39	0.517
414.60	0.428
414.82	0.584
415.03	0.435
415.25	0.482
415.46	0.340
415.68	0.460
415.89	0.882
416.10	0.696
416.32	0.381
416.53	0.449
416.75	0.428
416.96	0.518
417.18	0.441
417.39	0.415
417.60	0.420
417.82	0.603
418.03	0.542
418.25	0.446
418.46	0.464
418.67	0.422
418.89	0.449
419.10	0.466
419.32	0.606
419.53	0.562
419.75	0.505
419.96	0.435
420.17	0.528
420.39	0.495
420.60	0.520
420.82	0.644
421.03	0.521
421.24	0.439
421.46	0.489
421.67	0.536
421.89	0.456
422.10	0.472
422.31	0.471
422.53	0.675
422.74	0.499
422.96	0.404
423.17	0.450
423.38	0.551
423.60	0.471
423.81	0.594
424.03	0.511
424.24	0.576
424.45	0.578
424.67	0.587
424.88	0.520
425.09	0.577
425.31	0.523
425.52	0.551
425.74	0.623
425.95	0.669
426.16	0.510
426.38	0.598
426.59	0.545
426.80	0.630
427.02	0.650
427.23	0.503
427.45	0.647
427.66	0.621
427.87	0.484
428.09	0.514
428.30	0.568
428.51	0.554
428.73	0.601
428.94	0.528
429.15	0.519
429.37	0.498
429.58	0.530
429.79	0.491
430.01	0.590
430.22	0.579
430.44	0.589
430.65	0.539
430.86	0.587
431.08	0.578
431.29	0.532
431.50	0.629
431.72	0.842
431.93	0.682
432.14	0.515
432.36	0.562
432.57	0.582
432.78	0.609
433.00	0.552
433.21	0.539
433.42	0.673
433.64	0.585
433.85	0.666
434.06	0.542
434.28	0.572
434.49	0.582
434.70	0.601
434.92	0.608
435.13	0.649
435.34	0.669
435.56	0.637
435.77	0.633
435.98	0.834
436.20	0.688
436.41	0.594
436.62	0.575
436.83	0.659
437.05	0.753
437.26	0.657
437.47	0.581
437.69	0.630
437.90	0.574
438.11	0.567
438.33	0.618
438.54	0.637
438.75	0.821
438.97	0.812
439.18	0.604
439.39	0.622
439.60	0.677
439.82	0.634
440.03	0.584
440.24	0.865
440.46	0.634
440.67	0.605
440.88	0.648
441.10	0.606
441.31	0.604
441.52	0.658
441.73	0.752
441.95	0.660
442.16	0.618
442.37	0.998
442.58	0.603
442.80	0.599
443.01	0.792
443.22	0.719
443.44	0.604
443.65	0.715
443.86	0.714
444.07	0.765
444.29	0.658
444.50	0.841
444.71	0.632
444.92	0.598
445.14	0.758
445.35	0.800
445.56	0.624
445.78	0.738
445.99	0.738
446.20	0.629
446.41	0.714
446.63	0.715
446.84	0.671
447.05	0.678
447.26	0.815
447.48	0.688
447.69	0.650
447.90	0.745
448.11	0.651
448.33	0.680
448.54	0.705
448.75	0.730
448.96	0.746
449.18	0.789
449.39	0.692
449.60	0.673
449.81	0.819
450.03	0.712
450.24	0.769
450.45	0.729
450.66	0.707
450.87	0.731
451.09	0.683
451.30	0.659
451.51	0.732
451.72	0.750
451.94	0.769
452.15	0.835
452.36	0.689
452.57	0.710
452.78	0.712
453.00	0.744
453.21	0.702
453.42	0.674
453.63	0.772
453.85	0.727
454.06	0.716
454.27	0.845
454.48	0.757
454.69	0.688
454.91	0.759
455.12	0.662
455.33	0.743
455.54	0.761
455.75	0.740
455.97	0.763
456.18	0.758
456.39	0.768
456.60	0.787
456.81	0.722
457.03	0.737
457.24	0.738
457.45	0.829
457.66	0.777
457.87	0.733
458.09	0.754
458.30	0.664
458.51	0.783
458.72	0.807
458.93	0.819
459.15	0.723
459.36	0.782
459.57	0.798
459.78	0.844
459.99	0.748
460.20	0.715
460.42	0.797
460.63	0.754
460.84	0.735
461.05	0.756
461.26	0.819
461.47	0.733
461.69	0.789
461.90	0.830
462.11	0.787
462.32	0.856
462.53	0.790
462.74	0.881
462.96	0.764
463.17	0.761
463.38	0.802
463.59	0.917
463.80	0.766
464.01	0.783
464.23	0.871
464.44	0.829
464.65	0.832
464.86	0.848
465.07	0.858
465.28	0.821
465.49	0.852
465.71	0.801
465.92	0.835
466.13	0.881
466.34	0.821
466.55	0.870
466.76	0.830
466.97	0.849
467.19	0.845
467.40	0.882
467.61	0.885
467.82	0.802
468.03	0.789
468.24	0.862
468.45	0.891
468.66	0.868
468.88	0.884
469.09	0.888
469.30	0.939
469.51	0.860
469.72	0.899
469.93	0.871
470.14	0.849
470.35	0.944
470.57	0.891
470.78	0.831
470.99	0.968
471.20	0.902
471.41	0.859
471.62	0.915
471.83	0.884
472.04	0.915
472.25	0.957
472.47	0.868
472.68	0.874
472.89	0.875
473.10	0.914
473.31	0.862
473.52	0.921
473.73	0.945
473.94	0.862
474.15	0.887
474.36	0.888
474.57	0.916
474.79	0.889
475.00	0.887
475.21	0.876
475.42	0.972
475.63	0.878
475.84	0.909
476.05	0.909
476.26	0.883
476.47	0.915
476.68	0.962
476.89	0.890
477.10	0.939
477.32	0.926
477.53	0.985
477.74	0.905
477.95	0.944
478.16	0.890
478.37	0.937
478.58	0.939
478.79	0.956
479.00	0.960
479.21	0.916
479.42	0.959
479.63	0.962
479.84	0.921
480.05	0.921
480.26	0.952
480.47	0.975
480.69	0.975
480.90	0.939
481.11	0.935
481.32	0.998
481.53	0.934
481.74	0.988
481.95	0.951
482.16	0.970
482.37	0.974
482.58	0.937
482.79	0.955
483.00	0.983
483.21	0.932
483.42	0.904
483.63	0.977
483.84	1.007
484.05	0.993
484.26	0.964
484.47	0.964
484.68	0.928
484.89	0.935
485.10	0.982
485.31	0.963
485.52	0.967
485.73	0.971
485.94	1.014
486.15	0.959
486.37	0.979
486.58	0.947
486.79	0.959
487.00	1.013
487.21	1.004
487.42	1.000
487.63	1.005
487.84	1.027
488.05	1.017
488.26	0.974
488.47	0.981
488.68	1.008
488.89	0.983
489.10	0.977
489.31	0.984
489.52	1.017
489.73	0.983
489.94	1.022
490.15	0.976
490.36	1.021
490.57	0.975
490.78	0.958
490.99	1.000
491.20	1.079
491.41	1.032
491.62	0.975
491.83	1.006
492.04	1.002
492.25	1.009
492.45	1.010
492.66	1.035
492.87	1.026
493.08	1.012
493.29	0.992
493.50	0.984
493.71	0.993
493.92	0.991
494.13	1.003
494.34	1.026
494.55	1.034
494.76	1.065
494.97	1.055
495.18	1.016
495.39	1.033
495.60	0.982
495.81	0.982
496.02	1.005
496.23	0.998
496.44	1.033
496.65	1.022
496.86	1.025
497.07	1.052
497.28	1.046
497.49	0.994
497.70	0.996
497.91	1.020
498.12	1.003
498.32	1.043
498.53	1.026
498.74	1.017
498.95	1.042
499.16	0.996
499.37	1.002
499.58	1.013
499.79	1.040
500.00	1.038
500.21	1.064
500.42	1.008
500.63	1.009
500.84	1.029
501.05	1.007
501.26	1.033
501.46	1.074
501.67	1.032
501.88	1.034
502.09	1.012
502.30	1.017
502.51	1.068
502.72	1.022
502.93	1.039
503.14	1.061
503.35	1.031
503.56	1.025
503.77	1.054
503.97	1.032
504.18	1.029
504.39	1.067
504.60	1.034
504.81	1.062
505.02	1.050
505.23	1.051
505.44	1.031
505.65	1.040
505.86	1.023
506.07	1.095
506.27	1.052
506.48	1.057
506.69	1.038
506.90	1.060
507.11	1.056
507.32	1.032
507.53	1.039
507.74	1.031
507.95	1.043
508.15	1.047
508.36	1.049
508.57	1.061
508.78	1.045
508.99	1.044
509.20	1.019
509.41	1.045
509.62	1.032
509.82	1.032
510.03	1.045
510.24	1.047
510.45	1.070
510.66	1.061
510.87	1.055
511.08	1.013
511.29	1.057
511.49	1.033
511.70	1.081
511.91	1.013
512.12	1.008
512.33	1.043
512.54	1.057
512.75	1.039
512.95	1.066
513.16	1.057
513.37	1.037
513.58	1.073
513.79	1.037
514.00	1.042
514.20	1.059
514.41	1.049
514.62	1.013
514.83	1.055
515.04	1.047
515.25	1.027
515.46	1.040
515.66	1.039
515.87	1.051
516.08	1.019
516.29	1.042
516.50	1.026
516.71	1.019
516.91	1.028
517.12	1.042
517.33	1.027
517.54	1.012
517.75	1.016
517.95	1.031
518.16	1.046
518.37	1.012
518.58	1.019
518.79	0.993
519.00	1.025
519.20	1.033
519.41	1.009
519.62	1.030
519.83	1.039
520.04	1.003
520.24	0.998
520.45	1.006
520.66	1.030
520.87	0.992
521.08	0.990
521.28	0.992
521.49	1.011
521.70	0.980
521.91	0.994
522.12	0.976
522.32	0.997
522.53	0.981
522.74	0.969
522.95	0.979
523.16	0.980
523.36	0.989
523.57	0.972
523.78	0.966
523.99	0.971
524.20	0.963
524.40	0.977
524.61	0.985
524.82	0.959
525.03	0.966
525.23	0.965
525.44	0.950
525.65	0.950
525.86	0.972
526.06	0.941
526.27	0.942
526.48	0.953
526.69	0.934
526.90	0.938
527.10	0.972
527.31	0.925
527.52	0.922
527.73	0.914
527.93	0.923
528.14	0.928
528.35	0.920
528.56	0.919
528.76	0.911
528.97	0.901
529.18	0.891
529.39	0.892
529.59	0.894
529.80	0.923
530.01	0.897
530.22	0.896
530.42	0.866
530.63	0.884
530.84	0.862
531.05	0.875
531.25	0.878
531.46	0.871
531.67	0.849
531.88	0.869
532.08	0.863
532.29	0.858
532.50	0.850
532.70	0.843
532.91	0.832
533.12	0.836
533.33	0.862
533.53	0.833
533.74	0.832
533.95	0.838
534.15	0.826
534.36	0.828
534.57	0.809
534.78	0.812
534.98	0.822
535.19	0.793
535.40	0.793
535.60	0.811
535.81	0.791
536.02	0.793
536.23	0.785
536.43	0.787
536.64	0.773
536.85	0.782
537.05	0.791
537.26	0.769
537.47	0.772
537.67	0.762
537.88	0.758
538.09	0.764
538.30	0.755
538.50	0.747
538.71	0.757
538.92	0.743
539.12	0.739
539.33	0.734
539.54	0.734
539.74	0.737
539.95	0.727
540.16	0.723
540.36	0.715
540.57	0.714
540.78	0.707
540.98	0.707
541.19	0.706
541.40	0.694
541.60	0.703
541.81	0.698
542.02	0.698
542.22	0.688
542.43	0.683
542.64	0.678
542.84	0.678
543.05	0.670
543.26	0.670
543.46	0.673
543.67	0.672
543.88	0.667
544.08	0.658
544.29	0.653
544.50	0.653
544.70	0.654
544.91	0.645
545.12	0.646
545.32	0.642
545.53	0.646
545.74	0.634
545.94	0.631
546.15	0.629
546.35	0.626
546.56	0.622
546.77	0.619
546.97	0.617
547.18	0.609
547.39	0.610
547.59	0.608
547.80	0.603
548.01	0.607
548.21	0.602
548.42	0.593
548.62	0.592
548.83	0.590
549.04	0.586
549.24	0.580
549.45	0.579
549.65	0.575
549.86	0.571
550.07	0.570
550.27	0.568
550.48	0.576
550.69	0.562
550.89	0.562
551.10	0.558
551.30	0.556
551.51	0.555
551.72	0.545
551.92	0.546
552.13	0.545
552.33	0.547
552.54	0.542
552.75	0.535
552.95	0.537
553.16	0.531
553.36	0.529
553.57	0.527
553.78	0.525
553.98	0.525
554.19	0.516
554.39	0.514
554.60	0.516
554.80	0.514
555.01	0.506
555.22	0.508
555.42	0.505
555.63	0.498
555.83	0.501
556.04	0.495
556.25	0.497
556.45	0.488
556.66	0.485
556.86	0.488
557.07	0.486
557.27	0.487
557.48	0.480
557.68	0.477
557.89	0.479
558.10	0.476
558.30	0.473
558.51	0.471
558.71	0.468
558.92	0.464
559.12	0.466
559.33	0.469
559.54	0.464
559.74	0.460
559.95	0.458
560.15	0.457
560.36	0.455
560.56	0.449
560.77	0.450
560.97	0.450
561.18	0.444
561.38	0.444
561.59	0.447
561.79	0.442
562.00	0.440
562.21	0.437
562.41	0.435
562.62	0.434
562.82	0.432
563.03	0.429
563.23	0.429
563.44	0.428
563.64	0.425
563.85	0.426
564.05	0.419
564.26	0.418
564.46	0.417
564.67	0.418
564.87	0.414
565.08	0.410
565.28	0.409
565.49	0.410
565.69	0.406
565.90	0.402
566.10	0.405
566.31	0.398
566.51	0.400
566.72	0.401
566.92	0.394
567.13	0.394
567.33	0.393
567.54	0.392
567.74	0.390
567.95	0.387
568.15	0.388
568.36	0.388
568.56	0.387
568.77	0.382
568.97	0.380
569.18	0.380
569.38	0.378
569.59	0.378
569.79	0.375
570.00	0.373
570.20	0.371
570.41	0.369
570.61	0.367
570.82	0.368
571.02	0.365
571.23	0.367
571.43	0.362
571.64	0.360
571.84	0.360
572.05	0.359
572.25	0.358
572.45	0.356
572.66	0.353
572.86	0.352
573.07	0.351
573.27	0.351
573.48	0.349
573.68	0.346
573.89	0.345
574.09	0.346
574.30	0.344
574.50	0.342
574.70	0.342
574.91	0.340
575.11	0.340
575.32	0.340
575.52	0.336
575.73	0.336
575.93	0.336
576.14	0.335
576.34	0.333
576.54	0.332
576.75	0.330
576.95	0.330
577.16	0.328
577.36	0.326
577.57	0.326
577.77	0.324
577.97	0.321
578.18	0.322
578.38	0.319
578.59	0.317
578.79	0.315
579.00	0.316
579.20	0.313
579.40	0.313
579.61	0.312
579.81	0.310
580.02	0.308
580.22	0.307
580.42	0.306
580.63	0.306
580.83	0.305
581.04	0.303
581.24	0.302
581.45	0.301
581.65	0.300
581.85	0.299
582.06	0.297
582.26	0.297
582.47	0.296
582.67	0.296
582.87	0.295
583.08	0.293
583.28	0.293
583.48	0.291
583.69	0.288
583.89	0.289
584.10	0.290
584.30	0.288
584.50	0.286
584.71	0.285
584.91	0.284
585.12	0.282
585.32	0.283
585.52	0.280
585.73	0.279
585.93	0.279
586.13	0.278
586.34	0.277
586.54	0.276
586.75	0.275
586.95	0.274
587.15	0.274
587.36	0.273
587.56	0.272
587.76	0.271
587.97	0.271
588.17	0.269
588.37	0.269
588.58	0.268
588.78	0.265
588.98	0.266
589.19	0.264
589.39	0.262
589.60	0.264
589.80	0.261
590.00	0.260
590.21	0.260
590.41	0.258
590.61	0.258
590.82	0.258
591.02	0.257
591.22	0.255
591.43	0.256
591.63	0.254
591.83	0.254
592.04	0.252
592.24	0.253
592.44	0.251
592.65	0.249
592.85	0.249
593.05	0.249
593.26	0.248
593.46	0.248
593.66	0.247
593.86	0.246
594.07	0.244
594.27	0.244
594.47	0.242
594.68	0.242
594.88	0.243
595.08	0.242
595.29	0.242
595.49	0.240
595.69	0.239
595.90	0.238
596.10	0.238
596.30	0.238
596.50	0.237
596.71	0.237
596.91	0.236
597.11	0.235
597.32	0.234
597.52	0.233
597.72	0.233
597.93	0.232
598.13	0.230
598.33	0.230
598.53	0.229
598.74	0.229
598.94	0.228
599.14	0.227
599.35	0.227
599.55	0.228
599.75	0.227
599.95	0.226
600.16	0.226
600.36	0.225
600.56	0.225
600.76	0.224
600.97	0.222
601.17	0.222
601.37	0.222
601.58	0.221
601.78	0.221
601.98	0.220
602.18	0.218
602.39	0.218
602.59	0.218
602.79	0.217
602.99	0.217
603.20	0.216
603.40	0.216
603.60	0.216
603.80	0.215
604.01	0.215
604.21	0.214
604.41	0.214
604.61	0.213
604.82	0.212
605.02	0.212
605.22	0.212
605.42	0.211
605.62	0.211
605.83	0.209
606.03	0.208
606.23	0.208
606.43	0.208
606.64	0.207
606.84	0.206
607.04	0.206
607.24	0.206
607.45	0.206
607.65	0.204
607.85	0.205
608.05	0.204
608.25	0.204
608.46	0.204
608.66	0.204
608.86	0.203
609.06	0.202
609.26	0.201
609.47	0.201
609.67	0.200
609.87	0.201
610.07	0.200
610.28	0.198
610.48	0.198
610.68	0.198
610.88	0.197
611.08	0.198
611.29	0.197
611.49	0.196
611.69	0.197
611.89	0.195
612.09	0.194
612.29	0.194
612.50	0.194
612.70	0.194
612.90	0.193
613.10	0.192
613.30	0.191
613.51	0.192
613.71	0.191
613.91	0.195
614.11	0.191
614.31	0.190
614.51	0.190
614.72	0.189
614.92	0.189
615.12	0.188
615.32	0.189
615.52	0.188
615.72	0.188
615.93	0.188
616.13	0.187
616.33	0.187
616.53	0.186
616.73	0.186
616.93	0.185
617.14	0.185
617.34	0.185
617.54	0.185
617.74	0.185
617.94	0.184
618.14	0.184
618.34	0.183
618.55	0.183
618.75	0.184
618.95	0.184
619.15	0.184
619.35	0.183
619.55	0.182
619.75	0.183
619.96	0.182
620.16	0.182
620.36	0.182
620.56	0.181
620.76	0.181
620.96	0.180
621.16	0.180
621.36	0.180
621.57	0.180
621.77	0.180
621.97	0.179
622.17	0.179
622.37	0.179
622.57	0.179
622.77	0.179
622.97	0.178
623.18	0.178
623.38	0.178
623.58	0.177
623.78	0.177
623.98	0.176
624.18	0.175
624.38	0.175
624.58	0.174
624.78	0.175
624.98	0.174
625.19	0.174
625.39	0.174
625.59	0.173
625.79	0.174
625.99	0.173
626.19	0.174
626.39	0.174
626.59	0.173
626.79	0.173
626.99	0.173
627.19	0.173
627.40	0.173
627.60	0.173
627.80	0.172
628.00	0.172
628.20	0.171
628.40	0.171
628.60	0.171
628.80	0.170
629.00	0.170
629.20	0.169
629.40	0.169
629.60	0.168
629.80	0.168
630.00	0.168
630.20	0.167
630.41	0.167
630.61	0.166
630.81	0.166
631.01	0.167
631.21	0.166
631.41	0.166
631.61	0.166
631.81	0.165
632.01	0.165
632.21	0.165
632.41	0.164
632.61	0.164
632.81	0.165
633.01	0.165
633.21	0.164
633.41	0.165
633.61	0.163
633.81	0.163
634.01	0.163
634.21	0.163
634.41	0.163
634.61	0.163
634.81	0.163
635.01	0.162
635.22	0.162
635.42	0.162
635.62	0.161
635.82	0.162
636.02	0.161
636.22	0.161
636.42	0.160
636.62	0.160
636.82	0.160
637.02	0.159
637.22	0.160
637.42	0.159
637.62	0.158
637.82	0.159
638.02	0.158
638.22	0.158
638.42	0.158
638.62	0.157
638.82	0.157
639.02	0.157
639.22	0.157
639.42	0.156
639.62	0.156
639.82	0.156
640.02	0.156
640.22	0.156
640.42	0.157
640.62	0.157
640.82	0.157
641.02	0.156
641.22	0.157
641.42	0.156
641.61	0.156
641.81	0.156
642.01	0.156
642.21	0.156
642.41	0.155
642.61	0.155
642.81	0.154
643.01	0.153
643.21	0.153
643.41	0.153
643.61	0.153
643.81	0.152
644.01	0.151
644.21	0.150
644.41	0.151
644.61	0.150
644.81	0.150
645.01	0.150
645.21	0.150
645.41	0.150
645.61	0.150
645.81	0.149
646.01	0.149
646.21	0.150
646.40	0.149
646.60	0.149
646.80	0.149
647.00	0.149
647.20	0.148
647.40	0.148
647.60	0.148
647.80	0.148
648.00	0.148
648.20	0.148
648.40	0.147
648.60	0.147
648.80	0.147
649.00	0.147
649.20	0.147
649.39	0.146
649.59	0.146
649.79	0.146
649.99	0.146
650.19	0.145
650.39	0.145
650.59	0.145
650.79	0.145
650.99	0.144
651.19	0.143
651.39	0.144
651.58	0.143
651.78	0.143
651.98	0.143
652.18	0.143
652.38	0.142
652.58	0.143
652.78	0.142
652.98	0.142
653.18	0.142
653.38	0.142
653.57	0.141
653.77	0.142
653.97	0.141
654.17	0.141
654.37	0.140
654.57	0.140
654.77	0.140
654.97	0.140
655.16	0.140
655.36	0.139
655.56	0.139
655.76	0.138
655.96	0.139
656.16	0.138
656.36	0.138
656.56	0.137
656.75	0.138
656.95	0.137
657.15	0.137
657.35	0.137
657.55	0.136
657.75	0.137
657.95	0.137
658.14	0.137
658.34	0.137
658.54	0.137
658.74	0.136
658.94	0.136
659.14	0.136
659.34	0.136
659.53	0.135
659.73	0.135
659.93	0.134
660.13	0.134
660.33	0.134
660.53	0.133
660.72	0.134
660.92	0.134
661.12	0.133
661.32	0.133
661.52	0.133
661.72	0.133
661.91	0.132
662.11	0.132
662.31	0.132
662.51	0.132
662.71	0.132
662.90	0.131
663.10	0.131
663.30	0.131
663.50	0.130
663.70	0.130
663.90	0.130
664.09	0.130
664.29	0.130
664.49	0.130
664.69	0.129
664.89	0.129
665.08	0.129
665.28	0.129
665.48	0.128
665.68	0.128
665.88	0.128
666.07	0.128
666.27	0.127
666.47	0.127
666.67	0.127
666.87	0.127
667.06	0.126
667.26	0.126
667.46	0.126
667.66	0.126
667.85	0.126
668.05	0.126
668.25	0.126
668.45	0.126
668.65	0.126
668.84	0.126
669.04	0.126
669.24	0.126
669.44	0.125
669.63	0.125
669.83	0.125
670.03	0.124
670.23	0.123
670.42	0.123
670.62	0.122
670.82	0.122
671.02	0.122
671.22	0.121
671.41	0.121
671.61	0.121
671.81	0.121
672.01	0.121
672.20	0.121
672.40	0.121
672.60	0.120
672.80	0.120
672.99	0.120
673.19	0.120
673.39	0.119
673.58	0.119
673.78	0.119
673.98	0.119
674.18	0.119
674.37	0.118
674.57	0.118
674.77	0.118
674.97	0.118
675.16	0.118
675.36	0.118
675.56	0.117
675.75	0.117
675.95	0.117
676.15	0.117
676.35	0.117
676.54	0.117
676.74	0.116
676.94	0.117
677.13	0.116
677.33	0.116
677.53	0.116
677.73	0.116
677.92	0.116
678.12	0.116
678.32	0.116
678.51	0.116
678.71	0.116
678.91	0.115
679.11	0.115
679.30	0.115
679.50	0.115
679.70	0.115
679.89	0.115
680.09	0.115
680.29	0.114
680.48	0.114
680.68	0.113
680.88	0.113
681.07	0.114
681.27	0.113
681.47	0.113
681.66	0.113
681.86	0.112
682.06	0.112
682.25	0.112
682.45	0.112
682.65	0.111
682.84	0.111
683.04	0.110
683.24	0.110
683.43	0.110
683.63	0.110
683.83	0.110
684.02	0.109
684.22	0.109
684.42	0.109
684.61	0.109
684.81	0.109
685.01	0.109
685.20	0.109
685.40	0.109
685.60	0.109
685.79	0.109
685.99	0.109
686.19	0.109
686.38	0.109
686.58	0.109
686.77	0.109
686.97	0.108
687.17	0.108
687.36	0.108
687.56	0.108
687.76	0.107
687.95	0.107
688.15	0.106
688.34	0.106
688.54	0.106
688.74	0.105
688.93	0.105
689.13	0.105
689.33	0.105
689.52	0.104
689.72	0.105
689.91	0.104
690.11	0.104
690.31	0.104
690.50	0.104
690.70	0.104
690.89	0.104
691.09	0.103
691.29	0.103
691.48	0.103
691.68	0.103
691.87	0.103
692.07	0.103
692.27	0.103
692.46	0.103
692.66	0.103
692.85	0.103
693.05	0.103
693.25	0.103
693.44	0.102
693.64	0.102
693.83	0.103
694.03	0.102
694.22	0.102
694.42	0.102
694.62	0.102
694.81	0.102
695.01	0.103
695.20	0.102
695.40	0.102
695.59	0.102
695.79	0.101
695.99	0.101
696.18	0.101
696.38	0.101
696.57	0.101
696.77	0.100
696.96	0.101
697.16	0.100
697.36	0.100
697.55	0.100
697.75	0.100
697.94	0.099
698.14	0.099
698.33	0.099
698.53	0.099
698.72	0.099
698.92	0.099
699.11	0.099
699.31	0.099
699.51	0.099
699.70	0.098
699.90	0.098
700.09	0.098
700.29	0.098
700.48	0.098
700.68	0.097
700.87	0.097
701.07	0.097
701.26	0.096
701.46	0.096
701.65	0.096
701.85	0.096
702.04	0.096
702.24	0.096
702.43	0.096
702.63	0.096
702.82	0.096
703.02	0.096
703.21	0.096
703.41	0.096
703.60	0.096
703.80	0.095
703.99	0.095
704.19	0.095
704.38	0.095
704.58	0.094
704.77	0.094
704.97	0.094
705.16	0.094
705.36	0.094
705.55	0.094
705.75	0.094
705.94	0.094
706.14	0.094
706.33	0.094
706.53	0.094
706.72	0.094
706.92	0.093
707.11	0.094
707.31	0.093
707.50	0.093
707.70	0.093
707.89	0.093
708.09	0.093
708.28	0.093
708.48	0.093
708.67	0.093
708.86	0.093
709.06	0.093
709.25	0.093
709.45	0.093
709.64	0.092
709.84	0.093
710.03	0.092
710.23	0.092
710.42	0.092
710.62	0.092
710.81	0.092
711.00	0.092
711.20	0.092
711.39	0.091
711.59	0.092
711.78	0.092
711.98	0.091
712.17	0.091
712.37	0.091
712.56	0.091
712.75	0.091
712.95	0.091
713.14	0.091
713.34	0.091
713.53	0.091
713.73	0.091
713.92	0.091
714.11	0.091
714.31	0.091
714.50	0.091
714.70	0.092
714.89	0.092
715.08	0.092
715.28	0.092
715.47	0.091
715.67	0.091
715.86	0.091
716.06	0.091
716.25	0.091
716.44	0.091
716.64	0.091
716.83	0.091
717.03	0.090
717.22	0.090
717.41	0.090
717.61	0.090
717.80	0.090
717.99	0.090
718.19	0.090
718.38	0.090
718.58	0.089
718.77	0.089
718.96	0.089
719.16	0.089
719.35	0.089
719.55	0.088
719.74	0.089
719.93	0.088
720.13	0.088
720.32	0.088
720.51	0.088
720.71	0.088
720.90	0.088
721.10	0.088
721.29	0.088
721.48	0.087
721.68	0.088
721.87	0.088
722.06	0.088
722.26	0.088
722.45	0.088
722.64	0.088
722.84	0.088
723.03	0.088
723.22	0.088
723.42	0.088
723.61	0.088
723.80	0.088
724.00	0.088
724.19	0.088
724.38	0.088
724.58	0.088
724.77	0.088
724.96	0.088
725.16	0.088
725.35	0.088
725.54	0.088
725.74	0.088
725.93	0.088
726.12	0.088
726.32	0.088
726.51	0.089
726.70	0.089
726.90	0.089
727.09	0.089
727.28	0.088
727.48	0.088
727.67	0.088
727.86	0.088
728.06	0.088
728.25	0.088
728.44	0.088
728.64	0.088
728.83	0.088
729.02	0.088
729.21	0.088
729.41	0.088
729.60	0.088
729.79	0.088
729.99	0.088
730.18	0.088
730.37	0.088
730.56	0.088
730.76	0.088
730.95	0.088
731.14	0.088
731.34	0.088
731.53	0.088
731.72	0.088
731.91	0.088
732.11	0.088
732.30	0.088
732.49	0.088
732.69	0.089
732.88	0.089
733.07	0.089
733.26	0.089
733.46	0.088
733.65	0.088
733.84	0.088
734.03	0.088
734.23	0.088
734.42	0.088
734.61	0.088
734.80	0.087
735.00	0.088
735.19	0.087
735.38	0.087
735.57	0.087
735.77	0.087
735.96	0.088
736.15	0.088
736.34	0.088
736.54	0.088
736.73	0.088
736.92	0.088
737.11	0.088
737.31	0.088
737.50	0.088
737.69	0.089
737.88	0.088
738.07	0.088
738.27	0.088
738.46	0.088
738.65	0.088
738.84	0.088
739.04	0.088
739.23	0.088
739.42	0.088
739.61	0.088
739.80	0.088
740.00	0.088
740.19	0.088
740.38	0.088
740.57	0.087
740.76	0.087
740.96	0.087
741.15	0.087
741.34	0.086
741.53	0.087
741.72	0.087
741.92	0.087
742.11	0.087
742.30	0.087
742.49	0.087
742.68	0.087
742.88	0.088
743.07	0.087
743.26	0.087
743.45	0.087
743.64	0.087
743.84	0.086
744.03	0.086
744.22	0.087
744.41	0.087
744.60	0.086
744.79	0.086
744.99	0.086
745.18	0.086
745.37	0.086
745.56	0.086
745.75	0.086
745.94	0.086
746.14	0.086
746.33	0.086
746.52	0.086
746.71	0.086
746.90	0.085
747.09	0.086
747.28	0.085
747.48	0.085
747.67	0.085
747.86	0.085
748.05	0.085
748.24	0.084
748.43	0.085
748.62	0.084
748.82	0.085
749.01	0.085
749.20	0.084
749.39	0.084
749.58	0.085
749.77	0.085
749.96	0.085
750.16	0.085
750.35	0.085
750.54	0.085
750.73	0.085
750.92	0.085
751.11	0.085
751.30	0.085
751.49	0.085
751.68	0.084
751.88	0.084
752.07	0.084
752.26	0.084
752.45	0.084
752.64	0.083
752.83	0.084
753.02	0.083
753.21	0.084
753.40	0.083
753.60	0.084
753.79	0.084
753.98	0.084
754.17	0.084
754.36	0.084
754.55	0.084
754.74	0.084
754.93	0.084
755.12	0.084
755.31	0.084
755.50	0.084
755.70	0.083
755.89	0.083
756.08	0.083
756.27	0.083
756.46	0.083
756.65	0.083
756.84	0.082
757.03	0.083
757.22	0.082
757.41	0.082
757.60	0.082
757.79	0.082
757.98	0.083
758.17	0.083
758.36	0.083
758.56	0.082
758.75	0.082
758.94	0.082
759.13	0.082
759.32	0.082
759.51	0.082
759.70	0.082
759.89	0.082
760.08	0.082
760.27	0.082
760.46	0.081
760.65	0.081
760.84	0.081
761.03	0.081
761.22	0.081
761.41	0.081
761.60	0.081
761.79	0.081
761.98	0.081
762.17	0.081
762.36	0.081
762.55	0.081
762.74	0.081
762.93	0.081
763.12	0.081
763.31	0.081
763.50	0.081
763.69	0.080
763.88	0.080
764.07	0.080
764.26	0.080
764.45	0.080
764.64	0.080
764.83	0.080
765.02	0.080
765.21	0.080
765.40	0.080
765.59	0.080
765.78	0.080
765.97	0.080
766.16	0.080
766.35	0.080
766.54	0.080
766.73	0.080
766.92	0.080
767.11	0.080
767.30	0.080
767.49	0.080
767.68	0.080
767.87	0.080
768.06	0.080
768.25	0.080
768.44	0.080
768.63	0.080
768.82	0.080
769.01	0.080
769.20	0.079
769.39	0.080
769.58	0.080
769.77	0.080
769.96	0.080
770.15	0.080
770.34	0.080
770.53	0.079
770.72	0.079
770.91	0.079
771.10	0.079
771.29	0.079
771.47	0.079
771.66	0.079
771.85	0.079
772.04	0.079
772.23	0.079
772.42	0.078
772.61	0.079
772.80	0.079
772.99	0.079
773.18	0.079
773.37	0.079
773.56	0.079
773.75	0.079
773.94	0.079
774.13	0.078
774.31	0.079
774.50	0.079
774.69	0.079
774.88	0.078
775.07	0.079
775.26	0.078
775.45	0.078
775.64	0.078
775.83	0.078
776.02	0.078
776.21	0.078
776.40	0.078
776.58	0.077
776.77	0.078
776.96	0.078
777.15	0.078
777.34	0.078
777.53	0.078
777.72	0.078
777.91	0.078
778.10	0.078
778.28	0.078
778.47	0.078
778.66	0.077
778.85	0.077
779.04	0.077
779.23	0.076
779.42	0.076
779.61	0.076
779.79	0.076
779.98	0.076
780.17	0.076
780.36	0.076
780.55	0.075
780.74	0.075
780.93	0.075
781.12	0.075
781.30	0.076
781.49	0.076
781.68	0.075
781.87	0.076
782.06	0.075
782.25	0.075
782.44	0.076
782.62	0.076
782.81	0.076
783.00	0.076
783.19	0.077
783.38	0.076
783.57	0.076
783.75	0.076
783.94	0.076
784.13	0.076
784.32	0.076
784.51	0.076
784.70	0.076
784.88	0.076
785.07	0.075
785.26	0.075
785.45	0.076
785.64	0.075
785.83	0.076
786.01	0.075
786.20	0.075
786.39	0.075
786.58	0.075
786.77	0.075
786.95	0.075
787.14	0.075
787.33	0.075
787.52	0.075
787.71	0.075
787.90	0.075
788.08	0.075
788.27	0.075
788.46	0.075
788.65	0.075
788.84	0.075
789.02	0.075
789.21	0.075
789.40	0.075
789.59	0.075
789.77	0.075
789.96	0.075
790.15	0.075
790.34	0.075
790.53	0.075
790.71	0.075
790.90	0.075
791.09	0.074
791.28	0.075
791.46	0.075
791.65	0.075
791.84	0.075
792.03	0.074
792.22	0.074
792.40	0.074
792.59	0.074
792.78	0.074
792.97	0.075
793.15	0.075
793.34	0.074
793.53	0.075
793.72	0.074
793.90	0.074
794.09	0.074
794.28	0.074
794.47	0.074
794.65	0.074
794.84	0.074
795.03	0.074
795.22	0.074
795.40	0.074
795.59	0.073
795.78	0.073
795.97	0.074
796.15	0.074
796.34	0.074
796.53	0.074
796.71	0.074
796.90	0.074
797.09	0.074
797.28	0.074
797.46	0.074
797.65	0.074
797.84	0.074
798.02	0.074
798.21	0.074
798.40	0.074
798.59	0.074
798.77	0.074
798.96	0.073
799.15	0.073
799.33	0.073
799.52	0.073
799.71	0.073
799.90	0.073
800.08	0.073
800.27	0.073
800.46	0.073
800.64	0.072
800.83	0.073
801.02	0.073
801.20	0.073
801.39	0.072
801.58	0.072
801.76	0.073
801.95	0.073
802.14	0.073
802.32	0.073
802.51	0.073
802.70	0.072
802.88	0.072
803.07	0.072
803.26	0.072
803.44	0.072
803.63	0.072
803.82	0.071
804.00	0.071
804.19	0.071
804.38	0.072
804.56	0.071
804.75	0.071
804.94	0.072
805.12	0.072
805.31	0.072
805.50	0.072
805.68	0.072
805.87	0.072
806.06	0.072
806.24	0.072
806.43	0.073
806.62	0.073
806.80	0.073
806.99	0.073
807.17	0.073
807.36	0.073
807.55	0.073
807.73	0.073
807.92	0.073
808.11	0.073
808.29	0.072
808.48	0.072
808.66	0.072
808.85	0.072
809.04	0.071
809.22	0.071
809.41	0.071
809.59	0.071
809.78	0.071
809.97	0.071
810.15	0.070
810.34	0.070
810.53	0.071
810.71	0.070
810.90	0.071
811.08	0.070
811.27	0.070
811.45	0.070
811.64	0.071
811.83	0.071
812.01	0.071
812.20	0.071
812.38	0.071
812.57	0.071
812.76	0.071
812.94	0.071
813.13	0.071
813.31	0.071
813.50	0.072
813.68	0.072
813.87	0.071
814.06	0.072
814.24	0.071
814.43	0.072
814.61	0.072
814.80	0.071
814.98	0.072
815.17	0.072
815.36	0.072
815.54	0.072
815.73	0.071
815.91	0.072
816.10	0.072
816.28	0.071
816.47	0.071
816.65	0.072
816.84	0.072
817.03	0.072
817.21	0.072
817.40	0.072
817.58	0.071
817.77	0.071
817.95	0.071
818.14	0.071
818.32	0.072
818.51	0.072
818.69	0.071
818.88	0.071
819.06	0.071
819.25	0.071
819.43	0.071
819.62	0.071
819.80	0.071
819.99	0.071
820.18	0.072
820.36	0.071
820.55	0.072
820.73	0.072
820.92	0.072
821.10	0.072
821.29	0.072
821.47	0.072
821.66	0.072
821.84	0.073
822.03	0.073
822.21	0.073
822.40	0.072
822.58	0.072
822.77	0.072
822.95	0.072
823.14	0.072
823.32	0.072
823.50	0.072
823.69	0.072
823.87	0.072
824.06	0.072
824.24	0.073
824.43	0.073
824.61	0.073
824.80	0.073
824.98	0.073
825.17	0.074
825.35	0.073
825.54	0.073
825.72	0.073
825.91	0.073
826.09	0.073
826.28	0.073
826.46	0.074
826.64	0.074
826.83	0.074
827.01	0.074
827.20	0.074
827.38	0.073
827.57	0.074
827.75	0.074
827.94	0.074
828.12	0.074
828.31	0.074
828.49	0.074
828.67	0.074
828.86	0.074
829.04	0.074
829.23	0.074
829.41	0.075
829.60	0.075
829.78	0.075
829.96	0.076
830.15	0.076
830.33	0.076
830.52	0.076
830.70	0.076
830.88	0.076
831.07	0.077
831.25	0.077
831.44	0.077
831.62	0.077
831.81	0.077
831.99	0.076
832.17	0.077
832.36	0.077
832.54	0.076
832.73	0.077
832.91	0.077
833.09	0.076
833.28	0.076
833.46	0.077
833.65	0.077
833.83	0.077
834.01	0.077
834.20	0.077
834.38	0.077
834.56	0.077
834.75	0.077
834.93	0.078
835.12	0.078
835.30	0.078
835.48	0.078
835.67	0.078
835.85	0.078
836.03	0.077
836.22	0.077
836.40	0.078
836.59	0.078
836.77	0.078
836.95	0.078
837.14	0.078
837.32	0.078
837.50	0.078
837.69	0.078
837.87	0.078
838.05	0.078
838.24	0.078
838.42	0.078
838.60	0.078
838.79	0.079
838.97	0.078
839.15	0.079
839.34	0.078
839.52	0.079
839.70	0.079
839.89	0.079
840.07	0.079
840.25	0.079
840.44	0.079
840.62	0.079
840.80	0.079
840.99	0.079
841.17	0.079
841.35	0.079
841.54	0.079
841.72	0.079
841.90	0.079
842.09	0.079
842.27	0.079
842.45	0.079
842.64	0.079
842.82	0.079
843.00	0.079
843.19	0.079
843.37	0.078
843.55	0.079
843.73	0.078
843.92	0.079
844.10	0.079
844.28	0.079
844.47	0.079
844.65	0.079
844.83	0.079
845.01	0.079
845.20	0.079
845.38	0.080
845.56	0.080
845.75	0.080
845.93	0.080
846.11	0.079
846.29	0.080
846.48	0.079
846.66	0.079
846.84	0.079
847.02	0.079
847.21	0.079
847.39	0.079
847.57	0.079
847.76	0.080
847.94	0.080
848.12	0.080
848.30	0.080
848.49	0.080
848.67	0.080
848.85	0.080
849.03	0.080
849.22	0.080
849.40	0.080
849.58	0.080
849.76	0.080
849.95	0.080
850.13	0.080
850.31	0.080
850.49	0.080
850.67	0.081
850.86	0.081
851.04	0.080
851.22	0.080
851.40	0.081
851.59	0.081
851.77	0.081
851.95	0.081
852.13	0.081
852.31	0.081
852.50	0.081
852.68	0.081
852.86	0.081
853.04	0.081
853.23	0.081
853.41	0.080
853.59	0.081
853.77	0.080
853.95	0.080
854.14	0.080
854.32	0.080
854.50	0.080
854.68	0.080
854.86	0.080
855.04	0.080
855.23	0.080
855.41	0.080
855.59	0.080
855.77	0.080
855.95	0.080
856.14	0.080
856.32	0.081
856.50	0.081
856.68	0.081
856.86	0.081
857.04	0.081
857.23	0.081
857.41	0.080
857.59	0.081
857.77	0.081
857.95	0.080
858.13	0.080
858.32	0.080
858.50	0.081
858.68	0.080
858.86	0.080
859.04	0.081
859.22	0.080
859.41	0.081
859.59	0.081
859.77	0.081
859.95	0.081
860.13	0.081
860.31	0.081
860.49	0.081
860.68	0.081
860.86	0.081
861.04	0.081
861.22	0.081
861.40	0.081
861.58	0.081
861.76	0.081
861.94	0.081
862.13	0.081
862.31	0.081
862.49	0.081
862.67	0.081
862.85	0.081
863.03	0.081
863.21	0.081
863.39	0.081
863.57	0.082
863.76	0.082
863.94	0.082
864.12	0.082
864.30	0.082
864.48	0.082
864.66	0.082
864.84	0.082
865.02	0.082
865.20	0.082
865.38	0.082
865.57	0.082
865.75	0.082
865.93	0.083
866.11	0.082
866.29	0.083
866.47	0.083
866.65	0.083
866.83	0.083
867.01	0.083
867.19	0.083
867.37	0.082
867.55	0.083
867.73	0.083
867.92	0.082
868.10	0.082
868.28	0.082
868.46	0.082
868.64	0.082
868.82	0.082
869.00	0.082
869.18	0.082
869.36	0.082
869.54	0.082
869.72	0.082
869.90	0.082
870.08	0.082
870.26	0.083
870.44	0.083
870.62	0.082
870.80	0.082
870.98	0.082
871.16	0.083
871.34	0.082
871.53	0.082
871.71	0.082
871.89	0.082
872.07	0.083
872.25	0.082
872.43	0.082
872.61	0.083
872.79	0.083
872.97	0.083
873.15	0.083
873.33	0.083
873.51	0.084
873.69	0.083
873.87	0.083
874.05	0.083
874.23	0.083
874.41	0.083
874.59	0.084
874.77	0.083
874.95	0.083
875.13	0.083
875.31	0.083
875.49	0.083
875.67	0.083
875.85	0.083
876.03	0.084
876.21	0.084
876.39	0.084
876.57	0.084
876.75	0.084
876.93	0.083
877.11	0.083
877.29	0.083
877.47	0.083
877.65	0.084
877.82	0.084
878.00	0.084
878.18	0.084
878.36	0.084
878.54	0.084
878.72	0.084
878.90	0.084
879.08	0.085
879.26	0.084
879.44	0.084
879.62	0.084
879.80	0.084
879.98	0.084
880.16	0.084
880.34	0.084
880.52	0.084
880.70	0.084
880.88	0.084
881.06	0.085
881.24	0.084
881.42	0.085
881.59	0.084
881.77	0.084
881.95	0.084
882.13	0.085
882.31	0.085
882.49	0.084
882.67	0.085
882.85	0.084
883.03	0.084
883.21	0.085
883.39	0.085
883.57	0.085
883.75	0.085
883.92	0.085
884.10	0.085
884.28	0.085
884.46	0.085
884.64	0.086
884.82	0.086
885.00	0.085
885.18	0.086
885.36	0.086
885.54	0.086
885.71	0.086
885.89	0.087
886.07	0.087
886.25	0.087
886.43	0.087
886.61	0.087
886.79	0.087
886.97	0.087
887.15	0.087
887.32	0.087
887.50	0.087
887.68	0.087
887.86	0.087
888.04	0.087
888.22	0.088
888.40	0.087
888.57	0.087
888.75	0.087
888.93	0.088
889.11	0.087
889.29	0.087
889.47	0.088
889.65	0.088
889.82	0.088
890.00	0.088
890.18	0.088
890.36	0.088
890.54	0.088
890.72	0.088
890.90	0.088
891.07	0.088
891.25	0.087
891.43	0.087
891.61	0.087
891.79	0.087
891.97	0.087
892.14	0.087
892.32	0.087
892.50	0.087
892.68	0.087
892.86	0.088
893.03	0.088
893.21	0.088
893.39	0.088
893.57	0.088
893.75	0.088
893.93	0.088
894.10	0.088
894.28	0.088
894.46	0.088
894.64	0.088
894.82	0.088
894.99	0.088
895.17	0.088
895.35	0.088
895.53	0.088
895.71	0.088
895.88	0.088
896.06	0.088
896.24	0.089
896.42	0.088
896.59	0.089
896.77	0.089
896.95	0.089
897.13	0.089
897.31	0.089
897.48	0.089
897.66	0.089
897.84	0.089
898.02	0.089
898.19	0.089
898.37	0.089
898.55	0.089
898.73	0.089
898.91	0.089
899.08	0.089
899.26	0.089
899.44	0.090
899.62	0.090
899.79	0.090
899.97	0.091
900.15	0.090
900.33	0.090
900.50	0.090
900.68	0.090
900.86	0.090
901.04	0.090
901.21	0.090
901.39	0.090
901.57	0.090
901.74	0.090
901.92	0.090
902.10	0.090
902.28	0.090
902.45	0.090
902.63	0.090
902.81	0.090
902.99	0.090
903.16	0.090
903.34	0.090
903.52	0.090
903.69	0.090
903.87	0.090
904.05	0.091
904.22	0.091
904.40	0.091
904.58	0.091
904.76	0.091
904.93	0.091
905.11	0.091
905.29	0.092
905.46	0.092
905.64	0.092
905.82	0.092
905.99	0.091
906.17	0.091
906.35	0.091
906.53	0.091
906.70	0.091
906.88	0.092
907.06	0.092
907.23	0.092
907.41	0.092
907.59	0.092
907.76	0.092
907.94	0.092
908.12	0.092
908.29	0.093
908.47	0.093
908.65	0.093
908.82	0.093
909.00	0.093
909.18	0.093
909.35	0.093
909.53	0.093
909.71	0.093
909.88	0.093
910.06	0.093
910.23	0.093
910.41	0.094
910.59	0.093
910.76	0.093
910.94	0.093
911.12	0.093
911.29	0.094
911.47	0.094
911.65	0.094
911.82	0.094
912.00	0.094
912.17	0.094
912.35	0.095
912.53	0.095
912.70	0.095
912.88	0.095
913.06	0.096
913.23	0.096
913.41	0.096
913.58	0.096
913.76	0.095
913.94	0.096
914.11	0.096
914.29	0.096
914.46	0.096
914.64	0.096
914.82	0.096
914.99	0.096
915.17	0.096
915.34	0.096
915.52	0.096
915.70	0.096
915.87	0.096
916.05	0.097
916.22	0.097
916.40	0.097
916.57	0.097
916.75	0.097
916.93	0.098
917.10	0.097
917.28	0.098
917.45	0.097
917.63	0.097
917.80	0.097
917.98	0.097
918.16	0.098
918.33	0.098
918.51	0.098
918.68	0.098
918.86	0.098
919.03	0.099
919.21	0.099
919.39	0.099
919.56	0.099
919.74	0.100
919.91	0.100
920.09	0.100
920.26	0.100
920.44	0.100
920.61	0.100
920.79	0.101
920.96	0.101
921.14	0.101
921.31	0.101
921.49	0.101
921.67	0.101
921.84	0.102
922.02	0.102
922.19	0.102
922.37	0.102
922.54	0.102
922.72	0.102
922.89	0.103
923.07	0.103
923.24	0.103
923.42	0.103
923.59	0.103
923.77	0.103
923.94	0.104
924.12	0.104
924.29	0.105
924.47	0.105
924.64	0.106
924.82	0.106
924.99	0.107
925.17	0.107
925.34	0.108
925.52	0.108
925.69	0.108
925.87	0.108
926.04	0.108
926.22	0.109
926.39	0.109
926.57	0.109
926.74	0.109
926.91	0.109
927.09	0.110
927.26	0.109
927.44	0.110
927.61	0.110
927.79	0.111
927.96	0.111
928.14	0.111
928.31	0.112
928.49	0.112
928.66	0.113
928.84	0.114
929.01	0.114
929.18	0.115
929.36	0.115
929.53	0.116
929.71	0.116
929.88	0.117
930.06	0.117
930.23	0.118
930.41	0.118
930.58	0.118
930.75	0.119
930.93	0.119
931.10	0.119
931.28	0.119
931.45	0.120
931.63	0.120
931.80	0.120
931.97	0.121
932.15	0.121
932.32	0.122
932.50	0.122
932.67	0.123
932.84	0.123
933.02	0.124
933.19	0.124
933.37	0.125
933.54	0.125
933.71	0.126
933.89	0.127
934.06	0.127
934.24	0.128
934.41	0.128
934.58	0.128
934.76	0.129
934.93	0.129
935.11	0.130
935.28	0.130
935.45	0.130
935.63	0.131
935.80	0.131
935.98	0.132
936.15	0.131
936.32	0.131
936.50	0.132
936.67	0.132
936.84	0.133
937.02	0.134
937.19	0.135
937.36	0.135
937.54	0.136
937.71	0.137
937.89	0.137
938.06	0.138
938.23	0.139
938.41	0.140
938.58	0.140
938.75	0.140
938.93	0.141
939.10	0.141
939.27	0.141
939.45	0.142
939.62	0.143
939.79	0.144
939.97	0.144
940.14	0.144
940.31	0.145
940.49	0.145
940.66	0.145
940.83	0.146
941.01	0.147
941.18	0.147
941.35	0.148
941.53	0.148
941.70	0.149
941.87	0.149
942.05	0.150
942.22	0.151
942.39	0.152
942.57	0.152
942.74	0.153
942.91	0.153
943.08	0.153
943.26	0.154
943.43	0.155
943.60	0.155
943.78	0.156
943.95	0.157
944.12	0.157
944.29	0.158
944.47	0.159
944.64	0.160
944.81	0.161
944.99	0.162
945.16	0.162
945.33	0.163
945.50	0.164
945.68	0.165
945.85	0.165
946.02	0.167
946.20	0.168
946.37	0.169
946.54	0.169
946.71	0.170
946.89	0.171
947.06	0.171
947.23	0.172
947.40	0.173
947.58	0.173
947.75	0.175
947.92	0.175
948.09	0.176
948.27	0.177
948.44	0.179
948.61	0.180
948.78	0.180
948.96	0.182
949.13	0.183
949.30	0.184
949.47	0.185
949.65	0.186
949.82	0.188
949.99	0.188
950.16	0.190
950.33	0.191
950.51	0.192
950.68	0.193
950.85	0.194
951.02	0.195
951.20	0.196
951.37	0.198
951.54	0.198
951.71	0.200
951.88	0.201
952.06	0.202
952.23	0.202
952.40	0.204
952.57	0.205
952.74	0.207
952.92	0.208
953.09	0.209
953.26	0.210
953.43	0.211
953.60	0.212
953.77	0.213
953.95	0.214
954.12	0.216
954.29	0.216
954.46	0.219
954.63	0.220
954.81	0.220
954.98	0.221
955.15	0.224
955.32	0.225
955.49	0.225
955.66	0.226
955.84	0.228
956.01	0.228
956.18	0.231
956.35	0.232
956.52	0.232
956.69	0.235
956.87	0.235
957.04	0.236
957.21	0.238
957.38	0.238
957.55	0.240
957.72	0.241
957.89	0.242
958.07	0.242
958.24	0.244
958.41	0.245
958.58	0.245
958.75	0.245
958.92	0.247
959.09	0.247
959.26	0.247
959.44	0.248
959.61	0.249
959.78	0.250
959.95	0.251
960.12	0.251
960.29	0.254
960.46	0.253
960.63	0.254
960.81	0.254
960.98	0.255
961.15	0.255
961.32	0.255
961.49	0.254
961.66	0.256
961.83	0.256
962.00	0.256
962.17	0.257
962.34	0.256
962.52	0.257
962.69	0.258
962.86	0.258
963.03	0.259
963.20	0.259
963.37	0.260
963.54	0.261
963.71	0.261
963.88	0.261
964.05	0.262
964.22	0.263
964.39	0.262
964.56	0.262
964.74	0.264
964.91	0.264
965.08	0.264
965.25	0.264
965.42	0.264
965.59	0.265
965.76	0.264
965.93	0.265
966.10	0.264
966.27	0.264
966.44	0.264
966.61	0.265
966.78	0.264
966.95	0.263
967.12	0.264
967.29	0.266
967.46	0.266
967.63	0.265
967.80	0.266
967.97	0.265
968.14	0.265
968.32	0.266
968.49	0.266
968.66	0.265
968.83	0.266
969.00	0.266
969.17	0.266
969.34	0.267
969.51	0.269
969.68	0.268
969.85	0.268
970.02	0.268
970.19	0.267
970.36	0.268
970.53	0.268
970.70	0.266
970.87	0.267
971.04	0.266
971.21	0.267
971.38	0.267
971.55	0.267
971.72	0.267
971.89	0.268
972.06	0.268
972.23	0.268
972.40	0.268
972.57	0.267
972.74	0.267
972.91	0.268
973.07	0.267
973.24	0.267
973.41	0.267
973.58	0.266
973.75	0.278
973.92	0.267
974.09	0.266
974.26	0.266
974.43	0.266
974.60	0.267
974.77	0.268
974.94	0.267
975.11	0.268
975.28	0.269
975.45	0.267
975.62	0.268
975.79	0.269
975.96	0.268
976.13	0.266
976.30	0.268
976.47	0.267
976.64	0.266
976.80	0.267
976.97	0.266
977.14	0.266
977.31	0.266
977.48	0.266
977.65	0.266
977.82	0.265
977.99	0.267
978.16	0.267
978.33	0.267
978.50	0.266
978.67	0.266
978.83	0.266
979.00	0.266
979.17	0.266
979.34	0.265
979.51	0.264
979.68	0.265
979.85	0.264
980.02	0.265
980.19	0.263
980.36	0.265
980.52	0.265
980.69	0.263
980.86	0.264
981.03	0.264
981.20	0.262
981.37	0.263
981.54	0.262
981.71	0.261
981.88	0.261
982.04	0.261
982.21	0.260
982.38	0.262
982.55	0.261
982.72	0.260
982.89	0.261
983.06	0.260
983.22	0.259
983.39	0.261
983.56	0.260
983.73	0.260
983.90	0.259
984.07	0.261
984.24	0.260
984.40	0.259
984.57	0.257
984.74	0.260
984.91	0.261
985.08	0.258
985.25	0.256
985.41	0.257
985.58	0.257
985.75	0.259
985.92	0.257
986.09	0.256
986.26	0.256
986.42	0.256
986.59	0.254
986.76	0.255
986.93	0.255
987.10	0.256
987.27	0.253
987.43	0.251
987.60	0.253
987.77	0.252
987.94	0.251
988.11	0.251
988.27	0.252
988.44	0.252
988.61	0.250
988.78	0.249
988.95	0.249
989.11	0.251
989.28	0.249
989.45	0.248
989.62	0.248
989.79	0.249
989.95	0.248
990.12	0.249
990.29	0.248
990.46	0.246
990.62	0.245
990.79	0.245
990.96	0.245
991.13	0.246
991.30	0.244
991.46	0.244
991.63	0.242
991.80	0.241
991.97	0.241
992.13	0.242
992.30	0.243
992.47	0.242
992.64	0.242
992.80	0.242
992.97	0.242
993.14	0.240
993.31	0.237
993.47	0.240
993.64	0.238
993.81	0.238
993.98	0.239
994.14	0.237
994.31	0.235
994.48	0.235
994.64	0.235
994.81	0.234
994.98	0.234
995.15	0.232
995.31	0.232
995.48	0.231
995.65	0.233
995.82	0.231
995.98	0.231
996.15	0.232
996.32	0.234
996.48	0.232
996.65	0.233
996.82	0.230
996.99	0.231
997.15	0.231
997.32	0.232
997.49	0.231
997.65	0.231
997.82	0.231
997.99	0.230
998.15	0.230
998.32	0.232
998.49	0.230
998.65	0.230
998.82	0.230
998.99	0.227
999.15	0.227
999.32	0.226
999.49	0.226
999.65	0.226
999.82	0.223
999.99	0.224
1000.15	0.223
1000.32	0.224
1000.49	0.224
1000.65	0.221
1000.82	0.221
1000.99	0.221
1001.15	0.221
1001.32	0.220
1001.49	0.221
1001.65	0.221
1001.82	0.223
1001.99	0.220
1002.15	0.219
1002.32	0.219
1002.49	0.219
1002.65	0.218
1002.82	0.217
1002.99	0.217
1003.15	0.219
1003.32	0.217
1003.48	0.216
1003.65	0.216
1003.82	0.214
1003.98	0.212
1004.15	0.212
1004.32	0.213
1004.48	0.213
1004.65	0.214
1004.81	0.211
1004.98	0.210
1005.15	0.211
1005.31	0.211
1005.48	0.209
1005.64	0.209
1005.81	0.211
1005.98	0.207
1006.14	0.207
1006.31	0.208
1006.47	0.207
1006.64	0.205
1006.81	0.205
1006.97	0.204
1007.14	0.204
1007.30	0.204
1007.47	0.205
1007.63	0.203
1007.80	0.202
1007.97	0.201
1008.13	0.201
1008.30	0.200
1008.46	0.201
1008.63	0.200
1008.79	0.201
1008.96	0.201
1009.13	0.203
1009.29	0.200
1009.46	0.200
1009.62	0.199
1009.79	0.198
1009.95	0.198
1010.12	0.198
1010.28	0.198
1010.45	0.197
1010.62	0.197
1010.78	0.195
1010.95	0.194
1011.11	0.194
1011.28	0.193
1011.44	0.196
1011.61	0.193
1011.77	0.193
1011.94	0.193
1012.10	0.193
1012.27	0.193
1012.43	0.193
1012.60	0.192
1012.76	0.193
1012.93	0.191
1013.10	0.190
1013.26	0.187
1013.43	0.189
1013.59	0.196
1013.76	0.189
1013.92	0.188
1014.09	0.186
1014.25	0.187
1014.42	0.187
1014.58	0.186
1014.75	0.189
1014.91	0.187
1015.08	0.189
1015.24	0.186
1015.41	0.187
1015.57	0.186
1015.73	0.185
1015.90	0.183
1016.06	0.186
1016.23	0.184
1016.39	0.184
1016.56	0.185
1016.72	0.184
1016.89	0.184
1017.05	0.186
1017.22	0.182
1017.38	0.183
1017.55	0.181
1017.71	0.183
1017.88	0.182
1018.04	0.182
1018.21	0.180
1018.37	0.179
1018.53	0.179
1018.70	0.177
1018.86	0.177
1019.03	0.180
1019.19	0.178
1019.36	0.178
1019.52	0.179
1019.69	0.179
1019.85	0.178
1020.01	0.178
1020.18	0.177
1020.34	0.177
1020.51	0.177
1020.67	0.177
1020.84	0.175
1021.00	0.175
1021.16	0.173
1021.33	0.175
1021.49	0.173
1021.66	0.174
1021.82	0.172
1021.98	0.172
1022.15	0.171
1022.31	0.170
1022.48	0.170
1022.64	0.171
1022.80	0.169
1022.97	0.168
1023.13	0.167
1023.30	0.167
1023.46	0.169
1023.62	0.166
1023.79	0.168
1023.95	0.169
1024.12	0.168
1024.28	0.167
1024.44	0.167
1024.61	0.166
1024.77	0.165
1024.93	0.165
1025.10	0.166
1025.26	0.163
1025.43	0.164
1025.59	0.160
1025.75	0.164
1025.92	0.163
1026.08	0.161
1026.24	0.161
1026.41	0.163
1026.57	0.161
1026.73	0.159
1026.90	0.161
1027.06	0.159
1027.23	0.160
1027.39	0.160
1027.55	0.160
1027.72	0.158
1027.88	0.158
1028.04	0.159
1028.21	0.159
1028.37	0.153
1028.53	0.158
1028.70	0.156
1028.86	0.154
1029.02	0.154
1029.19	0.155
1029.35	0.154
1029.51	0.154
1029.67	0.153
1029.84	0.153
1030.00	0.148
1030.16	0.150
1030.33	0.152
1030.49	0.150
1030.65	0.147
1030.82	0.164
1030.98	0.150
1031.14	0.149
1031.31	0.149
1031.47	0.146
1031.63	0.150
1031.79	0.149
1031.96	0.150
1032.12	0.151
1032.28	0.148
1032.45	0.152
1032.61	0.150
1032.77	0.149
1032.93	0.147
1033.10	0.149
1033.26	0.152
1033.42	0.149
1033.58	0.149
1033.75	0.150
1033.91	0.149
1034.07	0.151
1034.24	0.150
1034.40	0.148
1034.56	0.147
1034.72	0.147
1034.89	0.148
1035.05	0.145
1035.21	0.145
1035.37	0.144
1035.54	0.147
1035.70	0.144
1035.86	0.144
1036.02	0.146
1036.19	0.144
1036.35	0.143
1036.51	0.147
1036.67	0.144
1036.83	0.143
1037.00	0.142
1037.16	0.142
1037.32	0.142
1037.48	0.141
1037.65	0.146
1037.81	0.142
1037.97	0.143
1038.13	0.142
1038.29	0.140
1038.46	0.138
1038.62	0.141
1038.78	0.139
1038.94	0.136
1039.10	0.141
1039.27	0.135
1039.43	0.136
1039.59	0.135
1039.75	0.135
1039.91	0.135
1040.08	0.135
1040.24	0.137
1040.40	0.140
1040.56	0.138
1040.72	0.133
1040.89	0.135
1041.05	0.139
1041.21	0.137
1041.37	0.134
1041.53	0.139
1041.69	0.136
1041.86	0.135
1042.02	0.132
1042.18	0.134
1042.34	0.136
1042.50	0.140
1042.66	0.137
1042.83	0.135
1042.99	0.137
1043.15	0.134
1043.31	0.134
1043.47	0.138
1043.63	0.135
1043.79	0.134
1043.96	0.135
1044.12	0.139
1044.28	0.134
1044.44	0.137
1044.60	0.132
1044.76	0.131
1044.92	0.133
1045.09	0.134
1045.25	0.130
1045.41	0.131
1045.57	0.126
1045.73	0.126
1045.89	0.127
1046.05	0.128
1046.21	0.135
1046.38	0.128
1046.54	0.143
1046.70	0.131
1046.86	0.118
>>>>>End Processed Spectral Data<<<<<
