SpectraSuite Data File
++++++++++++++++++++++++++++++++++++
Date: Mon May 20 12:11:59 CDT 2013
User: Students
Dark Spectrum Present: Yes
Reference Spectrum Present: Yes
Number of Sampled Component Spectra: 1
Spectrometers: USB4H00887
Integration Time (usec): 60000 (USB4H00887)
Spectra Averaged: 5 (USB4H00887)
Boxcar Smoothing: 5 (USB4H00887)
Correct for Electrical Dark: No (USB4H00887)
Strobe/Lamp Enabled: No (USB4H00887)
Correct for Detector Non-linearity: No (USB4H00887)
Correct for Stray Light: No (USB4H00887)
Number of Pixels in Processed Spectrum: 3648
>>>>>Begin Processed Spectral Data<<<<<
345.83	-0.324
346.05	-0.324
346.26	-0.324
346.48	-0.000
346.70	0.372
346.92	0.172
347.14	0.092
347.35	0.063
347.57	0.205
347.79	-0.180
348.01	-0.145
348.23	-0.349
348.44	-0.000
348.66	0.262
348.88	-0.332
349.10	-0.085
349.32	0.012
349.53	0.035
349.75	0.081
349.97	0.072
350.19	0.124
350.41	0.124
350.62	-0.367
350.84	0.065
351.06	0.064
351.28	0.043
351.50	0.054
351.71	0.212
351.93	0.108
352.15	0.015
352.37	-0.045
352.58	0.017
352.80	0.033
353.02	0.066
353.24	0.067
353.46	0.254
353.67	-0.126
353.89	0.051
354.11	0.039
354.33	0.039
354.54	0.069
354.76	0.180
354.98	0.179
355.20	0.116
355.41	0.045
355.63	0.124
355.85	0.053
356.07	0.292
356.28	0.047
356.50	0.075
356.72	0.045
356.94	0.099
357.15	0.134
357.37	-0.000
357.59	0.097
357.81	0.073
358.02	0.073
358.24	0.066
358.46	0.167
358.68	0.146
358.89	0.075
359.11	-0.000
359.33	0.070
359.55	-0.543
359.76	0.112
359.98	0.148
360.20	0.142
360.42	0.145
360.63	0.188
360.85	0.143
361.07	0.974
361.29	0.122
361.50	0.344
361.72	0.130
361.94	0.539
362.15	0.219
362.37	0.130
362.59	0.134
362.81	0.200
363.02	0.332
363.24	0.531
363.46	0.246
363.68	0.295
363.89	0.188
364.11	0.271
364.33	0.288
364.54	0.167
364.76	0.208
364.98	0.226
365.20	0.279
365.41	0.161
365.63	0.190
365.85	0.136
366.06	0.516
366.28	0.467
366.50	0.290
366.71	0.123
366.93	0.150
367.15	0.128
367.37	0.124
367.58	0.167
367.80	0.214
368.02	1.550
368.23	0.233
368.45	0.220
368.67	0.209
368.88	0.212
369.10	-0.000
369.32	0.223
369.53	0.122
369.75	0.210
369.97	0.485
370.19	0.235
370.40	0.082
370.62	0.233
370.84	0.096
371.05	0.598
371.27	0.145
371.49	0.192
371.70	0.220
371.92	0.377
372.14	0.124
372.35	0.151
372.57	0.170
372.79	0.432
373.00	0.104
373.22	0.161
373.44	0.137
373.65	0.104
373.87	0.152
374.09	0.650
374.30	0.138
374.52	0.176
374.74	0.113
374.95	0.531
375.17	0.144
375.39	-0.000
375.60	0.163
375.82	0.313
376.04	0.128
376.25	0.144
376.47	0.086
376.68	0.170
376.90	0.100
377.12	0.246
377.33	0.142
377.55	0.308
377.77	0.161
377.98	0.273
378.20	0.147
378.42	0.171
378.63	0.201
378.85	-0.000
379.07	0.134
379.28	0.440
379.50	0.262
379.71	0.141
379.93	0.093
380.15	0.119
380.36	0.158
380.58	0.121
380.80	0.307
381.01	0.110
381.23	0.112
381.44	0.127
381.66	0.141
381.88	0.177
382.09	-0.082
382.31	0.127
382.53	0.124
382.74	0.661
382.96	0.178
383.17	0.156
383.39	0.226
383.61	0.280
383.82	0.194
384.04	0.232
384.25	0.282
384.47	0.240
384.69	0.262
384.90	0.240
385.12	0.489
385.33	0.305
385.55	0.220
385.77	0.337
385.98	0.175
386.20	0.244
386.41	0.209
386.63	0.239
386.85	0.207
387.06	0.253
387.28	0.407
387.49	0.266
387.71	0.184
387.93	0.171
388.14	0.471
388.36	0.206
388.57	0.181
388.79	0.219
389.01	-0.000
389.22	0.269
389.44	0.230
389.65	0.198
389.87	0.203
390.08	0.249
390.30	0.195
390.52	0.377
390.73	0.382
390.95	0.264
391.16	0.256
391.38	-0.000
391.59	0.304
391.81	0.249
392.03	0.232
392.24	0.262
392.46	0.216
392.67	0.187
392.89	0.280
393.10	0.416
393.32	0.285
393.53	0.316
393.75	0.199
393.97	0.218
394.18	0.300
394.40	0.261
394.61	0.280
394.83	0.256
395.04	0.315
395.26	0.209
395.47	0.329
395.69	0.280
395.91	0.306
396.12	0.362
396.34	0.382
396.55	0.242
396.77	0.367
396.98	-0.000
397.20	0.456
397.41	0.510
397.63	0.338
397.84	0.308
398.06	0.294
398.27	0.294
398.49	0.340
398.71	0.241
398.92	0.288
399.14	0.382
399.35	0.468
399.57	0.415
399.78	0.281
400.00	0.271
400.21	0.324
400.43	0.251
400.64	0.269
400.86	0.652
401.07	0.354
401.29	0.311
401.50	0.328
401.72	0.467
401.93	0.302
402.15	0.368
402.36	0.331
402.58	0.270
402.79	0.306
403.01	0.512
403.22	0.372
403.44	0.255
403.65	0.404
403.87	0.427
404.08	0.345
404.30	0.548
404.51	0.304
404.73	0.367
404.94	0.320
405.16	0.340
405.37	0.281
405.59	0.523
405.80	0.319
406.02	0.402
406.23	0.412
406.45	0.456
406.66	0.502
406.88	0.325
407.09	0.505
407.31	0.391
407.52	0.459
407.74	0.363
407.95	0.430
408.17	0.411
408.38	0.430
408.60	0.280
408.81	0.474
409.03	0.358
409.24	0.356
409.45	0.427
409.67	0.423
409.88	0.388
410.10	0.495
410.31	0.411
410.53	0.398
410.74	0.546
410.96	0.550
411.17	0.587
411.39	0.438
411.60	0.415
411.82	0.475
412.03	0.457
412.24	0.425
412.46	0.622
412.67	0.482
412.89	0.467
413.10	0.469
413.32	0.421
413.53	0.470
413.75	0.480
413.96	0.350
414.17	0.466
414.39	0.457
414.60	0.388
414.82	0.508
415.03	0.408
415.25	0.464
415.46	0.326
415.68	0.451
415.89	0.870
416.10	0.684
416.32	0.377
416.53	0.447
416.75	0.438
416.96	0.529
417.18	0.454
417.39	0.433
417.60	0.428
417.82	0.610
418.03	0.535
418.25	0.443
418.46	0.467
418.67	0.429
418.89	0.458
419.10	0.470
419.32	0.634
419.53	0.577
419.75	0.492
419.96	0.434
420.17	0.553
420.39	0.517
420.60	0.533
420.82	0.671
421.03	0.531
421.24	0.451
421.46	0.507
421.67	0.557
421.89	0.475
422.10	0.509
422.31	0.501
422.53	0.722
422.74	0.525
422.96	0.421
423.17	0.459
423.38	0.570
423.60	0.472
423.81	0.579
424.03	0.494
424.24	0.562
424.45	0.561
424.67	0.558
424.88	0.491
425.09	0.543
425.31	0.497
425.52	0.531
425.74	0.603
425.95	0.656
426.16	0.504
426.38	0.596
426.59	0.538
426.80	0.618
427.02	0.657
427.23	0.510
427.45	0.670
427.66	0.665
427.87	0.507
428.09	0.540
428.30	0.606
428.51	0.591
428.73	0.644
428.94	0.571
429.15	0.557
429.37	0.527
429.58	0.559
429.79	0.516
430.01	0.609
430.22	0.608
430.44	0.611
430.65	0.547
430.86	0.596
431.08	0.577
431.29	0.526
431.50	0.625
431.72	0.850
431.93	0.684
432.14	0.508
432.36	0.558
432.57	0.575
432.78	0.608
433.00	0.556
433.21	0.545
433.42	0.683
433.64	0.592
433.85	0.682
434.06	0.546
434.28	0.574
434.49	0.589
434.70	0.605
434.92	0.611
435.13	0.651
435.34	0.668
435.56	0.634
435.77	0.632
435.98	0.826
436.20	0.672
436.41	0.580
436.62	0.570
436.83	0.659
437.05	0.751
437.26	0.651
437.47	0.580
437.69	0.634
437.90	0.573
438.11	0.560
438.33	0.610
438.54	0.631
438.75	0.800
438.97	0.778
439.18	0.580
439.39	0.601
439.60	0.659
439.82	0.613
440.03	0.562
440.24	0.820
440.46	0.623
440.67	0.603
440.88	0.646
441.10	0.608
441.31	0.607
441.52	0.659
441.73	0.739
441.95	0.646
442.16	0.602
442.37	0.959
442.58	0.592
442.80	0.574
443.01	0.746
443.22	0.679
443.44	0.574
443.65	0.674
443.86	0.671
444.07	0.720
444.29	0.625
444.50	0.789
444.71	0.598
444.92	0.567
445.14	0.723
445.35	0.756
445.56	0.601
445.78	0.710
445.99	0.717
446.20	0.619
446.41	0.694
446.63	0.699
446.84	0.660
447.05	0.662
447.26	0.794
447.48	0.677
447.69	0.643
447.90	0.728
448.11	0.641
448.33	0.662
448.54	0.683
448.75	0.713
448.96	0.722
449.18	0.764
449.39	0.682
449.60	0.659
449.81	0.784
450.03	0.678
450.24	0.742
450.45	0.708
450.66	0.697
450.87	0.727
451.09	0.678
451.30	0.654
451.51	0.725
451.72	0.739
451.94	0.763
452.15	0.831
452.36	0.698
452.57	0.713
452.78	0.717
453.00	0.742
453.21	0.701
453.42	0.680
453.63	0.775
453.85	0.740
454.06	0.739
454.27	0.874
454.48	0.776
454.69	0.702
454.91	0.770
455.12	0.663
455.33	0.746
455.54	0.768
455.75	0.746
455.97	0.777
456.18	0.762
456.39	0.758
456.60	0.779
456.81	0.720
457.03	0.731
457.24	0.725
457.45	0.817
457.66	0.763
457.87	0.712
458.09	0.728
458.30	0.647
458.51	0.760
458.72	0.789
458.93	0.799
459.15	0.700
459.36	0.763
459.57	0.795
459.78	0.832
459.99	0.745
460.20	0.709
460.42	0.784
460.63	0.740
460.84	0.729
461.05	0.744
461.26	0.802
461.47	0.730
461.69	0.778
461.90	0.814
462.11	0.782
462.32	0.843
462.53	0.784
462.74	0.882
462.96	0.764
463.17	0.755
463.38	0.792
463.59	0.902
463.80	0.749
464.01	0.768
464.23	0.849
464.44	0.805
464.65	0.807
464.86	0.826
465.07	0.833
465.28	0.793
465.49	0.820
465.71	0.782
465.92	0.821
466.13	0.869
466.34	0.807
466.55	0.861
466.76	0.820
466.97	0.845
467.19	0.833
467.40	0.867
467.61	0.881
467.82	0.795
468.03	0.779
468.24	0.846
468.45	0.878
468.66	0.860
468.88	0.866
469.09	0.872
469.30	0.918
469.51	0.846
469.72	0.889
469.93	0.857
470.14	0.839
470.35	0.926
470.57	0.878
470.78	0.816
470.99	0.949
471.20	0.885
471.41	0.845
471.62	0.892
471.83	0.868
472.04	0.898
472.25	0.936
472.47	0.854
472.68	0.861
472.89	0.860
473.10	0.906
473.31	0.853
473.52	0.913
473.73	0.934
473.94	0.858
474.15	0.877
474.36	0.878
474.57	0.906
474.79	0.878
475.00	0.880
475.21	0.871
475.42	0.956
475.63	0.864
475.84	0.895
476.05	0.901
476.26	0.875
476.47	0.907
476.68	0.950
476.89	0.881
477.10	0.931
477.32	0.915
477.53	0.965
477.74	0.885
477.95	0.923
478.16	0.873
478.37	0.914
478.58	0.917
478.79	0.935
479.00	0.937
479.21	0.893
479.42	0.929
479.63	0.936
479.84	0.901
480.05	0.901
480.26	0.930
480.47	0.950
480.69	0.952
480.90	0.921
481.11	0.916
481.32	0.973
481.53	0.916
481.74	0.969
481.95	0.936
482.16	0.954
482.37	0.964
482.58	0.929
482.79	0.945
483.00	0.971
483.21	0.916
483.42	0.892
483.63	0.966
483.84	0.995
484.05	0.981
484.26	0.952
484.47	0.948
484.68	0.909
484.89	0.915
485.10	0.958
485.31	0.935
485.52	0.937
485.73	0.936
485.94	0.973
486.15	0.923
486.37	0.945
486.58	0.910
486.79	0.923
487.00	0.970
487.21	0.962
487.42	0.958
487.63	0.964
487.84	0.979
488.05	0.974
488.26	0.935
488.47	0.943
488.68	0.967
488.89	0.945
489.10	0.939
489.31	0.948
489.52	0.978
489.73	0.948
489.94	0.981
490.15	0.945
490.36	0.982
490.57	0.937
490.78	0.921
490.99	0.955
491.20	1.026
491.41	0.987
491.62	0.935
491.83	0.964
492.04	0.959
492.25	0.969
492.45	0.970
492.66	0.993
492.87	0.984
493.08	0.973
493.29	0.959
493.50	0.952
493.71	0.958
493.92	0.956
494.13	0.971
494.34	0.991
494.55	0.997
494.76	1.022
494.97	1.018
495.18	0.984
495.39	0.999
495.60	0.952
495.81	0.952
496.02	0.971
496.23	0.965
496.44	0.996
496.65	0.989
496.86	0.992
497.07	1.014
497.28	1.008
497.49	0.962
497.70	0.963
497.91	0.983
498.12	0.969
498.32	1.008
498.53	0.992
498.74	0.979
498.95	1.004
499.16	0.964
499.37	0.972
499.58	0.981
499.79	1.006
500.00	1.002
500.21	1.026
500.42	0.975
500.63	0.979
500.84	0.997
501.05	0.979
501.26	1.001
501.46	1.037
501.67	0.999
501.88	1.001
502.09	0.979
502.30	0.988
502.51	1.035
502.72	0.990
502.93	1.004
503.14	1.027
503.35	1.000
503.56	0.998
503.77	1.029
503.97	1.006
504.18	1.003
504.39	1.038
504.60	1.006
504.81	1.032
505.02	1.019
505.23	1.019
505.44	1.001
505.65	1.009
505.86	0.989
506.07	1.052
506.27	1.016
506.48	1.019
506.69	1.004
506.90	1.023
507.11	1.022
507.32	1.000
507.53	1.008
507.74	1.001
507.95	1.013
508.15	1.019
508.36	1.022
508.57	1.033
508.78	1.018
508.99	1.017
509.20	0.995
509.41	1.017
509.62	1.007
509.82	1.004
510.03	1.014
510.24	1.013
510.45	1.034
510.66	1.026
510.87	1.021
511.08	0.984
511.29	1.025
511.49	1.000
511.70	1.047
511.91	0.983
512.12	0.981
512.33	1.012
512.54	1.026
512.75	1.008
512.95	1.033
513.16	1.024
513.37	1.002
513.58	1.035
513.79	1.002
514.00	1.007
514.20	1.026
514.41	1.016
514.62	0.986
514.83	1.025
515.04	1.019
515.25	0.998
515.46	1.009
515.66	1.010
515.87	1.023
516.08	0.993
516.29	1.014
516.50	0.994
516.71	0.988
516.91	0.998
517.12	1.011
517.33	0.995
517.54	0.984
517.75	0.986
517.95	0.997
518.16	1.009
518.37	0.981
518.58	0.988
518.79	0.963
519.00	0.994
519.20	1.002
519.41	0.978
519.62	0.996
519.83	1.005
520.04	0.971
520.24	0.968
520.45	0.976
520.66	0.996
520.87	0.960
521.08	0.958
521.28	0.960
521.49	0.976
521.70	0.946
521.91	0.960
522.12	0.943
522.32	0.963
522.53	0.946
522.74	0.936
522.95	0.945
523.16	0.946
523.36	0.955
523.57	0.939
523.78	0.934
523.99	0.939
524.20	0.931
524.40	0.943
524.61	0.950
524.82	0.927
525.03	0.930
525.23	0.932
525.44	0.917
525.65	0.915
525.86	0.935
526.06	0.908
526.27	0.910
526.48	0.918
526.69	0.899
526.90	0.903
527.10	0.935
527.31	0.895
527.52	0.886
527.73	0.880
527.93	0.888
528.14	0.893
528.35	0.884
528.56	0.885
528.76	0.879
528.97	0.871
529.18	0.863
529.39	0.862
529.59	0.864
529.80	0.893
530.01	0.868
530.22	0.867
530.42	0.838
530.63	0.854
530.84	0.833
531.05	0.845
531.25	0.849
531.46	0.840
531.67	0.822
531.88	0.839
532.08	0.833
532.29	0.830
532.50	0.823
532.70	0.815
532.91	0.807
533.12	0.809
533.33	0.832
533.53	0.804
533.74	0.804
533.95	0.809
534.15	0.797
534.36	0.798
534.57	0.781
534.78	0.783
534.98	0.792
535.19	0.765
535.40	0.765
535.60	0.783
535.81	0.761
536.02	0.764
536.23	0.755
536.43	0.756
536.64	0.744
536.85	0.751
537.05	0.759
537.26	0.739
537.47	0.741
537.67	0.731
537.88	0.726
538.09	0.733
538.30	0.724
538.50	0.715
538.71	0.726
538.92	0.714
539.12	0.709
539.33	0.705
539.54	0.704
539.74	0.708
539.95	0.700
540.16	0.697
540.36	0.690
540.57	0.690
540.78	0.684
540.98	0.682
541.19	0.681
541.40	0.670
541.60	0.679
541.81	0.675
542.02	0.675
542.22	0.665
542.43	0.660
542.64	0.656
542.84	0.655
543.05	0.647
543.26	0.648
543.46	0.650
543.67	0.648
543.88	0.644
544.08	0.634
544.29	0.629
544.50	0.629
544.70	0.630
544.91	0.620
545.12	0.621
545.32	0.617
545.53	0.620
545.74	0.609
545.94	0.606
546.15	0.603
546.35	0.600
546.56	0.597
546.77	0.594
546.97	0.592
547.18	0.585
547.39	0.585
547.59	0.584
547.80	0.580
548.01	0.585
548.21	0.581
548.42	0.573
548.62	0.572
548.83	0.570
549.04	0.565
549.24	0.558
549.45	0.557
549.65	0.554
549.86	0.550
550.07	0.549
550.27	0.546
550.48	0.553
550.69	0.540
550.89	0.540
551.10	0.536
551.30	0.535
551.51	0.534
551.72	0.524
551.92	0.525
552.13	0.524
552.33	0.525
552.54	0.520
552.75	0.513
552.95	0.514
553.16	0.510
553.36	0.508
553.57	0.505
553.78	0.504
553.98	0.504
554.19	0.496
554.39	0.493
554.60	0.496
554.80	0.496
555.01	0.489
555.22	0.490
555.42	0.487
555.63	0.481
555.83	0.485
556.04	0.479
556.25	0.481
556.45	0.473
556.66	0.471
556.86	0.474
557.07	0.472
557.27	0.470
557.48	0.465
557.68	0.463
557.89	0.464
558.10	0.460
558.30	0.458
558.51	0.456
558.71	0.453
558.92	0.448
559.12	0.450
559.33	0.453
559.54	0.448
559.74	0.443
559.95	0.441
560.15	0.441
560.36	0.439
560.56	0.434
560.77	0.434
560.97	0.433
561.18	0.429
561.38	0.428
561.59	0.431
561.79	0.427
562.00	0.425
562.21	0.421
562.41	0.420
562.62	0.419
562.82	0.417
563.03	0.414
563.23	0.413
563.44	0.413
563.64	0.410
563.85	0.411
564.05	0.404
564.26	0.404
564.46	0.403
564.67	0.403
564.87	0.399
565.08	0.396
565.28	0.396
565.49	0.397
565.69	0.394
565.90	0.390
566.10	0.392
566.31	0.386
566.51	0.388
566.72	0.388
566.92	0.383
567.13	0.382
567.33	0.381
567.54	0.380
567.74	0.379
567.95	0.375
568.15	0.376
568.36	0.376
568.56	0.375
568.77	0.370
568.97	0.368
569.18	0.367
569.38	0.366
569.59	0.366
569.79	0.363
570.00	0.360
570.20	0.359
570.41	0.357
570.61	0.355
570.82	0.356
571.02	0.353
571.23	0.355
571.43	0.351
571.64	0.350
571.84	0.349
572.05	0.347
572.25	0.347
572.45	0.346
572.66	0.342
572.86	0.341
573.07	0.340
573.27	0.340
573.48	0.339
573.68	0.335
573.89	0.335
574.09	0.336
574.30	0.334
574.50	0.333
574.70	0.333
574.91	0.332
575.11	0.332
575.32	0.331
575.52	0.327
575.73	0.327
575.93	0.326
576.14	0.325
576.34	0.324
576.54	0.322
576.75	0.320
576.95	0.319
577.16	0.317
577.36	0.316
577.57	0.316
577.77	0.315
577.97	0.312
578.18	0.314
578.38	0.311
578.59	0.310
578.79	0.308
579.00	0.309
579.20	0.307
579.40	0.307
579.61	0.306
579.81	0.305
580.02	0.302
580.22	0.301
580.42	0.300
580.63	0.300
580.83	0.298
581.04	0.296
581.24	0.296
581.45	0.295
581.65	0.295
581.85	0.294
582.06	0.292
582.26	0.292
582.47	0.291
582.67	0.290
582.87	0.290
583.08	0.288
583.28	0.288
583.48	0.286
583.69	0.283
583.89	0.284
584.10	0.285
584.30	0.283
584.50	0.281
584.71	0.280
584.91	0.280
585.12	0.278
585.32	0.278
585.52	0.275
585.73	0.274
585.93	0.274
586.13	0.272
586.34	0.272
586.54	0.271
586.75	0.269
586.95	0.268
587.15	0.268
587.36	0.267
587.56	0.267
587.76	0.265
587.97	0.265
588.17	0.263
588.37	0.263
588.58	0.263
588.78	0.260
588.98	0.261
589.19	0.260
589.39	0.258
589.60	0.260
589.80	0.257
590.00	0.257
590.21	0.257
590.41	0.255
590.61	0.255
590.82	0.254
591.02	0.253
591.22	0.251
591.43	0.252
591.63	0.250
591.83	0.250
592.04	0.249
592.24	0.249
592.44	0.247
592.65	0.246
592.85	0.246
593.05	0.246
593.26	0.245
593.46	0.245
593.66	0.244
593.86	0.243
594.07	0.241
594.27	0.241
594.47	0.240
594.68	0.239
594.88	0.239
595.08	0.238
595.29	0.239
595.49	0.236
595.69	0.236
595.90	0.235
596.10	0.235
596.30	0.234
596.50	0.233
596.71	0.233
596.91	0.232
597.11	0.231
597.32	0.231
597.52	0.230
597.72	0.230
597.93	0.229
598.13	0.227
598.33	0.227
598.53	0.227
598.74	0.226
598.94	0.225
599.14	0.225
599.35	0.225
599.55	0.225
599.75	0.224
599.95	0.223
600.16	0.224
600.36	0.222
600.56	0.222
600.76	0.221
600.97	0.220
601.17	0.219
601.37	0.220
601.58	0.218
601.78	0.218
601.98	0.218
602.18	0.217
602.39	0.217
602.59	0.217
602.79	0.216
602.99	0.217
603.20	0.216
603.40	0.216
603.60	0.215
603.80	0.215
604.01	0.214
604.21	0.213
604.41	0.212
604.61	0.211
604.82	0.210
605.02	0.210
605.22	0.209
605.42	0.209
605.62	0.209
605.83	0.208
606.03	0.208
606.23	0.208
606.43	0.207
606.64	0.207
606.84	0.206
607.04	0.206
607.24	0.206
607.45	0.206
607.65	0.204
607.85	0.205
608.05	0.204
608.25	0.204
608.46	0.203
608.66	0.204
608.86	0.203
609.06	0.202
609.26	0.201
609.47	0.201
609.67	0.200
609.87	0.201
610.07	0.199
610.28	0.198
610.48	0.198
610.68	0.198
610.88	0.196
611.08	0.197
611.29	0.195
611.49	0.195
611.69	0.195
611.89	0.193
612.09	0.193
612.29	0.193
612.50	0.193
612.70	0.192
612.90	0.191
613.10	0.191
613.30	0.190
613.51	0.191
613.71	0.190
613.91	0.194
614.11	0.190
614.31	0.190
614.51	0.190
614.72	0.189
614.92	0.189
615.12	0.189
615.32	0.190
615.52	0.189
615.72	0.189
615.93	0.189
616.13	0.188
616.33	0.188
616.53	0.187
616.73	0.187
616.93	0.186
617.14	0.186
617.34	0.185
617.54	0.185
617.74	0.185
617.94	0.184
618.14	0.184
618.34	0.183
618.55	0.183
618.75	0.184
618.95	0.183
619.15	0.183
619.35	0.182
619.55	0.182
619.75	0.183
619.96	0.182
620.16	0.182
620.36	0.181
620.56	0.181
620.76	0.180
620.96	0.180
621.16	0.181
621.36	0.180
621.57	0.180
621.77	0.180
621.97	0.179
622.17	0.179
622.37	0.179
622.57	0.179
622.77	0.178
622.97	0.177
623.18	0.177
623.38	0.177
623.58	0.177
623.78	0.176
623.98	0.176
624.18	0.175
624.38	0.174
624.58	0.175
624.78	0.175
624.98	0.175
625.19	0.175
625.39	0.175
625.59	0.174
625.79	0.174
625.99	0.174
626.19	0.174
626.39	0.174
626.59	0.174
626.79	0.173
626.99	0.173
627.19	0.172
627.40	0.173
627.60	0.172
627.80	0.172
628.00	0.172
628.20	0.171
628.40	0.170
628.60	0.171
628.80	0.170
629.00	0.170
629.20	0.169
629.40	0.170
629.60	0.168
629.80	0.168
630.00	0.168
630.20	0.167
630.41	0.167
630.61	0.167
630.81	0.167
631.01	0.167
631.21	0.166
631.41	0.166
631.61	0.166
631.81	0.166
632.01	0.166
632.21	0.166
632.41	0.165
632.61	0.165
632.81	0.165
633.01	0.165
633.21	0.165
633.41	0.165
633.61	0.164
633.81	0.164
634.01	0.163
634.21	0.163
634.41	0.162
634.61	0.162
634.81	0.162
635.01	0.161
635.22	0.161
635.42	0.161
635.62	0.161
635.82	0.162
636.02	0.161
636.22	0.161
636.42	0.160
636.62	0.160
636.82	0.160
637.02	0.160
637.22	0.160
637.42	0.159
637.62	0.158
637.82	0.158
638.02	0.158
638.22	0.157
638.42	0.157
638.62	0.157
638.82	0.157
639.02	0.157
639.22	0.157
639.42	0.156
639.62	0.156
639.82	0.156
640.02	0.156
640.22	0.156
640.42	0.156
640.62	0.156
640.82	0.156
641.02	0.155
641.22	0.156
641.42	0.155
641.61	0.155
641.81	0.156
642.01	0.155
642.21	0.155
642.41	0.155
642.61	0.154
642.81	0.153
643.01	0.153
643.21	0.153
643.41	0.153
643.61	0.153
643.81	0.152
644.01	0.151
644.21	0.150
644.41	0.151
644.61	0.151
644.81	0.151
645.01	0.151
645.21	0.151
645.41	0.150
645.61	0.150
645.81	0.150
646.01	0.149
646.21	0.150
646.40	0.150
646.60	0.150
646.80	0.150
647.00	0.149
647.20	0.148
647.40	0.148
647.60	0.148
647.80	0.147
648.00	0.147
648.20	0.147
648.40	0.147
648.60	0.146
648.80	0.146
649.00	0.146
649.20	0.147
649.39	0.146
649.59	0.146
649.79	0.146
649.99	0.145
650.19	0.145
650.39	0.145
650.59	0.145
650.79	0.144
650.99	0.144
651.19	0.143
651.39	0.143
651.58	0.143
651.78	0.142
651.98	0.143
652.18	0.143
652.38	0.142
652.58	0.143
652.78	0.143
652.98	0.142
653.18	0.143
653.38	0.143
653.57	0.143
653.77	0.143
653.97	0.142
654.17	0.142
654.37	0.141
654.57	0.141
654.77	0.140
654.97	0.140
655.16	0.140
655.36	0.139
655.56	0.138
655.76	0.138
655.96	0.138
656.16	0.137
656.36	0.137
656.56	0.137
656.75	0.137
656.95	0.137
657.15	0.137
657.35	0.137
657.55	0.136
657.75	0.137
657.95	0.137
658.14	0.137
658.34	0.137
658.54	0.137
658.74	0.136
658.94	0.136
659.14	0.136
659.34	0.136
659.53	0.135
659.73	0.135
659.93	0.134
660.13	0.134
660.33	0.134
660.53	0.133
660.72	0.134
660.92	0.134
661.12	0.133
661.32	0.133
661.52	0.133
661.72	0.133
661.91	0.132
662.11	0.132
662.31	0.132
662.51	0.132
662.71	0.132
662.90	0.131
663.10	0.130
663.30	0.130
663.50	0.130
663.70	0.130
663.90	0.129
664.09	0.129
664.29	0.129
664.49	0.129
664.69	0.129
664.89	0.129
665.08	0.129
665.28	0.128
665.48	0.128
665.68	0.127
665.88	0.127
666.07	0.127
666.27	0.127
666.47	0.127
666.67	0.127
666.87	0.127
667.06	0.126
667.26	0.126
667.46	0.126
667.66	0.126
667.85	0.126
668.05	0.126
668.25	0.125
668.45	0.125
668.65	0.125
668.84	0.125
669.04	0.125
669.24	0.125
669.44	0.124
669.63	0.124
669.83	0.124
670.03	0.123
670.23	0.123
670.42	0.123
670.62	0.122
670.82	0.121
671.02	0.121
671.22	0.120
671.41	0.120
671.61	0.120
671.81	0.121
672.01	0.121
672.20	0.121
672.40	0.120
672.60	0.120
672.80	0.120
672.99	0.120
673.19	0.120
673.39	0.119
673.58	0.119
673.78	0.119
673.98	0.118
674.18	0.118
674.37	0.117
674.57	0.117
674.77	0.118
674.97	0.118
675.16	0.118
675.36	0.117
675.56	0.117
675.75	0.117
675.95	0.116
676.15	0.117
676.35	0.116
676.54	0.116
676.74	0.116
676.94	0.116
677.13	0.116
677.33	0.115
677.53	0.115
677.73	0.115
677.92	0.115
678.12	0.115
678.32	0.114
678.51	0.114
678.71	0.114
678.91	0.113
679.11	0.113
679.30	0.113
679.50	0.113
679.70	0.112
679.89	0.112
680.09	0.112
680.29	0.112
680.48	0.112
680.68	0.111
680.88	0.112
681.07	0.112
681.27	0.112
681.47	0.112
681.66	0.111
681.86	0.111
682.06	0.111
682.25	0.111
682.45	0.111
682.65	0.110
682.84	0.110
683.04	0.109
683.24	0.109
683.43	0.110
683.63	0.109
683.83	0.109
684.02	0.109
684.22	0.108
684.42	0.108
684.61	0.109
684.81	0.109
685.01	0.109
685.20	0.108
685.40	0.108
685.60	0.108
685.79	0.108
685.99	0.108
686.19	0.108
686.38	0.108
686.58	0.108
686.77	0.108
686.97	0.107
687.17	0.107
687.36	0.107
687.56	0.107
687.76	0.106
687.95	0.106
688.15	0.106
688.34	0.106
688.54	0.105
688.74	0.105
688.93	0.105
689.13	0.104
689.33	0.104
689.52	0.104
689.72	0.104
689.91	0.104
690.11	0.103
690.31	0.102
690.50	0.103
690.70	0.103
690.89	0.103
691.09	0.102
691.29	0.103
691.48	0.102
691.68	0.102
691.87	0.102
692.07	0.102
692.27	0.102
692.46	0.102
692.66	0.101
692.85	0.101
693.05	0.101
693.25	0.101
693.44	0.101
693.64	0.101
693.83	0.101
694.03	0.101
694.22	0.100
694.42	0.100
694.62	0.100
694.81	0.100
695.01	0.100
695.20	0.100
695.40	0.099
695.59	0.099
695.79	0.099
695.99	0.099
696.18	0.099
696.38	0.099
696.57	0.099
696.77	0.099
696.96	0.099
697.16	0.099
697.36	0.099
697.55	0.099
697.75	0.099
697.94	0.098
698.14	0.098
698.33	0.098
698.53	0.098
698.72	0.097
698.92	0.097
699.11	0.097
699.31	0.097
699.51	0.097
699.70	0.097
699.90	0.096
700.09	0.097
700.29	0.096
700.48	0.096
700.68	0.096
700.87	0.096
701.07	0.096
701.26	0.095
701.46	0.095
701.65	0.095
701.85	0.095
702.04	0.095
702.24	0.094
702.43	0.094
702.63	0.094
702.82	0.094
703.02	0.094
703.21	0.094
703.41	0.094
703.60	0.094
703.80	0.093
703.99	0.093
704.19	0.093
704.38	0.093
704.58	0.092
704.77	0.093
704.97	0.093
705.16	0.093
705.36	0.093
705.55	0.093
705.75	0.092
705.94	0.093
706.14	0.093
706.33	0.093
706.53	0.093
706.72	0.093
706.92	0.092
707.11	0.092
707.31	0.091
707.50	0.091
707.70	0.092
707.89	0.092
708.09	0.092
708.28	0.091
708.48	0.091
708.67	0.091
708.86	0.091
709.06	0.091
709.25	0.091
709.45	0.091
709.64	0.091
709.84	0.090
710.03	0.090
710.23	0.090
710.42	0.090
710.62	0.090
710.81	0.090
711.00	0.090
711.20	0.090
711.39	0.089
711.59	0.089
711.78	0.089
711.98	0.090
712.17	0.090
712.37	0.090
712.56	0.090
712.75	0.090
712.95	0.090
713.14	0.090
713.34	0.090
713.53	0.090
713.73	0.090
713.92	0.090
714.11	0.090
714.31	0.090
714.50	0.090
714.70	0.090
714.89	0.089
715.08	0.090
715.28	0.089
715.47	0.089
715.67	0.089
715.86	0.089
716.06	0.089
716.25	0.089
716.44	0.089
716.64	0.088
716.83	0.088
717.03	0.088
717.22	0.087
717.41	0.087
717.61	0.087
717.80	0.088
717.99	0.087
718.19	0.087
718.38	0.087
718.58	0.087
718.77	0.087
718.96	0.087
719.16	0.087
719.35	0.086
719.55	0.086
719.74	0.086
719.93	0.086
720.13	0.086
720.32	0.086
720.51	0.086
720.71	0.086
720.90	0.086
721.10	0.086
721.29	0.086
721.48	0.086
721.68	0.086
721.87	0.086
722.06	0.086
722.26	0.087
722.45	0.086
722.64	0.087
722.84	0.087
723.03	0.086
723.22	0.087
723.42	0.086
723.61	0.086
723.80	0.086
724.00	0.087
724.19	0.087
724.38	0.086
724.58	0.086
724.77	0.086
724.96	0.086
725.16	0.086
725.35	0.086
725.54	0.086
725.74	0.086
725.93	0.086
726.12	0.086
726.32	0.086
726.51	0.086
726.70	0.086
726.90	0.086
727.09	0.086
727.28	0.086
727.48	0.086
727.67	0.086
727.86	0.086
728.06	0.086
728.25	0.085
728.44	0.086
728.64	0.086
728.83	0.086
729.02	0.085
729.21	0.086
729.41	0.086
729.60	0.086
729.79	0.086
729.99	0.086
730.18	0.086
730.37	0.086
730.56	0.085
730.76	0.085
730.95	0.086
731.14	0.085
731.34	0.085
731.53	0.085
731.72	0.085
731.91	0.085
732.11	0.085
732.30	0.085
732.49	0.085
732.69	0.085
732.88	0.085
733.07	0.085
733.26	0.085
733.46	0.085
733.65	0.085
733.84	0.085
734.03	0.086
734.23	0.086
734.42	0.086
734.61	0.085
734.80	0.085
735.00	0.086
735.19	0.085
735.38	0.086
735.57	0.085
735.77	0.086
735.96	0.085
736.15	0.085
736.34	0.085
736.54	0.086
736.73	0.086
736.92	0.085
737.11	0.085
737.31	0.085
737.50	0.086
737.69	0.086
737.88	0.086
738.07	0.085
738.27	0.085
738.46	0.085
738.65	0.085
738.84	0.085
739.04	0.085
739.23	0.085
739.42	0.085
739.61	0.085
739.80	0.084
740.00	0.085
740.19	0.085
740.38	0.085
740.57	0.085
740.76	0.085
740.96	0.085
741.15	0.085
741.34	0.085
741.53	0.085
741.72	0.085
741.92	0.085
742.11	0.084
742.30	0.084
742.49	0.084
742.68	0.084
742.88	0.085
743.07	0.085
743.26	0.085
743.45	0.085
743.64	0.084
743.84	0.084
744.03	0.084
744.22	0.084
744.41	0.084
744.60	0.084
744.79	0.084
744.99	0.084
745.18	0.083
745.37	0.083
745.56	0.083
745.75	0.083
745.94	0.083
746.14	0.083
746.33	0.083
746.52	0.083
746.71	0.083
746.90	0.083
747.09	0.083
747.28	0.082
747.48	0.083
747.67	0.083
747.86	0.083
748.05	0.083
748.24	0.082
748.43	0.082
748.62	0.082
748.82	0.082
749.01	0.082
749.20	0.082
749.39	0.081
749.58	0.082
749.77	0.081
749.96	0.082
750.16	0.082
750.35	0.082
750.54	0.082
750.73	0.082
750.92	0.082
751.11	0.082
751.30	0.082
751.49	0.082
751.68	0.081
751.88	0.081
752.07	0.081
752.26	0.081
752.45	0.080
752.64	0.080
752.83	0.080
753.02	0.080
753.21	0.080
753.40	0.080
753.60	0.080
753.79	0.080
753.98	0.080
754.17	0.080
754.36	0.079
754.55	0.080
754.74	0.080
754.93	0.079
755.12	0.079
755.31	0.080
755.50	0.080
755.70	0.080
755.89	0.079
756.08	0.080
756.27	0.079
756.46	0.080
756.65	0.080
756.84	0.080
757.03	0.080
757.22	0.079
757.41	0.079
757.60	0.079
757.79	0.079
757.98	0.079
758.17	0.079
758.36	0.079
758.56	0.079
758.75	0.078
758.94	0.079
759.13	0.079
759.32	0.079
759.51	0.079
759.70	0.079
759.89	0.079
760.08	0.079
760.27	0.078
760.46	0.079
760.65	0.079
760.84	0.078
761.03	0.078
761.22	0.078
761.41	0.078
761.60	0.078
761.79	0.077
761.98	0.078
762.17	0.078
762.36	0.078
762.55	0.077
762.74	0.077
762.93	0.077
763.12	0.077
763.31	0.077
763.50	0.077
763.69	0.077
763.88	0.077
764.07	0.077
764.26	0.077
764.45	0.077
764.64	0.077
764.83	0.077
765.02	0.077
765.21	0.077
765.40	0.077
765.59	0.077
765.78	0.077
765.97	0.077
766.16	0.077
766.35	0.077
766.54	0.077
766.73	0.077
766.92	0.077
767.11	0.077
767.30	0.077
767.49	0.077
767.68	0.077
767.87	0.077
768.06	0.077
768.25	0.077
768.44	0.077
768.63	0.076
768.82	0.076
769.01	0.076
769.20	0.076
769.39	0.076
769.58	0.076
769.77	0.076
769.96	0.076
770.15	0.076
770.34	0.076
770.53	0.076
770.72	0.076
770.91	0.076
771.10	0.076
771.29	0.076
771.47	0.075
771.66	0.075
771.85	0.075
772.04	0.075
772.23	0.075
772.42	0.075
772.61	0.075
772.80	0.075
772.99	0.075
773.18	0.075
773.37	0.075
773.56	0.075
773.75	0.075
773.94	0.075
774.13	0.075
774.31	0.075
774.50	0.075
774.69	0.075
774.88	0.075
775.07	0.075
775.26	0.075
775.45	0.074
775.64	0.074
775.83	0.074
776.02	0.074
776.21	0.074
776.40	0.075
776.58	0.075
776.77	0.075
776.96	0.075
777.15	0.075
777.34	0.075
777.53	0.075
777.72	0.075
777.91	0.075
778.10	0.075
778.28	0.075
778.47	0.075
778.66	0.074
778.85	0.074
779.04	0.074
779.23	0.074
779.42	0.074
779.61	0.074
779.79	0.074
779.98	0.073
780.17	0.074
780.36	0.073
780.55	0.073
780.74	0.073
780.93	0.073
781.12	0.073
781.30	0.073
781.49	0.073
781.68	0.073
781.87	0.073
782.06	0.073
782.25	0.073
782.44	0.073
782.62	0.073
782.81	0.073
783.00	0.073
783.19	0.073
783.38	0.073
783.57	0.073
783.75	0.072
783.94	0.072
784.13	0.072
784.32	0.072
784.51	0.072
784.70	0.073
784.88	0.072
785.07	0.072
785.26	0.072
785.45	0.072
785.64	0.072
785.83	0.073
786.01	0.072
786.20	0.072
786.39	0.073
786.58	0.073
786.77	0.072
786.95	0.073
787.14	0.072
787.33	0.073
787.52	0.072
787.71	0.072
787.90	0.072
788.08	0.072
788.27	0.072
788.46	0.072
788.65	0.072
788.84	0.072
789.02	0.072
789.21	0.072
789.40	0.072
789.59	0.072
789.77	0.072
789.96	0.071
790.15	0.072
790.34	0.071
790.53	0.071
790.71	0.071
790.90	0.071
791.09	0.070
791.28	0.071
791.46	0.071
791.65	0.071
791.84	0.071
792.03	0.071
792.22	0.071
792.40	0.071
792.59	0.071
792.78	0.071
792.97	0.071
793.15	0.071
793.34	0.071
793.53	0.071
793.72	0.071
793.90	0.070
794.09	0.070
794.28	0.070
794.47	0.070
794.65	0.070
794.84	0.070
795.03	0.070
795.22	0.070
795.40	0.070
795.59	0.070
795.78	0.070
795.97	0.070
796.15	0.071
796.34	0.071
796.53	0.071
796.71	0.071
796.90	0.071
797.09	0.071
797.28	0.071
797.46	0.071
797.65	0.071
797.84	0.070
798.02	0.070
798.21	0.070
798.40	0.070
798.59	0.069
798.77	0.069
798.96	0.069
799.15	0.069
799.33	0.069
799.52	0.069
799.71	0.069
799.90	0.070
800.08	0.070
800.27	0.069
800.46	0.069
800.64	0.069
800.83	0.069
801.02	0.069
801.20	0.069
801.39	0.069
801.58	0.069
801.76	0.069
801.95	0.069
802.14	0.069
802.32	0.069
802.51	0.070
802.70	0.069
802.88	0.069
803.07	0.069
803.26	0.068
803.44	0.068
803.63	0.068
803.82	0.068
804.00	0.068
804.19	0.068
804.38	0.068
804.56	0.068
804.75	0.068
804.94	0.068
805.12	0.068
805.31	0.068
805.50	0.069
805.68	0.069
805.87	0.069
806.06	0.069
806.24	0.069
806.43	0.069
806.62	0.069
806.80	0.069
806.99	0.069
807.17	0.069
807.36	0.069
807.55	0.069
807.73	0.069
807.92	0.069
808.11	0.069
808.29	0.068
808.48	0.068
808.66	0.068
808.85	0.068
809.04	0.068
809.22	0.067
809.41	0.068
809.59	0.068
809.78	0.068
809.97	0.067
810.15	0.067
810.34	0.068
810.53	0.068
810.71	0.068
810.90	0.068
811.08	0.068
811.27	0.068
811.45	0.068
811.64	0.068
811.83	0.068
812.01	0.068
812.20	0.068
812.38	0.068
812.57	0.068
812.76	0.068
812.94	0.068
813.13	0.068
813.31	0.068
813.50	0.068
813.68	0.068
813.87	0.068
814.06	0.068
814.24	0.068
814.43	0.068
814.61	0.068
814.80	0.067
814.98	0.068
815.17	0.068
815.36	0.068
815.54	0.068
815.73	0.068
815.91	0.068
816.10	0.068
816.28	0.068
816.47	0.068
816.65	0.068
816.84	0.068
817.03	0.068
817.21	0.068
817.40	0.068
817.58	0.068
817.77	0.068
817.95	0.068
818.14	0.068
818.32	0.068
818.51	0.068
818.69	0.068
818.88	0.068
819.06	0.068
819.25	0.068
819.43	0.068
819.62	0.068
819.80	0.068
819.99	0.068
820.18	0.068
820.36	0.068
820.55	0.069
820.73	0.069
820.92	0.069
821.10	0.069
821.29	0.069
821.47	0.069
821.66	0.069
821.84	0.069
822.03	0.069
822.21	0.069
822.40	0.068
822.58	0.068
822.77	0.068
822.95	0.068
823.14	0.068
823.32	0.068
823.50	0.069
823.69	0.069
823.87	0.069
824.06	0.069
824.24	0.069
824.43	0.069
824.61	0.069
824.80	0.069
824.98	0.069
825.17	0.070
825.35	0.070
825.54	0.070
825.72	0.070
825.91	0.069
826.09	0.069
826.28	0.069
826.46	0.070
826.64	0.070
826.83	0.070
827.01	0.070
827.20	0.070
827.38	0.070
827.57	0.071
827.75	0.070
827.94	0.071
828.12	0.071
828.31	0.071
828.49	0.071
828.67	0.072
828.86	0.072
829.04	0.071
829.23	0.071
829.41	0.072
829.60	0.072
829.78	0.072
829.96	0.073
830.15	0.073
830.33	0.073
830.52	0.072
830.70	0.072
830.88	0.072
831.07	0.072
831.25	0.072
831.44	0.072
831.62	0.072
831.81	0.072
831.99	0.072
832.17	0.072
832.36	0.073
832.54	0.073
832.73	0.073
832.91	0.073
833.09	0.073
833.28	0.073
833.46	0.073
833.65	0.073
833.83	0.073
834.01	0.074
834.20	0.073
834.38	0.073
834.56	0.074
834.75	0.074
834.93	0.074
835.12	0.074
835.30	0.074
835.48	0.074
835.67	0.074
835.85	0.074
836.03	0.074
836.22	0.074
836.40	0.074
836.59	0.074
836.77	0.074
836.95	0.075
837.14	0.075
837.32	0.074
837.50	0.074
837.69	0.074
837.87	0.074
838.05	0.074
838.24	0.074
838.42	0.074
838.60	0.074
838.79	0.075
838.97	0.074
839.15	0.075
839.34	0.074
839.52	0.075
839.70	0.075
839.89	0.075
840.07	0.075
840.25	0.075
840.44	0.075
840.62	0.075
840.80	0.075
840.99	0.075
841.17	0.075
841.35	0.075
841.54	0.075
841.72	0.075
841.90	0.075
842.09	0.075
842.27	0.075
842.45	0.075
842.64	0.075
842.82	0.075
843.00	0.075
843.19	0.075
843.37	0.075
843.55	0.075
843.73	0.075
843.92	0.075
844.10	0.075
844.28	0.076
844.47	0.076
844.65	0.076
844.83	0.076
845.01	0.076
845.20	0.076
845.38	0.077
845.56	0.077
845.75	0.077
845.93	0.077
846.11	0.076
846.29	0.076
846.48	0.076
846.66	0.077
846.84	0.077
847.02	0.076
847.21	0.076
847.39	0.076
847.57	0.076
847.76	0.076
847.94	0.076
848.12	0.076
848.30	0.076
848.49	0.076
848.67	0.076
848.85	0.076
849.03	0.076
849.22	0.076
849.40	0.077
849.58	0.077
849.76	0.077
849.95	0.077
850.13	0.077
850.31	0.077
850.49	0.077
850.67	0.077
850.86	0.077
851.04	0.077
851.22	0.076
851.40	0.077
851.59	0.077
851.77	0.077
851.95	0.077
852.13	0.077
852.31	0.077
852.50	0.077
852.68	0.077
852.86	0.077
853.04	0.077
853.23	0.077
853.41	0.077
853.59	0.077
853.77	0.077
853.95	0.077
854.14	0.076
854.32	0.077
854.50	0.076
854.68	0.076
854.86	0.076
855.04	0.076
855.23	0.077
855.41	0.077
855.59	0.077
855.77	0.077
855.95	0.077
856.14	0.078
856.32	0.077
856.50	0.077
856.68	0.077
856.86	0.077
857.04	0.077
857.23	0.077
857.41	0.077
857.59	0.077
857.77	0.077
857.95	0.077
858.13	0.077
858.32	0.077
858.50	0.077
858.68	0.077
858.86	0.076
859.04	0.077
859.22	0.076
859.41	0.077
859.59	0.077
859.77	0.077
859.95	0.076
860.13	0.076
860.31	0.076
860.49	0.076
860.68	0.076
860.86	0.077
861.04	0.076
861.22	0.076
861.40	0.076
861.58	0.076
861.76	0.076
861.94	0.076
862.13	0.076
862.31	0.076
862.49	0.077
862.67	0.077
862.85	0.077
863.03	0.077
863.21	0.078
863.39	0.078
863.57	0.078
863.76	0.078
863.94	0.078
864.12	0.078
864.30	0.078
864.48	0.078
864.66	0.078
864.84	0.078
865.02	0.079
865.20	0.079
865.38	0.079
865.57	0.078
865.75	0.079
865.93	0.079
866.11	0.079
866.29	0.079
866.47	0.079
866.65	0.079
866.83	0.079
867.01	0.079
867.19	0.079
867.37	0.078
867.55	0.078
867.73	0.079
867.92	0.078
868.10	0.079
868.28	0.079
868.46	0.078
868.64	0.078
868.82	0.078
869.00	0.079
869.18	0.079
869.36	0.079
869.54	0.079
869.72	0.079
869.90	0.079
870.08	0.079
870.26	0.079
870.44	0.079
870.62	0.079
870.80	0.079
870.98	0.079
871.16	0.079
871.34	0.079
871.53	0.079
871.71	0.079
871.89	0.079
872.07	0.079
872.25	0.079
872.43	0.079
872.61	0.079
872.79	0.079
872.97	0.079
873.15	0.079
873.33	0.079
873.51	0.079
873.69	0.080
873.87	0.080
874.05	0.080
874.23	0.080
874.41	0.079
874.59	0.080
874.77	0.080
874.95	0.080
875.13	0.080
875.31	0.080
875.49	0.080
875.67	0.080
875.85	0.080
876.03	0.080
876.21	0.080
876.39	0.080
876.57	0.080
876.75	0.080
876.93	0.080
877.11	0.080
877.29	0.080
877.47	0.080
877.65	0.080
877.82	0.081
878.00	0.081
878.18	0.081
878.36	0.081
878.54	0.081
878.72	0.081
878.90	0.081
879.08	0.081
879.26	0.081
879.44	0.082
879.62	0.081
879.80	0.081
879.98	0.081
880.16	0.081
880.34	0.081
880.52	0.081
880.70	0.080
880.88	0.080
881.06	0.080
881.24	0.080
881.42	0.080
881.59	0.080
881.77	0.080
881.95	0.080
882.13	0.080
882.31	0.080
882.49	0.080
882.67	0.081
882.85	0.081
883.03	0.081
883.21	0.081
883.39	0.081
883.57	0.082
883.75	0.082
883.92	0.081
884.10	0.082
884.28	0.082
884.46	0.082
884.64	0.082
884.82	0.082
885.00	0.082
885.18	0.082
885.36	0.082
885.54	0.082
885.71	0.083
885.89	0.083
886.07	0.083
886.25	0.082
886.43	0.083
886.61	0.082
886.79	0.082
886.97	0.082
887.15	0.083
887.32	0.082
887.50	0.083
887.68	0.082
887.86	0.083
888.04	0.083
888.22	0.083
888.40	0.083
888.57	0.083
888.75	0.083
888.93	0.083
889.11	0.082
889.29	0.082
889.47	0.083
889.65	0.083
889.82	0.083
890.00	0.083
890.18	0.083
890.36	0.083
890.54	0.083
890.72	0.083
890.90	0.083
891.07	0.083
891.25	0.083
891.43	0.083
891.61	0.083
891.79	0.083
891.97	0.083
892.14	0.083
892.32	0.083
892.50	0.083
892.68	0.083
892.86	0.083
893.03	0.083
893.21	0.084
893.39	0.084
893.57	0.084
893.75	0.084
893.93	0.084
894.10	0.084
894.28	0.084
894.46	0.084
894.64	0.084
894.82	0.084
894.99	0.084
895.17	0.084
895.35	0.084
895.53	0.084
895.71	0.084
895.88	0.084
896.06	0.085
896.24	0.085
896.42	0.085
896.59	0.085
896.77	0.085
896.95	0.085
897.13	0.085
897.31	0.085
897.48	0.085
897.66	0.085
897.84	0.085
898.02	0.085
898.19	0.085
898.37	0.085
898.55	0.085
898.73	0.085
898.91	0.085
899.08	0.085
899.26	0.085
899.44	0.085
899.62	0.085
899.79	0.085
899.97	0.085
900.15	0.085
900.33	0.085
900.50	0.085
900.68	0.085
900.86	0.085
901.04	0.085
901.21	0.086
901.39	0.085
901.57	0.085
901.74	0.086
901.92	0.086
902.10	0.086
902.28	0.086
902.45	0.086
902.63	0.086
902.81	0.086
902.99	0.087
903.16	0.087
903.34	0.087
903.52	0.087
903.69	0.087
903.87	0.087
904.05	0.087
904.22	0.087
904.40	0.087
904.58	0.087
904.76	0.087
904.93	0.087
905.11	0.087
905.29	0.087
905.46	0.087
905.64	0.087
905.82	0.088
905.99	0.087
906.17	0.087
906.35	0.087
906.53	0.087
906.70	0.088
906.88	0.088
907.06	0.088
907.23	0.088
907.41	0.088
907.59	0.087
907.76	0.088
907.94	0.088
908.12	0.087
908.29	0.088
908.47	0.088
908.65	0.088
908.82	0.088
909.00	0.088
909.18	0.089
909.35	0.089
909.53	0.089
909.71	0.089
909.88	0.089
910.06	0.089
910.23	0.089
910.41	0.090
910.59	0.089
910.76	0.089
910.94	0.089
911.12	0.089
911.29	0.090
911.47	0.090
911.65	0.090
911.82	0.090
912.00	0.090
912.17	0.090
912.35	0.091
912.53	0.091
912.70	0.091
912.88	0.091
913.06	0.092
913.23	0.092
913.41	0.092
913.58	0.092
913.76	0.092
913.94	0.092
914.11	0.093
914.29	0.092
914.46	0.093
914.64	0.092
914.82	0.092
914.99	0.092
915.17	0.092
915.34	0.092
915.52	0.092
915.70	0.093
915.87	0.092
916.05	0.092
916.22	0.092
916.40	0.092
916.57	0.093
916.75	0.093
916.93	0.093
917.10	0.093
917.28	0.093
917.45	0.093
917.63	0.093
917.80	0.093
917.98	0.094
918.16	0.094
918.33	0.094
918.51	0.094
918.68	0.094
918.86	0.095
919.03	0.095
919.21	0.095
919.39	0.095
919.56	0.096
919.74	0.096
919.91	0.096
920.09	0.096
920.26	0.096
920.44	0.096
920.61	0.096
920.79	0.096
920.96	0.096
921.14	0.097
921.31	0.097
921.49	0.097
921.67	0.097
921.84	0.097
922.02	0.097
922.19	0.097
922.37	0.098
922.54	0.098
922.72	0.098
922.89	0.098
923.07	0.098
923.24	0.099
923.42	0.099
923.59	0.100
923.77	0.100
923.94	0.101
924.12	0.101
924.29	0.101
924.47	0.102
924.64	0.102
924.82	0.102
924.99	0.103
925.17	0.103
925.34	0.103
925.52	0.103
925.69	0.103
925.87	0.104
926.04	0.104
926.22	0.104
926.39	0.104
926.57	0.105
926.74	0.105
926.91	0.106
927.09	0.106
927.26	0.106
927.44	0.106
927.61	0.107
927.79	0.107
927.96	0.107
928.14	0.107
928.31	0.108
928.49	0.108
928.66	0.109
928.84	0.109
929.01	0.110
929.18	0.111
929.36	0.111
929.53	0.112
929.71	0.112
929.88	0.113
930.06	0.113
930.23	0.113
930.41	0.113
930.58	0.114
930.75	0.113
930.93	0.114
931.10	0.114
931.28	0.115
931.45	0.115
931.63	0.115
931.80	0.115
931.97	0.116
932.15	0.117
932.32	0.117
932.50	0.117
932.67	0.118
932.84	0.119
933.02	0.119
933.19	0.119
933.37	0.120
933.54	0.121
933.71	0.121
933.89	0.122
934.06	0.122
934.24	0.123
934.41	0.124
934.58	0.124
934.76	0.125
934.93	0.125
935.11	0.125
935.28	0.126
935.45	0.126
935.63	0.127
935.80	0.127
935.98	0.127
936.15	0.127
936.32	0.127
936.50	0.128
936.67	0.128
936.84	0.129
937.02	0.130
937.19	0.131
937.36	0.131
937.54	0.131
937.71	0.132
937.89	0.132
938.06	0.133
938.23	0.134
938.41	0.135
938.58	0.135
938.75	0.135
938.93	0.136
939.10	0.136
939.27	0.136
939.45	0.137
939.62	0.138
939.79	0.139
939.97	0.139
940.14	0.140
940.31	0.141
940.49	0.141
940.66	0.141
940.83	0.142
941.01	0.143
941.18	0.144
941.35	0.144
941.53	0.145
941.70	0.145
941.87	0.146
942.05	0.146
942.22	0.147
942.39	0.148
942.57	0.149
942.74	0.150
942.91	0.150
943.08	0.150
943.26	0.150
943.43	0.151
943.60	0.151
943.78	0.152
943.95	0.153
944.12	0.153
944.29	0.154
944.47	0.155
944.64	0.155
944.81	0.157
944.99	0.158
945.16	0.158
945.33	0.159
945.50	0.160
945.68	0.161
945.85	0.162
946.02	0.163
946.20	0.164
946.37	0.165
946.54	0.165
946.71	0.166
946.89	0.167
947.06	0.167
947.23	0.168
947.40	0.169
947.58	0.169
947.75	0.171
947.92	0.171
948.09	0.172
948.27	0.173
948.44	0.174
948.61	0.175
948.78	0.176
948.96	0.178
949.13	0.178
949.30	0.179
949.47	0.180
949.65	0.181
949.82	0.183
949.99	0.183
950.16	0.185
950.33	0.186
950.51	0.187
950.68	0.189
950.85	0.190
951.02	0.192
951.20	0.193
951.37	0.194
951.54	0.194
951.71	0.195
951.88	0.197
952.06	0.198
952.23	0.199
952.40	0.200
952.57	0.202
952.74	0.203
952.92	0.204
953.09	0.205
953.26	0.207
953.43	0.208
953.60	0.210
953.77	0.210
953.95	0.211
954.12	0.213
954.29	0.214
954.46	0.216
954.63	0.217
954.81	0.218
954.98	0.218
955.15	0.220
955.32	0.221
955.49	0.221
955.66	0.223
955.84	0.224
956.01	0.224
956.18	0.226
956.35	0.228
956.52	0.228
956.69	0.230
956.87	0.230
957.04	0.231
957.21	0.233
957.38	0.233
957.55	0.235
957.72	0.235
957.89	0.237
958.07	0.237
958.24	0.239
958.41	0.241
958.58	0.240
958.75	0.241
958.92	0.243
959.09	0.243
959.26	0.244
959.44	0.245
959.61	0.246
959.78	0.246
959.95	0.248
960.12	0.247
960.29	0.249
960.46	0.249
960.63	0.250
960.81	0.250
960.98	0.251
961.15	0.251
961.32	0.252
961.49	0.251
961.66	0.253
961.83	0.253
962.00	0.253
962.17	0.254
962.34	0.254
962.52	0.255
962.69	0.255
962.86	0.254
963.03	0.255
963.20	0.255
963.37	0.255
963.54	0.255
963.71	0.255
963.88	0.255
964.05	0.256
964.22	0.257
964.39	0.256
964.56	0.256
964.74	0.257
964.91	0.257
965.08	0.258
965.25	0.259
965.42	0.259
965.59	0.260
965.76	0.260
965.93	0.261
966.10	0.259
966.27	0.260
966.44	0.259
966.61	0.261
966.78	0.260
966.95	0.259
967.12	0.260
967.29	0.262
967.46	0.261
967.63	0.261
967.80	0.262
967.97	0.261
968.14	0.261
968.32	0.262
968.49	0.262
968.66	0.261
968.83	0.262
969.00	0.261
969.17	0.261
969.34	0.263
969.51	0.263
969.68	0.262
969.85	0.263
970.02	0.263
970.19	0.263
970.36	0.263
970.53	0.263
970.70	0.262
970.87	0.263
971.04	0.262
971.21	0.262
971.38	0.262
971.55	0.263
971.72	0.263
971.89	0.264
972.06	0.263
972.23	0.263
972.40	0.263
972.57	0.263
972.74	0.262
972.91	0.264
973.07	0.264
973.24	0.263
973.41	0.264
973.58	0.262
973.75	0.275
973.92	0.263
974.09	0.263
974.26	0.263
974.43	0.262
974.60	0.264
974.77	0.264
974.94	0.263
975.11	0.264
975.28	0.264
975.45	0.263
975.62	0.263
975.79	0.265
975.96	0.263
976.13	0.263
976.30	0.264
976.47	0.262
976.64	0.262
976.80	0.263
976.97	0.263
977.14	0.262
977.31	0.263
977.48	0.263
977.65	0.262
977.82	0.261
977.99	0.263
978.16	0.263
978.33	0.262
978.50	0.261
978.67	0.261
978.83	0.261
979.00	0.261
979.17	0.260
979.34	0.261
979.51	0.260
979.68	0.261
979.85	0.260
980.02	0.260
980.19	0.258
980.36	0.259
980.52	0.261
980.69	0.259
980.86	0.259
981.03	0.259
981.20	0.257
981.37	0.258
981.54	0.258
981.71	0.258
981.88	0.258
982.04	0.258
982.21	0.257
982.38	0.258
982.55	0.257
982.72	0.256
982.89	0.257
983.06	0.256
983.22	0.256
983.39	0.256
983.56	0.255
983.73	0.255
983.90	0.254
984.07	0.255
984.24	0.255
984.40	0.254
984.57	0.252
984.74	0.255
984.91	0.256
985.08	0.253
985.25	0.252
985.41	0.252
985.58	0.253
985.75	0.254
985.92	0.253
986.09	0.251
986.26	0.251
986.42	0.251
986.59	0.249
986.76	0.251
986.93	0.250
987.10	0.250
987.27	0.247
987.43	0.246
987.60	0.247
987.77	0.247
987.94	0.245
988.11	0.247
988.27	0.247
988.44	0.246
988.61	0.245
988.78	0.244
988.95	0.246
989.11	0.247
989.28	0.246
989.45	0.245
989.62	0.245
989.79	0.245
989.95	0.244
990.12	0.246
990.29	0.245
990.46	0.244
990.62	0.242
990.79	0.242
990.96	0.242
991.13	0.242
991.30	0.241
991.46	0.240
991.63	0.239
991.80	0.238
991.97	0.237
992.13	0.238
992.30	0.239
992.47	0.238
992.64	0.238
992.80	0.238
992.97	0.238
993.14	0.236
993.31	0.233
993.47	0.236
993.64	0.234
993.81	0.234
993.98	0.234
994.14	0.232
994.31	0.231
994.48	0.232
994.64	0.232
994.81	0.231
994.98	0.231
995.15	0.229
995.31	0.229
995.48	0.228
995.65	0.230
995.82	0.228
995.98	0.228
996.15	0.229
996.32	0.230
996.48	0.229
996.65	0.229
996.82	0.227
996.99	0.227
997.15	0.227
997.32	0.228
997.49	0.226
997.65	0.227
997.82	0.227
997.99	0.226
998.15	0.227
998.32	0.228
998.49	0.227
998.65	0.228
998.82	0.227
998.99	0.225
999.15	0.226
999.32	0.225
999.49	0.225
999.65	0.225
999.82	0.221
999.99	0.221
1000.15	0.220
1000.32	0.220
1000.49	0.220
1000.65	0.218
1000.82	0.218
1000.99	0.218
1001.15	0.217
1001.32	0.216
1001.49	0.216
1001.65	0.216
1001.82	0.219
1001.99	0.216
1002.15	0.215
1002.32	0.215
1002.49	0.215
1002.65	0.213
1002.82	0.212
1002.99	0.211
1003.15	0.214
1003.32	0.213
1003.48	0.213
1003.65	0.213
1003.82	0.211
1003.98	0.209
1004.15	0.208
1004.32	0.209
1004.48	0.208
1004.65	0.209
1004.81	0.207
1004.98	0.205
1005.15	0.206
1005.31	0.206
1005.48	0.204
1005.64	0.205
1005.81	0.208
1005.98	0.205
1006.14	0.204
1006.31	0.204
1006.47	0.203
1006.64	0.202
1006.81	0.201
1006.97	0.202
1007.14	0.201
1007.30	0.202
1007.47	0.201
1007.63	0.199
1007.80	0.198
1007.97	0.198
1008.13	0.199
1008.30	0.199
1008.46	0.199
1008.63	0.198
1008.79	0.198
1008.96	0.198
1009.13	0.199
1009.29	0.197
1009.46	0.197
1009.62	0.197
1009.79	0.195
1009.95	0.195
1010.12	0.195
1010.28	0.195
1010.45	0.194
1010.62	0.194
1010.78	0.192
1010.95	0.190
1011.11	0.191
1011.28	0.190
1011.44	0.192
1011.61	0.190
1011.77	0.189
1011.94	0.188
1012.10	0.188
1012.27	0.188
1012.43	0.188
1012.60	0.187
1012.76	0.188
1012.93	0.187
1013.10	0.186
1013.26	0.183
1013.43	0.185
1013.59	0.193
1013.76	0.185
1013.92	0.184
1014.09	0.183
1014.25	0.185
1014.42	0.185
1014.58	0.185
1014.75	0.187
1014.91	0.185
1015.08	0.187
1015.24	0.184
1015.41	0.186
1015.57	0.186
1015.73	0.184
1015.90	0.182
1016.06	0.184
1016.23	0.182
1016.39	0.182
1016.56	0.182
1016.72	0.181
1016.89	0.180
1017.05	0.182
1017.22	0.178
1017.38	0.179
1017.55	0.178
1017.71	0.179
1017.88	0.178
1018.04	0.179
1018.21	0.176
1018.37	0.176
1018.53	0.176
1018.70	0.175
1018.86	0.174
1019.03	0.176
1019.19	0.174
1019.36	0.173
1019.52	0.175
1019.69	0.175
1019.85	0.174
1020.01	0.174
1020.18	0.173
1020.34	0.173
1020.51	0.172
1020.67	0.173
1020.84	0.172
1021.00	0.174
1021.16	0.171
1021.33	0.170
1021.49	0.169
1021.66	0.169
1021.82	0.167
1021.98	0.167
1022.15	0.167
1022.31	0.167
1022.48	0.165
1022.64	0.167
1022.80	0.164
1022.97	0.164
1023.13	0.163
1023.30	0.164
1023.46	0.166
1023.62	0.163
1023.79	0.164
1023.95	0.164
1024.12	0.163
1024.28	0.162
1024.44	0.162
1024.61	0.161
1024.77	0.161
1024.93	0.161
1025.10	0.162
1025.26	0.160
1025.43	0.160
1025.59	0.156
1025.75	0.159
1025.92	0.158
1026.08	0.158
1026.24	0.158
1026.41	0.158
1026.57	0.157
1026.73	0.154
1026.90	0.156
1027.06	0.154
1027.23	0.155
1027.39	0.155
1027.55	0.156
1027.72	0.154
1027.88	0.154
1028.04	0.153
1028.21	0.154
1028.37	0.149
1028.53	0.154
1028.70	0.152
1028.86	0.149
1029.02	0.150
1029.19	0.152
1029.35	0.150
1029.51	0.150
1029.67	0.148
1029.84	0.150
1030.00	0.145
1030.16	0.145
1030.33	0.148
1030.49	0.146
1030.65	0.144
1030.82	0.160
1030.98	0.146
1031.14	0.145
1031.31	0.145
1031.47	0.143
1031.63	0.147
1031.79	0.145
1031.96	0.147
1032.12	0.149
1032.28	0.146
1032.45	0.151
1032.61	0.149
1032.77	0.148
1032.93	0.146
1033.10	0.147
1033.26	0.150
1033.42	0.147
1033.58	0.148
1033.75	0.149
1033.91	0.146
1034.07	0.150
1034.24	0.147
1034.40	0.144
1034.56	0.144
1034.72	0.145
1034.89	0.146
1035.05	0.144
1035.21	0.144
1035.37	0.142
1035.54	0.145
1035.70	0.143
1035.86	0.142
1036.02	0.143
1036.19	0.142
1036.35	0.140
1036.51	0.143
1036.67	0.140
1036.83	0.139
1037.00	0.138
1037.16	0.138
1037.32	0.138
1037.48	0.135
1037.65	0.140
1037.81	0.136
1037.97	0.136
1038.13	0.136
1038.29	0.135
1038.46	0.133
1038.62	0.136
1038.78	0.134
1038.94	0.131
1039.10	0.136
1039.27	0.132
1039.43	0.134
1039.59	0.133
1039.75	0.132
1039.91	0.131
1040.08	0.131
1040.24	0.133
1040.40	0.135
1040.56	0.133
1040.72	0.128
1040.89	0.130
1041.05	0.133
1041.21	0.131
1041.37	0.130
1041.53	0.136
1041.69	0.133
1041.86	0.132
1042.02	0.129
1042.18	0.129
1042.34	0.131
1042.50	0.136
1042.66	0.132
1042.83	0.131
1042.99	0.133
1043.15	0.128
1043.31	0.129
1043.47	0.134
1043.63	0.132
1043.79	0.132
1043.96	0.133
1044.12	0.137
1044.28	0.133
1044.44	0.135
1044.60	0.130
1044.76	0.128
1044.92	0.131
1045.09	0.132
1045.25	0.127
1045.41	0.127
1045.57	0.123
1045.73	0.124
1045.89	0.125
1046.05	0.127
1046.21	0.138
1046.38	0.136
1046.54	0.140
1046.70	0.132
1046.86	0.134
>>>>>End Processed Spectral Data<<<<<
