SpectraSuite Data File
++++++++++++++++++++++++++++++++++++
Date: Mon May 20 12:12:05 CDT 2013
User: Students
Dark Spectrum Present: Yes
Reference Spectrum Present: Yes
Number of Sampled Component Spectra: 1
Spectrometers: USB4H00887
Integration Time (usec): 60000 (USB4H00887)
Spectra Averaged: 5 (USB4H00887)
Boxcar Smoothing: 5 (USB4H00887)
Correct for Electrical Dark: No (USB4H00887)
Strobe/Lamp Enabled: No (USB4H00887)
Correct for Detector Non-linearity: No (USB4H00887)
Correct for Stray Light: No (USB4H00887)
Number of Pixels in Processed Spectrum: 3648
>>>>>Begin Processed Spectral Data<<<<<
345.83	-0.283
346.05	-0.283
346.26	-0.283
346.48	-0.000
346.70	-0.180
346.92	0.374
347.14	0.180
347.35	0.147
347.57	1.427
347.79	-0.385
348.01	-0.251
348.23	-0.421
348.44	-0.000
348.66	0.401
348.88	-0.439
349.10	-0.192
349.32	0.038
349.53	0.009
349.75	0.023
349.97	-0.006
350.19	0.059
350.41	0.075
350.62	-0.271
350.84	0.042
351.06	0.067
351.28	0.060
351.50	0.052
351.71	-0.023
351.93	-0.022
352.15	0.004
352.37	0.050
352.58	0.019
352.80	0.038
353.02	0.095
353.24	0.124
353.46	0.457
353.67	-0.256
353.89	0.095
354.11	0.099
354.33	0.128
354.54	0.202
354.76	0.386
354.98	1.050
355.20	0.554
355.41	0.140
355.63	0.270
355.85	0.134
356.07	-0.000
356.28	0.130
356.50	0.221
356.72	0.080
356.94	0.209
357.15	0.252
357.37	-0.000
357.59	0.112
357.81	0.079
358.02	0.126
358.24	0.074
358.46	0.193
358.68	0.162
358.89	0.107
359.11	-0.000
359.33	0.100
359.55	-0.620
359.76	0.146
359.98	0.165
360.20	0.174
360.42	0.149
360.63	0.180
360.85	0.107
361.07	0.601
361.29	0.078
361.50	0.216
361.72	0.066
361.94	0.255
362.15	0.101
362.37	0.070
362.59	0.078
362.81	0.120
363.02	0.243
363.24	0.410
363.46	0.235
363.68	0.304
363.89	0.179
364.11	0.267
364.33	0.322
364.54	0.178
364.76	0.200
364.98	0.158
365.20	0.196
365.41	0.106
365.63	0.128
365.85	0.074
366.06	0.180
366.28	0.212
366.50	0.126
366.71	0.041
366.93	0.063
367.15	0.066
367.37	0.085
367.58	0.107
367.80	0.141
368.02	0.298
368.23	0.110
368.45	0.108
368.67	0.086
368.88	0.098
369.10	-0.000
369.32	0.088
369.53	0.041
369.75	0.070
369.97	0.135
370.19	0.074
370.40	0.033
370.62	0.083
370.84	0.052
371.05	0.212
371.27	0.074
371.49	0.104
371.70	0.129
371.92	0.219
372.14	0.100
372.35	0.127
372.57	0.154
372.79	0.529
373.00	0.112
373.22	0.169
373.44	0.161
373.65	0.121
373.87	0.190
374.09	1.432
374.30	0.176
374.52	0.196
374.74	0.123
374.95	0.467
375.17	0.109
375.39	-0.000
375.60	0.139
375.82	0.242
376.04	0.098
376.25	0.101
376.47	0.064
376.68	0.142
376.90	0.093
377.12	0.200
377.33	0.140
377.55	0.396
377.77	0.191
377.98	0.290
378.20	0.163
378.42	0.184
378.63	0.255
378.85	-0.000
379.07	0.149
379.28	0.482
379.50	0.283
379.71	0.138
379.93	0.092
380.15	0.126
380.36	0.161
380.58	0.104
380.80	0.269
381.01	0.081
381.23	0.063
381.44	0.077
381.66	0.113
381.88	0.136
382.09	-0.065
382.31	0.091
382.53	0.100
382.74	0.519
382.96	0.166
383.17	0.150
383.39	0.216
383.61	0.308
383.82	0.212
384.04	0.240
384.25	0.298
384.47	0.289
384.69	0.288
384.90	0.263
385.12	0.571
385.33	0.347
385.55	0.250
385.77	0.399
385.98	0.212
386.20	0.300
386.41	0.263
386.63	0.296
386.85	0.238
387.06	0.278
387.28	0.414
387.49	0.251
387.71	0.177
387.93	0.166
388.14	0.459
388.36	0.182
388.57	0.164
388.79	0.179
389.01	0.962
389.22	0.237
389.44	0.211
389.65	0.182
389.87	0.192
390.08	0.243
390.30	0.182
390.52	0.386
390.73	0.365
390.95	0.253
391.16	0.237
391.38	-0.000
391.59	0.290
391.81	0.257
392.03	0.237
392.24	0.271
392.46	0.221
392.67	0.200
392.89	0.265
393.10	0.397
393.32	0.270
393.53	0.325
393.75	0.208
393.97	0.232
394.18	0.317
394.40	0.279
394.61	0.299
394.83	0.255
395.04	0.300
395.26	0.201
395.47	0.328
395.69	0.273
395.91	0.302
396.12	0.375
396.34	0.364
396.55	0.232
396.77	0.348
396.98	-0.000
397.20	0.417
397.41	0.477
397.63	0.326
397.84	0.289
398.06	0.281
398.27	0.280
398.49	0.322
398.71	0.239
398.92	0.287
399.14	0.387
399.35	0.503
399.57	0.472
399.78	0.312
400.00	0.296
400.21	0.378
400.43	0.298
400.64	0.299
400.86	0.668
401.07	0.376
401.29	0.319
401.50	0.321
401.72	0.474
401.93	0.310
402.15	0.368
402.36	0.352
402.58	0.285
402.79	0.308
403.01	0.548
403.22	0.428
403.44	0.272
403.65	0.460
403.87	0.501
404.08	0.387
404.30	0.609
404.51	0.332
404.73	0.393
404.94	0.342
405.16	0.364
405.37	0.283
405.59	0.502
405.80	0.319
406.02	0.377
406.23	0.395
406.45	0.435
406.66	0.454
406.88	0.303
407.09	0.472
407.31	0.380
407.52	0.464
407.74	0.385
407.95	0.472
408.17	0.435
408.38	0.462
408.60	0.296
408.81	0.534
409.03	0.399
409.24	0.401
409.45	0.463
409.67	0.430
409.88	0.389
410.10	0.499
410.31	0.395
410.53	0.372
410.74	0.526
410.96	0.523
411.17	0.523
411.39	0.394
411.60	0.362
411.82	0.422
412.03	0.407
412.24	0.381
412.46	0.537
412.67	0.466
412.89	0.474
413.10	0.476
413.32	0.433
413.53	0.501
413.75	0.536
413.96	0.403
414.17	0.557
414.39	0.560
414.60	0.459
414.82	0.634
415.03	0.456
415.25	0.501
415.46	0.342
415.68	0.490
415.89	0.956
416.10	0.753
416.32	0.398
416.53	0.469
416.75	0.450
416.96	0.537
417.18	0.450
417.39	0.437
417.60	0.451
417.82	0.673
418.03	0.566
418.25	0.468
418.46	0.488
418.67	0.447
418.89	0.479
419.10	0.504
419.32	0.705
419.53	0.637
419.75	0.542
419.96	0.465
420.17	0.554
420.39	0.524
420.60	0.550
420.82	0.670
421.03	0.531
421.24	0.444
421.46	0.488
421.67	0.522
421.89	0.452
422.10	0.493
422.31	0.481
422.53	0.725
422.74	0.526
422.96	0.416
423.17	0.466
423.38	0.556
423.60	0.469
423.81	0.598
424.03	0.517
424.24	0.583
424.45	0.572
424.67	0.567
424.88	0.504
425.09	0.552
425.31	0.497
425.52	0.528
425.74	0.608
425.95	0.656
426.16	0.494
426.38	0.577
426.59	0.524
426.80	0.597
427.02	0.637
427.23	0.497
427.45	0.660
427.66	0.657
427.87	0.502
428.09	0.538
428.30	0.609
428.51	0.595
428.73	0.661
428.94	0.577
429.15	0.566
429.37	0.544
429.58	0.566
429.79	0.514
430.01	0.621
430.22	0.617
430.44	0.634
430.65	0.566
430.86	0.609
431.08	0.585
431.29	0.539
431.50	0.640
431.72	0.855
431.93	0.695
432.14	0.517
432.36	0.566
432.57	0.582
432.78	0.600
433.00	0.544
433.21	0.539
433.42	0.682
433.64	0.591
433.85	0.679
434.06	0.549
434.28	0.580
434.49	0.607
434.70	0.623
434.92	0.634
435.13	0.685
435.34	0.700
435.56	0.666
435.77	0.654
435.98	0.863
436.20	0.697
436.41	0.602
436.62	0.588
436.83	0.671
437.05	0.758
437.26	0.664
437.47	0.587
437.69	0.655
437.90	0.599
438.11	0.594
438.33	0.657
438.54	0.679
438.75	0.885
438.97	0.856
439.18	0.619
439.39	0.652
439.60	0.699
439.82	0.659
440.03	0.600
440.24	0.885
440.46	0.649
440.67	0.620
440.88	0.674
441.10	0.625
441.31	0.628
441.52	0.681
441.73	0.770
441.95	0.681
442.16	0.620
442.37	0.992
442.58	0.610
442.80	0.599
443.01	0.781
443.22	0.715
443.44	0.607
443.65	0.725
443.86	0.728
444.07	0.779
444.29	0.667
444.50	0.870
444.71	0.651
444.92	0.604
445.14	0.771
445.35	0.819
445.56	0.628
445.78	0.749
445.99	0.740
446.20	0.635
446.41	0.724
446.63	0.724
446.84	0.677
447.05	0.674
447.26	0.813
447.48	0.691
447.69	0.657
447.90	0.756
448.11	0.659
448.33	0.686
448.54	0.707
448.75	0.731
448.96	0.747
449.18	0.793
449.39	0.710
449.60	0.697
449.81	0.842
450.03	0.724
450.24	0.783
450.45	0.741
450.66	0.724
450.87	0.762
451.09	0.716
451.30	0.692
451.51	0.774
451.72	0.786
451.94	0.799
452.15	0.874
452.36	0.720
452.57	0.734
452.78	0.736
453.00	0.774
453.21	0.728
453.42	0.708
453.63	0.815
453.85	0.773
454.06	0.766
454.27	0.908
454.48	0.805
454.69	0.725
454.91	0.811
455.12	0.698
455.33	0.777
455.54	0.791
455.75	0.749
455.97	0.773
456.18	0.762
456.39	0.763
456.60	0.794
456.81	0.733
457.03	0.748
457.24	0.750
457.45	0.855
457.66	0.804
457.87	0.764
458.09	0.792
458.30	0.698
458.51	0.839
458.72	0.880
458.93	0.892
459.15	0.773
459.36	0.852
459.57	0.872
459.78	0.915
459.99	0.809
460.20	0.759
460.42	0.843
460.63	0.793
460.84	0.775
461.05	0.792
461.26	0.854
461.47	0.762
461.69	0.811
461.90	0.849
462.11	0.807
462.32	0.864
462.53	0.796
462.74	0.899
462.96	0.775
463.17	0.763
463.38	0.801
463.59	0.921
463.80	0.761
464.01	0.782
464.23	0.869
464.44	0.830
464.65	0.834
464.86	0.861
465.07	0.867
465.28	0.823
465.49	0.847
465.71	0.802
465.92	0.836
466.13	0.887
466.34	0.820
466.55	0.878
466.76	0.837
466.97	0.873
467.19	0.857
467.40	0.899
467.61	0.909
467.82	0.822
468.03	0.804
468.24	0.878
468.45	0.911
468.66	0.891
468.88	0.900
469.09	0.903
469.30	0.947
469.51	0.871
469.72	0.912
469.93	0.880
470.14	0.859
470.35	0.958
470.57	0.905
470.78	0.843
470.99	0.985
471.20	0.916
471.41	0.868
471.62	0.926
471.83	0.896
472.04	0.927
472.25	0.971
472.47	0.882
472.68	0.889
472.89	0.893
473.10	0.933
473.31	0.881
473.52	0.942
473.73	0.971
473.94	0.881
474.15	0.907
474.36	0.912
474.57	0.944
474.79	0.916
475.00	0.914
475.21	0.901
475.42	1.004
475.63	0.899
475.84	0.931
476.05	0.934
476.26	0.906
476.47	0.940
476.68	0.983
476.89	0.906
477.10	0.959
477.32	0.947
477.53	1.004
477.74	0.918
477.95	0.965
478.16	0.913
478.37	0.958
478.58	0.962
478.79	0.977
479.00	0.977
479.21	0.934
479.42	0.975
479.63	0.979
479.84	0.942
480.05	0.942
480.26	0.970
480.47	0.992
480.69	0.994
480.90	0.954
481.11	0.951
481.32	1.022
481.53	0.955
481.74	1.012
481.95	0.973
482.16	0.992
482.37	1.002
482.58	0.965
482.79	0.983
483.00	1.016
483.21	0.957
483.42	0.929
483.63	1.012
483.84	1.042
484.05	1.029
484.26	1.000
484.47	0.996
484.68	0.955
484.89	0.963
485.10	1.015
485.31	0.992
485.52	0.999
485.73	0.999
485.94	1.039
486.15	0.980
486.37	0.996
486.58	0.958
486.79	0.972
487.00	1.023
487.21	1.013
487.42	1.009
487.63	1.016
487.84	1.040
488.05	1.036
488.26	0.993
488.47	0.998
488.68	1.033
488.89	1.006
489.10	0.998
489.31	1.011
489.52	1.051
489.73	1.010
489.94	1.049
490.15	0.998
490.36	1.043
490.57	0.989
490.78	0.977
490.99	1.015
491.20	1.102
491.41	1.052
491.62	0.991
491.83	1.020
492.04	1.016
492.25	1.023
492.45	1.025
492.66	1.049
492.87	1.037
493.08	1.022
493.29	1.004
493.50	0.994
493.71	0.999
493.92	0.994
494.13	1.010
494.34	1.034
494.55	1.038
494.76	1.074
494.97	1.063
495.18	1.029
495.39	1.045
495.60	0.995
495.81	0.996
496.02	1.018
496.23	1.012
496.44	1.048
496.65	1.039
496.86	1.045
497.07	1.070
497.28	1.066
497.49	1.010
497.70	1.011
497.91	1.032
498.12	1.015
498.32	1.065
498.53	1.048
498.74	1.035
498.95	1.063
499.16	1.015
499.37	1.017
499.58	1.028
499.79	1.060
500.00	1.054
500.21	1.085
500.42	1.022
500.63	1.021
500.84	1.043
501.05	1.023
501.26	1.048
501.46	1.090
501.67	1.052
501.88	1.056
502.09	1.031
502.30	1.037
502.51	1.088
502.72	1.039
502.93	1.058
503.14	1.083
503.35	1.048
503.56	1.044
503.77	1.076
503.97	1.051
504.18	1.048
504.39	1.084
504.60	1.053
504.81	1.087
505.02	1.073
505.23	1.072
505.44	1.051
505.65	1.058
505.86	1.037
506.07	1.109
506.27	1.065
506.48	1.071
506.69	1.056
506.90	1.079
507.11	1.074
507.32	1.052
507.53	1.063
507.74	1.055
507.95	1.070
508.15	1.074
508.36	1.079
508.57	1.091
508.78	1.072
508.99	1.071
509.20	1.044
509.41	1.069
509.62	1.054
509.82	1.048
510.03	1.060
510.24	1.062
510.45	1.089
510.66	1.077
510.87	1.071
511.08	1.026
511.29	1.072
511.49	1.048
511.70	1.099
511.91	1.029
512.12	1.030
512.33	1.065
512.54	1.081
512.75	1.062
512.95	1.091
513.16	1.084
513.37	1.061
513.58	1.102
513.79	1.062
514.00	1.066
514.20	1.088
514.41	1.073
514.62	1.039
514.83	1.082
515.04	1.073
515.25	1.050
515.46	1.059
515.66	1.062
515.87	1.075
516.08	1.040
516.29	1.069
516.50	1.048
516.71	1.042
516.91	1.052
517.12	1.070
517.33	1.056
517.54	1.043
517.75	1.048
517.95	1.063
518.16	1.076
518.37	1.041
518.58	1.043
518.79	1.016
519.00	1.049
519.20	1.059
519.41	1.031
519.62	1.049
519.83	1.060
520.04	1.020
520.24	1.017
520.45	1.024
520.66	1.049
520.87	1.012
521.08	1.009
521.28	1.014
521.49	1.030
521.70	0.996
521.91	1.013
522.12	0.994
522.32	1.016
522.53	0.999
522.74	0.990
522.95	1.000
523.16	1.001
523.36	1.012
523.57	0.990
523.78	0.984
523.99	0.991
524.20	0.983
524.40	0.997
524.61	1.005
524.82	0.977
525.03	0.980
525.23	0.980
525.44	0.965
525.65	0.965
525.86	0.990
526.06	0.961
526.27	0.961
526.48	0.970
526.69	0.951
526.90	0.955
527.10	0.993
527.31	0.946
527.52	0.940
527.73	0.931
527.93	0.941
528.14	0.947
528.35	0.937
528.56	0.939
528.76	0.931
528.97	0.921
529.18	0.912
529.39	0.912
529.59	0.916
529.80	0.949
530.01	0.919
530.22	0.918
530.42	0.885
530.63	0.904
530.84	0.879
531.05	0.894
531.25	0.897
531.46	0.887
531.67	0.864
531.88	0.883
532.08	0.875
532.29	0.870
532.50	0.862
532.70	0.855
532.91	0.844
533.12	0.847
533.33	0.874
533.53	0.843
533.74	0.843
533.95	0.851
534.15	0.839
534.36	0.839
534.57	0.821
534.78	0.822
534.98	0.833
535.19	0.803
535.40	0.806
535.60	0.824
535.81	0.802
536.02	0.805
536.23	0.796
536.43	0.799
536.64	0.786
536.85	0.796
537.05	0.806
537.26	0.782
537.47	0.784
537.67	0.773
537.88	0.767
538.09	0.775
538.30	0.763
538.50	0.753
538.71	0.763
538.92	0.750
539.12	0.746
539.33	0.740
539.54	0.742
539.74	0.746
539.95	0.735
540.16	0.731
540.36	0.723
540.57	0.723
540.78	0.717
540.98	0.716
541.19	0.713
541.40	0.700
541.60	0.711
541.81	0.705
542.02	0.705
542.22	0.696
542.43	0.692
542.64	0.686
542.84	0.686
543.05	0.676
543.26	0.676
543.46	0.679
543.67	0.677
543.88	0.672
544.08	0.663
544.29	0.657
544.50	0.656
544.70	0.656
544.91	0.647
545.12	0.649
545.32	0.644
545.53	0.649
545.74	0.637
545.94	0.634
546.15	0.631
546.35	0.627
546.56	0.625
546.77	0.622
546.97	0.619
547.18	0.612
547.39	0.612
547.59	0.610
547.80	0.605
548.01	0.609
548.21	0.604
548.42	0.596
548.62	0.595
548.83	0.592
549.04	0.587
549.24	0.581
549.45	0.580
549.65	0.575
549.86	0.571
550.07	0.570
550.27	0.568
550.48	0.575
550.69	0.561
550.89	0.561
551.10	0.557
551.30	0.555
551.51	0.554
551.72	0.543
551.92	0.545
552.13	0.544
552.33	0.545
552.54	0.539
552.75	0.532
552.95	0.533
553.16	0.529
553.36	0.526
553.57	0.524
553.78	0.521
553.98	0.521
554.19	0.513
554.39	0.510
554.60	0.512
554.80	0.512
555.01	0.504
555.22	0.505
555.42	0.502
555.63	0.495
555.83	0.499
556.04	0.493
556.25	0.495
556.45	0.486
556.66	0.484
556.86	0.487
557.07	0.484
557.27	0.484
557.48	0.478
557.68	0.476
557.89	0.476
558.10	0.472
558.30	0.469
558.51	0.467
558.71	0.465
558.92	0.460
559.12	0.461
559.33	0.464
559.54	0.459
559.74	0.455
559.95	0.453
560.15	0.453
560.36	0.451
560.56	0.446
560.77	0.446
560.97	0.446
561.18	0.440
561.38	0.440
561.59	0.443
561.79	0.438
562.00	0.435
562.21	0.433
562.41	0.431
562.62	0.429
562.82	0.427
563.03	0.424
563.23	0.423
563.44	0.423
563.64	0.420
563.85	0.421
564.05	0.415
564.26	0.413
564.46	0.412
564.67	0.413
564.87	0.408
565.08	0.405
565.28	0.405
565.49	0.406
565.69	0.403
565.90	0.399
566.10	0.402
566.31	0.395
566.51	0.397
566.72	0.397
566.92	0.391
567.13	0.391
567.33	0.390
567.54	0.388
567.74	0.387
567.95	0.383
568.15	0.384
568.36	0.383
568.56	0.381
568.77	0.376
568.97	0.375
569.18	0.374
569.38	0.372
569.59	0.373
569.79	0.370
570.00	0.367
570.20	0.366
570.41	0.364
570.61	0.363
570.82	0.364
571.02	0.360
571.23	0.362
571.43	0.358
571.64	0.357
571.84	0.356
572.05	0.354
572.25	0.353
572.45	0.352
572.66	0.349
572.86	0.347
573.07	0.346
573.27	0.346
573.48	0.344
573.68	0.341
573.89	0.340
574.09	0.340
574.30	0.338
574.50	0.336
574.70	0.336
574.91	0.334
575.11	0.334
575.32	0.334
575.52	0.330
575.73	0.330
575.93	0.329
576.14	0.327
576.34	0.325
576.54	0.325
576.75	0.323
576.95	0.322
577.16	0.320
577.36	0.319
577.57	0.319
577.77	0.317
577.97	0.314
578.18	0.315
578.38	0.313
578.59	0.311
578.79	0.309
579.00	0.310
579.20	0.309
579.40	0.308
579.61	0.307
579.81	0.305
580.02	0.303
580.22	0.303
580.42	0.302
580.63	0.302
580.83	0.301
581.04	0.299
581.24	0.298
581.45	0.297
581.65	0.296
581.85	0.296
582.06	0.294
582.26	0.294
582.47	0.292
582.67	0.292
582.87	0.292
583.08	0.289
583.28	0.289
583.48	0.287
583.69	0.284
583.89	0.285
584.10	0.285
584.30	0.283
584.50	0.281
584.71	0.280
584.91	0.279
585.12	0.277
585.32	0.278
585.52	0.276
585.73	0.275
585.93	0.274
586.13	0.273
586.34	0.272
586.54	0.271
586.75	0.270
586.95	0.269
587.15	0.269
587.36	0.267
587.56	0.266
587.76	0.265
587.97	0.264
588.17	0.263
588.37	0.263
588.58	0.263
588.78	0.260
588.98	0.260
589.19	0.259
589.39	0.257
589.60	0.259
589.80	0.256
590.00	0.255
590.21	0.255
590.41	0.254
590.61	0.254
590.82	0.253
591.02	0.253
591.22	0.250
591.43	0.251
591.63	0.249
591.83	0.249
592.04	0.247
592.24	0.248
592.44	0.246
592.65	0.244
592.85	0.244
593.05	0.244
593.26	0.243
593.46	0.243
593.66	0.242
593.86	0.241
594.07	0.240
594.27	0.240
594.47	0.238
594.68	0.237
594.88	0.238
595.08	0.237
595.29	0.237
595.49	0.235
595.69	0.234
595.90	0.233
596.10	0.234
596.30	0.233
596.50	0.232
596.71	0.232
596.91	0.231
597.11	0.231
597.32	0.230
597.52	0.229
597.72	0.229
597.93	0.228
598.13	0.226
598.33	0.226
598.53	0.225
598.74	0.224
598.94	0.224
599.14	0.223
599.35	0.223
599.55	0.223
599.75	0.222
599.95	0.221
600.16	0.221
600.36	0.219
600.56	0.219
600.76	0.219
600.97	0.217
601.17	0.217
601.37	0.217
601.58	0.216
601.78	0.216
601.98	0.215
602.18	0.214
602.39	0.214
602.59	0.214
602.79	0.213
602.99	0.213
603.20	0.212
603.40	0.211
603.60	0.212
603.80	0.211
604.01	0.210
604.21	0.209
604.41	0.209
604.61	0.209
604.82	0.208
605.02	0.208
605.22	0.207
605.42	0.207
605.62	0.207
605.83	0.206
606.03	0.205
606.23	0.206
606.43	0.204
606.64	0.204
606.84	0.203
607.04	0.203
607.24	0.203
607.45	0.203
607.65	0.201
607.85	0.202
608.05	0.201
608.25	0.200
608.46	0.199
608.66	0.200
608.86	0.199
609.06	0.198
609.26	0.197
609.47	0.198
609.67	0.197
609.87	0.198
610.07	0.197
610.28	0.195
610.48	0.195
610.68	0.196
610.88	0.195
611.08	0.195
611.29	0.194
611.49	0.193
611.69	0.194
611.89	0.191
612.09	0.191
612.29	0.190
612.50	0.190
612.70	0.190
612.90	0.189
613.10	0.188
613.30	0.187
613.51	0.187
613.71	0.187
613.91	0.191
614.11	0.186
614.31	0.186
614.51	0.186
614.72	0.185
614.92	0.184
615.12	0.184
615.32	0.185
615.52	0.185
615.72	0.185
615.93	0.184
616.13	0.184
616.33	0.184
616.53	0.184
616.73	0.184
616.93	0.182
617.14	0.183
617.34	0.183
617.54	0.183
617.74	0.182
617.94	0.181
618.14	0.181
618.34	0.180
618.55	0.180
618.75	0.180
618.95	0.180
619.15	0.179
619.35	0.178
619.55	0.178
619.75	0.178
619.96	0.178
620.16	0.178
620.36	0.178
620.56	0.177
620.76	0.177
620.96	0.176
621.16	0.176
621.36	0.176
621.57	0.176
621.77	0.176
621.97	0.175
622.17	0.175
622.37	0.175
622.57	0.175
622.77	0.174
622.97	0.173
623.18	0.173
623.38	0.173
623.58	0.173
623.78	0.172
623.98	0.172
624.18	0.171
624.38	0.171
624.58	0.171
624.78	0.171
624.98	0.171
625.19	0.171
625.39	0.171
625.59	0.170
625.79	0.170
625.99	0.169
626.19	0.169
626.39	0.169
626.59	0.168
626.79	0.168
626.99	0.168
627.19	0.168
627.40	0.168
627.60	0.168
627.80	0.168
628.00	0.168
628.20	0.167
628.40	0.167
628.60	0.167
628.80	0.167
629.00	0.167
629.20	0.166
629.40	0.166
629.60	0.164
629.80	0.165
630.00	0.164
630.20	0.164
630.41	0.163
630.61	0.163
630.81	0.163
631.01	0.163
631.21	0.162
631.41	0.162
631.61	0.163
631.81	0.162
632.01	0.162
632.21	0.162
632.41	0.161
632.61	0.162
632.81	0.161
633.01	0.162
633.21	0.161
633.41	0.162
633.61	0.160
633.81	0.160
634.01	0.160
634.21	0.160
634.41	0.159
634.61	0.159
634.81	0.159
635.01	0.158
635.22	0.158
635.42	0.158
635.62	0.158
635.82	0.158
636.02	0.158
636.22	0.157
636.42	0.157
636.62	0.157
636.82	0.157
637.02	0.156
637.22	0.157
637.42	0.156
637.62	0.155
637.82	0.155
638.02	0.155
638.22	0.155
638.42	0.154
638.62	0.153
638.82	0.154
639.02	0.153
639.22	0.153
639.42	0.153
639.62	0.153
639.82	0.152
640.02	0.152
640.22	0.152
640.42	0.151
640.62	0.151
640.82	0.152
641.02	0.151
641.22	0.151
641.42	0.151
641.61	0.151
641.81	0.151
642.01	0.151
642.21	0.151
642.41	0.151
642.61	0.151
642.81	0.150
643.01	0.150
643.21	0.149
643.41	0.150
643.61	0.149
643.81	0.149
644.01	0.147
644.21	0.147
644.41	0.147
644.61	0.147
644.81	0.147
645.01	0.147
645.21	0.146
645.41	0.146
645.61	0.146
645.81	0.145
646.01	0.145
646.21	0.146
646.40	0.145
646.60	0.145
646.80	0.146
647.00	0.145
647.20	0.144
647.40	0.145
647.60	0.145
647.80	0.144
648.00	0.144
648.20	0.144
648.40	0.144
648.60	0.143
648.80	0.143
649.00	0.143
649.20	0.143
649.39	0.142
649.59	0.142
649.79	0.142
649.99	0.142
650.19	0.141
650.39	0.141
650.59	0.141
650.79	0.141
650.99	0.141
651.19	0.140
651.39	0.141
651.58	0.140
651.78	0.140
651.98	0.140
652.18	0.140
652.38	0.139
652.58	0.139
652.78	0.139
652.98	0.138
653.18	0.139
653.38	0.139
653.57	0.138
653.77	0.139
653.97	0.138
654.17	0.138
654.37	0.137
654.57	0.137
654.77	0.137
654.97	0.137
655.16	0.137
655.36	0.137
655.56	0.136
655.76	0.135
655.96	0.136
656.16	0.135
656.36	0.135
656.56	0.134
656.75	0.134
656.95	0.134
657.15	0.134
657.35	0.133
657.55	0.133
657.75	0.133
657.95	0.133
658.14	0.133
658.34	0.133
658.54	0.133
658.74	0.133
658.94	0.133
659.14	0.133
659.34	0.132
659.53	0.132
659.73	0.131
659.93	0.131
660.13	0.131
660.33	0.131
660.53	0.130
660.72	0.131
660.92	0.130
661.12	0.130
661.32	0.130
661.52	0.129
661.72	0.129
661.91	0.129
662.11	0.129
662.31	0.129
662.51	0.129
662.71	0.128
662.90	0.128
663.10	0.127
663.30	0.127
663.50	0.127
663.70	0.127
663.90	0.127
664.09	0.127
664.29	0.126
664.49	0.125
664.69	0.125
664.89	0.125
665.08	0.124
665.28	0.124
665.48	0.124
665.68	0.123
665.88	0.123
666.07	0.123
666.27	0.123
666.47	0.123
666.67	0.123
666.87	0.123
667.06	0.122
667.26	0.122
667.46	0.122
667.66	0.123
667.85	0.123
668.05	0.123
668.25	0.123
668.45	0.123
668.65	0.123
668.84	0.123
669.04	0.123
669.24	0.123
669.44	0.122
669.63	0.122
669.83	0.121
670.03	0.121
670.23	0.120
670.42	0.120
670.62	0.119
670.82	0.119
671.02	0.119
671.22	0.118
671.41	0.118
671.61	0.118
671.81	0.118
672.01	0.118
672.20	0.118
672.40	0.118
672.60	0.117
672.80	0.117
672.99	0.118
673.19	0.117
673.39	0.117
673.58	0.117
673.78	0.117
673.98	0.117
674.18	0.117
674.37	0.116
674.57	0.116
674.77	0.117
674.97	0.116
675.16	0.116
675.36	0.116
675.56	0.115
675.75	0.115
675.95	0.114
676.15	0.114
676.35	0.114
676.54	0.114
676.74	0.113
676.94	0.114
677.13	0.113
677.33	0.112
677.53	0.112
677.73	0.112
677.92	0.112
678.12	0.112
678.32	0.111
678.51	0.111
678.71	0.111
678.91	0.111
679.11	0.111
679.30	0.111
679.50	0.110
679.70	0.110
679.89	0.110
680.09	0.111
680.29	0.110
680.48	0.110
680.68	0.109
680.88	0.109
681.07	0.109
681.27	0.109
681.47	0.109
681.66	0.109
681.86	0.108
682.06	0.108
682.25	0.108
682.45	0.108
682.65	0.108
682.84	0.107
683.04	0.106
683.24	0.106
683.43	0.106
683.63	0.106
683.83	0.106
684.02	0.106
684.22	0.106
684.42	0.105
684.61	0.105
684.81	0.106
685.01	0.105
685.20	0.105
685.40	0.106
685.60	0.105
685.79	0.105
685.99	0.105
686.19	0.105
686.38	0.104
686.58	0.105
686.77	0.105
686.97	0.105
687.17	0.105
687.36	0.105
687.56	0.104
687.76	0.104
687.95	0.104
688.15	0.104
688.34	0.104
688.54	0.103
688.74	0.103
688.93	0.102
689.13	0.102
689.33	0.102
689.52	0.102
689.72	0.102
689.91	0.102
690.11	0.101
690.31	0.101
690.50	0.102
690.70	0.102
690.89	0.102
691.09	0.101
691.29	0.101
691.48	0.101
691.68	0.100
691.87	0.100
692.07	0.101
692.27	0.100
692.46	0.100
692.66	0.099
692.85	0.099
693.05	0.099
693.25	0.099
693.44	0.099
693.64	0.099
693.83	0.099
694.03	0.098
694.22	0.098
694.42	0.098
694.62	0.098
694.81	0.098
695.01	0.098
695.20	0.098
695.40	0.098
695.59	0.098
695.79	0.097
695.99	0.097
696.18	0.098
696.38	0.098
696.57	0.098
696.77	0.097
696.96	0.097
697.16	0.097
697.36	0.097
697.55	0.096
697.75	0.096
697.94	0.096
698.14	0.096
698.33	0.095
698.53	0.095
698.72	0.095
698.92	0.095
699.11	0.095
699.31	0.095
699.51	0.095
699.70	0.094
699.90	0.094
700.09	0.094
700.29	0.094
700.48	0.094
700.68	0.094
700.87	0.094
701.07	0.094
701.26	0.093
701.46	0.093
701.65	0.093
701.85	0.093
702.04	0.093
702.24	0.093
702.43	0.093
702.63	0.093
702.82	0.093
703.02	0.093
703.21	0.093
703.41	0.093
703.60	0.093
703.80	0.093
703.99	0.093
704.19	0.093
704.38	0.092
704.58	0.091
704.77	0.092
704.97	0.091
705.16	0.091
705.36	0.091
705.55	0.091
705.75	0.091
705.94	0.090
706.14	0.090
706.33	0.090
706.53	0.090
706.72	0.090
706.92	0.089
707.11	0.090
707.31	0.089
707.50	0.089
707.70	0.089
707.89	0.089
708.09	0.089
708.28	0.089
708.48	0.089
708.67	0.089
708.86	0.089
709.06	0.089
709.25	0.089
709.45	0.090
709.64	0.089
709.84	0.089
710.03	0.089
710.23	0.089
710.42	0.089
710.62	0.088
710.81	0.089
711.00	0.089
711.20	0.088
711.39	0.088
711.59	0.088
711.78	0.088
711.98	0.088
712.17	0.088
712.37	0.087
712.56	0.087
712.75	0.088
712.95	0.088
713.14	0.088
713.34	0.088
713.53	0.088
713.73	0.088
713.92	0.088
714.11	0.088
714.31	0.088
714.50	0.088
714.70	0.088
714.89	0.087
715.08	0.087
715.28	0.087
715.47	0.087
715.67	0.087
715.86	0.087
716.06	0.087
716.25	0.087
716.44	0.087
716.64	0.087
716.83	0.087
717.03	0.086
717.22	0.086
717.41	0.086
717.61	0.086
717.80	0.086
717.99	0.086
718.19	0.086
718.38	0.086
718.58	0.085
718.77	0.085
718.96	0.085
719.16	0.085
719.35	0.085
719.55	0.085
719.74	0.085
719.93	0.085
720.13	0.085
720.32	0.085
720.51	0.085
720.71	0.085
720.90	0.085
721.10	0.085
721.29	0.085
721.48	0.085
721.68	0.085
721.87	0.085
722.06	0.085
722.26	0.085
722.45	0.085
722.64	0.085
722.84	0.085
723.03	0.085
723.22	0.085
723.42	0.085
723.61	0.085
723.80	0.085
724.00	0.085
724.19	0.086
724.38	0.086
724.58	0.085
724.77	0.085
724.96	0.085
725.16	0.085
725.35	0.085
725.54	0.085
725.74	0.085
725.93	0.085
726.12	0.085
726.32	0.084
726.51	0.085
726.70	0.085
726.90	0.085
727.09	0.084
727.28	0.084
727.48	0.084
727.67	0.084
727.86	0.085
728.06	0.084
728.25	0.085
728.44	0.085
728.64	0.084
728.83	0.084
729.02	0.084
729.21	0.084
729.41	0.084
729.60	0.084
729.79	0.084
729.99	0.084
730.18	0.084
730.37	0.084
730.56	0.083
730.76	0.083
730.95	0.083
731.14	0.084
731.34	0.084
731.53	0.084
731.72	0.084
731.91	0.084
732.11	0.084
732.30	0.085
732.49	0.085
732.69	0.085
732.88	0.085
733.07	0.085
733.26	0.085
733.46	0.084
733.65	0.085
733.84	0.084
734.03	0.085
734.23	0.085
734.42	0.084
734.61	0.084
734.80	0.084
735.00	0.084
735.19	0.084
735.38	0.085
735.57	0.085
735.77	0.085
735.96	0.085
736.15	0.085
736.34	0.085
736.54	0.085
736.73	0.085
736.92	0.085
737.11	0.085
737.31	0.085
737.50	0.085
737.69	0.085
737.88	0.085
738.07	0.085
738.27	0.085
738.46	0.084
738.65	0.084
738.84	0.084
739.04	0.084
739.23	0.084
739.42	0.084
739.61	0.084
739.80	0.084
740.00	0.084
740.19	0.084
740.38	0.084
740.57	0.085
740.76	0.084
740.96	0.084
741.15	0.084
741.34	0.084
741.53	0.084
741.72	0.084
741.92	0.084
742.11	0.084
742.30	0.084
742.49	0.084
742.68	0.084
742.88	0.084
743.07	0.084
743.26	0.084
743.45	0.084
743.64	0.083
743.84	0.083
744.03	0.083
744.22	0.083
744.41	0.083
744.60	0.082
744.79	0.082
744.99	0.082
745.18	0.082
745.37	0.082
745.56	0.082
745.75	0.082
745.94	0.081
746.14	0.082
746.33	0.082
746.52	0.082
746.71	0.082
746.90	0.082
747.09	0.082
747.28	0.082
747.48	0.082
747.67	0.082
747.86	0.082
748.05	0.082
748.24	0.081
748.43	0.081
748.62	0.081
748.82	0.081
749.01	0.081
749.20	0.081
749.39	0.081
749.58	0.081
749.77	0.081
749.96	0.081
750.16	0.081
750.35	0.081
750.54	0.082
750.73	0.082
750.92	0.082
751.11	0.081
751.30	0.081
751.49	0.081
751.68	0.081
751.88	0.081
752.07	0.081
752.26	0.080
752.45	0.080
752.64	0.080
752.83	0.080
753.02	0.080
753.21	0.080
753.40	0.079
753.60	0.080
753.79	0.080
753.98	0.080
754.17	0.080
754.36	0.080
754.55	0.080
754.74	0.080
754.93	0.080
755.12	0.080
755.31	0.081
755.50	0.080
755.70	0.080
755.89	0.080
756.08	0.080
756.27	0.079
756.46	0.080
756.65	0.079
756.84	0.079
757.03	0.079
757.22	0.078
757.41	0.079
757.60	0.079
757.79	0.079
757.98	0.079
758.17	0.079
758.36	0.079
758.56	0.079
758.75	0.079
758.94	0.079
759.13	0.079
759.32	0.079
759.51	0.079
759.70	0.078
759.89	0.078
760.08	0.078
760.27	0.078
760.46	0.078
760.65	0.078
760.84	0.078
761.03	0.078
761.22	0.078
761.41	0.078
761.60	0.078
761.79	0.078
761.98	0.078
762.17	0.078
762.36	0.078
762.55	0.078
762.74	0.078
762.93	0.078
763.12	0.078
763.31	0.078
763.50	0.078
763.69	0.078
763.88	0.077
764.07	0.077
764.26	0.077
764.45	0.077
764.64	0.077
764.83	0.077
765.02	0.077
765.21	0.077
765.40	0.077
765.59	0.077
765.78	0.077
765.97	0.077
766.16	0.077
766.35	0.077
766.54	0.077
766.73	0.077
766.92	0.077
767.11	0.077
767.30	0.077
767.49	0.077
767.68	0.077
767.87	0.077
768.06	0.077
768.25	0.076
768.44	0.077
768.63	0.076
768.82	0.076
769.01	0.076
769.20	0.076
769.39	0.076
769.58	0.077
769.77	0.077
769.96	0.077
770.15	0.076
770.34	0.076
770.53	0.076
770.72	0.076
770.91	0.076
771.10	0.076
771.29	0.076
771.47	0.075
771.66	0.075
771.85	0.075
772.04	0.075
772.23	0.075
772.42	0.075
772.61	0.075
772.80	0.076
772.99	0.076
773.18	0.075
773.37	0.076
773.56	0.076
773.75	0.076
773.94	0.076
774.13	0.075
774.31	0.076
774.50	0.075
774.69	0.075
774.88	0.075
775.07	0.075
775.26	0.075
775.45	0.075
775.64	0.075
775.83	0.074
776.02	0.074
776.21	0.074
776.40	0.074
776.58	0.074
776.77	0.074
776.96	0.074
777.15	0.074
777.34	0.074
777.53	0.075
777.72	0.074
777.91	0.075
778.10	0.074
778.28	0.074
778.47	0.074
778.66	0.074
778.85	0.074
779.04	0.074
779.23	0.074
779.42	0.073
779.61	0.073
779.79	0.073
779.98	0.073
780.17	0.073
780.36	0.073
780.55	0.072
780.74	0.073
780.93	0.072
781.12	0.073
781.30	0.072
781.49	0.072
781.68	0.072
781.87	0.073
782.06	0.073
782.25	0.073
782.44	0.073
782.62	0.073
782.81	0.073
783.00	0.073
783.19	0.073
783.38	0.073
783.57	0.073
783.75	0.073
783.94	0.073
784.13	0.073
784.32	0.073
784.51	0.073
784.70	0.073
784.88	0.072
785.07	0.072
785.26	0.072
785.45	0.072
785.64	0.072
785.83	0.072
786.01	0.071
786.20	0.072
786.39	0.072
786.58	0.071
786.77	0.071
786.95	0.071
787.14	0.071
787.33	0.071
787.52	0.071
787.71	0.072
787.90	0.071
788.08	0.071
788.27	0.071
788.46	0.071
788.65	0.072
788.84	0.072
789.02	0.072
789.21	0.072
789.40	0.072
789.59	0.072
789.77	0.072
789.96	0.072
790.15	0.072
790.34	0.072
790.53	0.072
790.71	0.071
790.90	0.071
791.09	0.071
791.28	0.071
791.46	0.071
791.65	0.071
791.84	0.071
792.03	0.070
792.22	0.070
792.40	0.070
792.59	0.071
792.78	0.070
792.97	0.071
793.15	0.071
793.34	0.070
793.53	0.070
793.72	0.070
793.90	0.070
794.09	0.071
794.28	0.071
794.47	0.071
794.65	0.071
794.84	0.071
795.03	0.071
795.22	0.071
795.40	0.070
795.59	0.070
795.78	0.070
795.97	0.070
796.15	0.070
796.34	0.070
796.53	0.070
796.71	0.070
796.90	0.070
797.09	0.071
797.28	0.071
797.46	0.071
797.65	0.071
797.84	0.071
798.02	0.071
798.21	0.070
798.40	0.070
798.59	0.070
798.77	0.070
798.96	0.070
799.15	0.070
799.33	0.070
799.52	0.069
799.71	0.070
799.90	0.070
800.08	0.070
800.27	0.070
800.46	0.069
800.64	0.069
800.83	0.069
801.02	0.070
801.20	0.070
801.39	0.070
801.58	0.070
801.76	0.070
801.95	0.070
802.14	0.070
802.32	0.070
802.51	0.070
802.70	0.069
802.88	0.069
803.07	0.069
803.26	0.069
803.44	0.069
803.63	0.069
803.82	0.068
804.00	0.068
804.19	0.069
804.38	0.069
804.56	0.069
804.75	0.069
804.94	0.069
805.12	0.069
805.31	0.069
805.50	0.069
805.68	0.069
805.87	0.069
806.06	0.069
806.24	0.069
806.43	0.069
806.62	0.069
806.80	0.069
806.99	0.069
807.17	0.069
807.36	0.070
807.55	0.069
807.73	0.069
807.92	0.069
808.11	0.069
808.29	0.069
808.48	0.069
808.66	0.069
808.85	0.068
809.04	0.068
809.22	0.068
809.41	0.068
809.59	0.068
809.78	0.068
809.97	0.068
810.15	0.068
810.34	0.068
810.53	0.068
810.71	0.067
810.90	0.068
811.08	0.068
811.27	0.067
811.45	0.067
811.64	0.067
811.83	0.067
812.01	0.067
812.20	0.067
812.38	0.067
812.57	0.067
812.76	0.068
812.94	0.068
813.13	0.068
813.31	0.068
813.50	0.068
813.68	0.068
813.87	0.068
814.06	0.068
814.24	0.068
814.43	0.068
814.61	0.068
814.80	0.068
814.98	0.068
815.17	0.068
815.36	0.068
815.54	0.068
815.73	0.068
815.91	0.068
816.10	0.068
816.28	0.068
816.47	0.067
816.65	0.068
816.84	0.068
817.03	0.068
817.21	0.068
817.40	0.068
817.58	0.068
817.77	0.069
817.95	0.069
818.14	0.069
818.32	0.069
818.51	0.069
818.69	0.069
818.88	0.069
819.06	0.068
819.25	0.068
819.43	0.068
819.62	0.068
819.80	0.068
819.99	0.069
820.18	0.069
820.36	0.068
820.55	0.069
820.73	0.069
820.92	0.069
821.10	0.069
821.29	0.069
821.47	0.069
821.66	0.069
821.84	0.069
822.03	0.069
822.21	0.069
822.40	0.068
822.58	0.068
822.77	0.068
822.95	0.068
823.14	0.069
823.32	0.069
823.50	0.069
823.69	0.069
823.87	0.069
824.06	0.069
824.24	0.069
824.43	0.069
824.61	0.069
824.80	0.070
824.98	0.070
825.17	0.070
825.35	0.070
825.54	0.070
825.72	0.070
825.91	0.070
826.09	0.070
826.28	0.070
826.46	0.070
826.64	0.070
826.83	0.070
827.01	0.070
827.20	0.070
827.38	0.070
827.57	0.071
827.75	0.070
827.94	0.071
828.12	0.071
828.31	0.071
828.49	0.071
828.67	0.072
828.86	0.072
829.04	0.071
829.23	0.072
829.41	0.072
829.60	0.072
829.78	0.072
829.96	0.073
830.15	0.073
830.33	0.073
830.52	0.073
830.70	0.073
830.88	0.072
831.07	0.073
831.25	0.073
831.44	0.073
831.62	0.073
831.81	0.073
831.99	0.073
832.17	0.073
832.36	0.074
832.54	0.074
832.73	0.074
832.91	0.074
833.09	0.074
833.28	0.074
833.46	0.074
833.65	0.074
833.83	0.074
834.01	0.074
834.20	0.074
834.38	0.074
834.56	0.074
834.75	0.074
834.93	0.074
835.12	0.074
835.30	0.074
835.48	0.074
835.67	0.074
835.85	0.074
836.03	0.074
836.22	0.074
836.40	0.074
836.59	0.074
836.77	0.074
836.95	0.074
837.14	0.074
837.32	0.074
837.50	0.074
837.69	0.074
837.87	0.075
838.05	0.075
838.24	0.075
838.42	0.075
838.60	0.075
838.79	0.076
838.97	0.075
839.15	0.075
839.34	0.075
839.52	0.076
839.70	0.076
839.89	0.076
840.07	0.076
840.25	0.076
840.44	0.076
840.62	0.075
840.80	0.075
840.99	0.075
841.17	0.075
841.35	0.075
841.54	0.075
841.72	0.075
841.90	0.075
842.09	0.075
842.27	0.075
842.45	0.076
842.64	0.076
842.82	0.076
843.00	0.076
843.19	0.076
843.37	0.075
843.55	0.075
843.73	0.075
843.92	0.075
844.10	0.076
844.28	0.076
844.47	0.076
844.65	0.075
844.83	0.076
845.01	0.076
845.20	0.076
845.38	0.076
845.56	0.076
845.75	0.076
845.93	0.076
846.11	0.076
846.29	0.076
846.48	0.076
846.66	0.076
846.84	0.076
847.02	0.076
847.21	0.075
847.39	0.076
847.57	0.076
847.76	0.076
847.94	0.076
848.12	0.076
848.30	0.076
848.49	0.076
848.67	0.076
848.85	0.076
849.03	0.076
849.22	0.076
849.40	0.076
849.58	0.077
849.76	0.077
849.95	0.077
850.13	0.077
850.31	0.077
850.49	0.077
850.67	0.077
850.86	0.077
851.04	0.077
851.22	0.077
851.40	0.077
851.59	0.077
851.77	0.077
851.95	0.077
852.13	0.077
852.31	0.077
852.50	0.077
852.68	0.077
852.86	0.077
853.04	0.077
853.23	0.077
853.41	0.077
853.59	0.077
853.77	0.076
853.95	0.077
854.14	0.077
854.32	0.076
854.50	0.076
854.68	0.076
854.86	0.077
855.04	0.077
855.23	0.077
855.41	0.077
855.59	0.077
855.77	0.077
855.95	0.078
856.14	0.078
856.32	0.078
856.50	0.078
856.68	0.078
856.86	0.078
857.04	0.077
857.23	0.077
857.41	0.077
857.59	0.077
857.77	0.077
857.95	0.077
858.13	0.076
858.32	0.077
858.50	0.077
858.68	0.076
858.86	0.077
859.04	0.077
859.22	0.077
859.41	0.077
859.59	0.078
859.77	0.078
859.95	0.078
860.13	0.078
860.31	0.078
860.49	0.078
860.68	0.078
860.86	0.078
861.04	0.077
861.22	0.077
861.40	0.077
861.58	0.077
861.76	0.077
861.94	0.077
862.13	0.077
862.31	0.077
862.49	0.077
862.67	0.077
862.85	0.077
863.03	0.078
863.21	0.078
863.39	0.078
863.57	0.078
863.76	0.078
863.94	0.078
864.12	0.078
864.30	0.077
864.48	0.077
864.66	0.078
864.84	0.078
865.02	0.078
865.20	0.078
865.38	0.079
865.57	0.079
865.75	0.079
865.93	0.079
866.11	0.079
866.29	0.079
866.47	0.080
866.65	0.079
866.83	0.079
867.01	0.079
867.19	0.079
867.37	0.078
867.55	0.079
867.73	0.078
867.92	0.078
868.10	0.079
868.28	0.079
868.46	0.078
868.64	0.078
868.82	0.078
869.00	0.079
869.18	0.079
869.36	0.078
869.54	0.078
869.72	0.079
869.90	0.078
870.08	0.078
870.26	0.079
870.44	0.079
870.62	0.079
870.80	0.079
870.98	0.079
871.16	0.079
871.34	0.079
871.53	0.079
871.71	0.079
871.89	0.079
872.07	0.079
872.25	0.079
872.43	0.079
872.61	0.079
872.79	0.079
872.97	0.080
873.15	0.079
873.33	0.080
873.51	0.080
873.69	0.080
873.87	0.080
874.05	0.080
874.23	0.080
874.41	0.080
874.59	0.080
874.77	0.080
874.95	0.080
875.13	0.080
875.31	0.080
875.49	0.080
875.67	0.080
875.85	0.080
876.03	0.080
876.21	0.080
876.39	0.081
876.57	0.081
876.75	0.081
876.93	0.081
877.11	0.081
877.29	0.081
877.47	0.081
877.65	0.081
877.82	0.082
878.00	0.081
878.18	0.081
878.36	0.081
878.54	0.081
878.72	0.081
878.90	0.081
879.08	0.082
879.26	0.081
879.44	0.081
879.62	0.081
879.80	0.081
879.98	0.081
880.16	0.081
880.34	0.080
880.52	0.081
880.70	0.081
880.88	0.081
881.06	0.081
881.24	0.081
881.42	0.081
881.59	0.080
881.77	0.080
881.95	0.081
882.13	0.081
882.31	0.081
882.49	0.081
882.67	0.082
882.85	0.081
883.03	0.081
883.21	0.081
883.39	0.081
883.57	0.082
883.75	0.081
883.92	0.081
884.10	0.082
884.28	0.081
884.46	0.081
884.64	0.082
884.82	0.082
885.00	0.082
885.18	0.082
885.36	0.083
885.54	0.083
885.71	0.083
885.89	0.083
886.07	0.083
886.25	0.083
886.43	0.083
886.61	0.083
886.79	0.083
886.97	0.083
887.15	0.083
887.32	0.083
887.50	0.083
887.68	0.083
887.86	0.083
888.04	0.083
888.22	0.083
888.40	0.083
888.57	0.083
888.75	0.083
888.93	0.083
889.11	0.083
889.29	0.083
889.47	0.083
889.65	0.083
889.82	0.083
890.00	0.084
890.18	0.084
890.36	0.084
890.54	0.084
890.72	0.084
890.90	0.084
891.07	0.084
891.25	0.084
891.43	0.084
891.61	0.084
891.79	0.084
891.97	0.084
892.14	0.084
892.32	0.084
892.50	0.084
892.68	0.084
892.86	0.084
893.03	0.084
893.21	0.084
893.39	0.085
893.57	0.084
893.75	0.084
893.93	0.085
894.10	0.085
894.28	0.085
894.46	0.085
894.64	0.085
894.82	0.085
894.99	0.085
895.17	0.085
895.35	0.085
895.53	0.085
895.71	0.085
895.88	0.085
896.06	0.085
896.24	0.085
896.42	0.085
896.59	0.085
896.77	0.085
896.95	0.085
897.13	0.085
897.31	0.085
897.48	0.085
897.66	0.085
897.84	0.085
898.02	0.085
898.19	0.085
898.37	0.085
898.55	0.085
898.73	0.085
898.91	0.085
899.08	0.085
899.26	0.085
899.44	0.086
899.62	0.086
899.79	0.087
899.97	0.087
900.15	0.086
900.33	0.086
900.50	0.087
900.68	0.086
900.86	0.086
901.04	0.087
901.21	0.086
901.39	0.086
901.57	0.086
901.74	0.086
901.92	0.086
902.10	0.086
902.28	0.086
902.45	0.086
902.63	0.086
902.81	0.086
902.99	0.087
903.16	0.087
903.34	0.087
903.52	0.087
903.69	0.087
903.87	0.087
904.05	0.087
904.22	0.087
904.40	0.087
904.58	0.087
904.76	0.088
904.93	0.088
905.11	0.088
905.29	0.088
905.46	0.088
905.64	0.088
905.82	0.088
905.99	0.088
906.17	0.088
906.35	0.088
906.53	0.088
906.70	0.088
906.88	0.088
907.06	0.087
907.23	0.087
907.41	0.088
907.59	0.088
907.76	0.088
907.94	0.088
908.12	0.088
908.29	0.088
908.47	0.089
908.65	0.089
908.82	0.089
909.00	0.089
909.18	0.089
909.35	0.089
909.53	0.089
909.71	0.089
909.88	0.089
910.06	0.089
910.23	0.089
910.41	0.089
910.59	0.089
910.76	0.089
910.94	0.089
911.12	0.089
911.29	0.089
911.47	0.090
911.65	0.090
911.82	0.090
912.00	0.091
912.17	0.091
912.35	0.091
912.53	0.092
912.70	0.092
912.88	0.092
913.06	0.092
913.23	0.092
913.41	0.092
913.58	0.092
913.76	0.092
913.94	0.092
914.11	0.092
914.29	0.092
914.46	0.092
914.64	0.092
914.82	0.093
914.99	0.093
915.17	0.092
915.34	0.093
915.52	0.093
915.70	0.093
915.87	0.093
916.05	0.093
916.22	0.093
916.40	0.093
916.57	0.093
916.75	0.093
916.93	0.093
917.10	0.093
917.28	0.093
917.45	0.093
917.63	0.093
917.80	0.093
917.98	0.093
918.16	0.094
918.33	0.094
918.51	0.094
918.68	0.094
918.86	0.095
919.03	0.095
919.21	0.096
919.39	0.096
919.56	0.096
919.74	0.096
919.91	0.096
920.09	0.096
920.26	0.096
920.44	0.097
920.61	0.097
920.79	0.097
920.96	0.097
921.14	0.097
921.31	0.097
921.49	0.097
921.67	0.098
921.84	0.098
922.02	0.098
922.19	0.098
922.37	0.099
922.54	0.099
922.72	0.099
922.89	0.099
923.07	0.099
923.24	0.100
923.42	0.100
923.59	0.100
923.77	0.100
923.94	0.101
924.12	0.101
924.29	0.101
924.47	0.101
924.64	0.102
924.82	0.102
924.99	0.102
925.17	0.103
925.34	0.103
925.52	0.103
925.69	0.104
925.87	0.104
926.04	0.104
926.22	0.105
926.39	0.105
926.57	0.105
926.74	0.106
926.91	0.106
927.09	0.106
927.26	0.106
927.44	0.106
927.61	0.107
927.79	0.107
927.96	0.108
928.14	0.108
928.31	0.108
928.49	0.108
928.66	0.109
928.84	0.110
929.01	0.110
929.18	0.111
929.36	0.111
929.53	0.111
929.71	0.112
929.88	0.112
930.06	0.112
930.23	0.113
930.41	0.113
930.58	0.114
930.75	0.115
930.93	0.115
931.10	0.115
931.28	0.116
931.45	0.116
931.63	0.116
931.80	0.117
931.97	0.117
932.15	0.118
932.32	0.118
932.50	0.118
932.67	0.119
932.84	0.119
933.02	0.120
933.19	0.120
933.37	0.120
933.54	0.121
933.71	0.121
933.89	0.122
934.06	0.122
934.24	0.123
934.41	0.123
934.58	0.124
934.76	0.124
934.93	0.125
935.11	0.125
935.28	0.126
935.45	0.126
935.63	0.127
935.80	0.127
935.98	0.127
936.15	0.128
936.32	0.128
936.50	0.129
936.67	0.129
936.84	0.129
937.02	0.131
937.19	0.131
937.36	0.132
937.54	0.132
937.71	0.133
937.89	0.133
938.06	0.134
938.23	0.134
938.41	0.135
938.58	0.135
938.75	0.136
938.93	0.136
939.10	0.137
939.27	0.137
939.45	0.138
939.62	0.138
939.79	0.139
939.97	0.140
940.14	0.140
940.31	0.141
940.49	0.141
940.66	0.142
940.83	0.143
941.01	0.144
941.18	0.144
941.35	0.144
941.53	0.145
941.70	0.146
941.87	0.146
942.05	0.147
942.22	0.148
942.39	0.149
942.57	0.149
942.74	0.150
942.91	0.150
943.08	0.151
943.26	0.151
943.43	0.152
943.60	0.152
943.78	0.153
943.95	0.154
944.12	0.154
944.29	0.155
944.47	0.155
944.64	0.156
944.81	0.157
944.99	0.158
945.16	0.159
945.33	0.159
945.50	0.160
945.68	0.161
945.85	0.162
946.02	0.164
946.20	0.165
946.37	0.166
946.54	0.167
946.71	0.168
946.89	0.168
947.06	0.169
947.23	0.169
947.40	0.171
947.58	0.171
947.75	0.172
947.92	0.172
948.09	0.173
948.27	0.174
948.44	0.175
948.61	0.176
948.78	0.176
948.96	0.178
949.13	0.179
949.30	0.180
949.47	0.181
949.65	0.181
949.82	0.184
949.99	0.184
950.16	0.186
950.33	0.187
950.51	0.188
950.68	0.190
950.85	0.191
951.02	0.192
951.20	0.193
951.37	0.194
951.54	0.195
951.71	0.196
951.88	0.197
952.06	0.198
952.23	0.198
952.40	0.200
952.57	0.201
952.74	0.202
952.92	0.203
953.09	0.205
953.26	0.207
953.43	0.207
953.60	0.208
953.77	0.209
953.95	0.210
954.12	0.213
954.29	0.213
954.46	0.216
954.63	0.217
954.81	0.218
954.98	0.218
955.15	0.220
955.32	0.222
955.49	0.223
955.66	0.224
955.84	0.225
956.01	0.225
956.18	0.227
956.35	0.229
956.52	0.229
956.69	0.230
956.87	0.231
957.04	0.232
957.21	0.234
957.38	0.234
957.55	0.235
957.72	0.236
957.89	0.237
958.07	0.237
958.24	0.239
958.41	0.241
958.58	0.241
958.75	0.242
958.92	0.242
959.09	0.243
959.26	0.243
959.44	0.244
959.61	0.245
959.78	0.245
959.95	0.247
960.12	0.247
960.29	0.249
960.46	0.249
960.63	0.249
960.81	0.249
960.98	0.250
961.15	0.251
961.32	0.251
961.49	0.251
961.66	0.252
961.83	0.253
962.00	0.253
962.17	0.253
962.34	0.252
962.52	0.253
962.69	0.255
962.86	0.254
963.03	0.255
963.20	0.256
963.37	0.255
963.54	0.256
963.71	0.256
963.88	0.256
964.05	0.257
964.22	0.259
964.39	0.257
964.56	0.258
964.74	0.259
964.91	0.258
965.08	0.259
965.25	0.260
965.42	0.260
965.59	0.261
965.76	0.260
965.93	0.261
966.10	0.259
966.27	0.260
966.44	0.260
966.61	0.261
966.78	0.261
966.95	0.260
967.12	0.261
967.29	0.263
967.46	0.263
967.63	0.262
967.80	0.263
967.97	0.263
968.14	0.263
968.32	0.263
968.49	0.263
968.66	0.262
968.83	0.262
969.00	0.262
969.17	0.262
969.34	0.263
969.51	0.264
969.68	0.263
969.85	0.263
970.02	0.264
970.19	0.264
970.36	0.265
970.53	0.265
970.70	0.264
970.87	0.264
971.04	0.264
971.21	0.264
971.38	0.264
971.55	0.264
971.72	0.265
971.89	0.266
972.06	0.265
972.23	0.265
972.40	0.265
972.57	0.264
972.74	0.264
972.91	0.265
973.07	0.265
973.24	0.265
973.41	0.265
973.58	0.263
973.75	0.276
973.92	0.263
974.09	0.263
974.26	0.263
974.43	0.262
974.60	0.263
974.77	0.264
974.94	0.263
975.11	0.264
975.28	0.265
975.45	0.263
975.62	0.264
975.79	0.265
975.96	0.264
976.13	0.263
976.30	0.265
976.47	0.263
976.64	0.263
976.80	0.263
976.97	0.263
977.14	0.263
977.31	0.263
977.48	0.264
977.65	0.263
977.82	0.262
977.99	0.263
978.16	0.263
978.33	0.263
978.50	0.262
978.67	0.262
978.83	0.262
979.00	0.262
979.17	0.261
979.34	0.261
979.51	0.261
979.68	0.262
979.85	0.261
980.02	0.261
980.19	0.259
980.36	0.261
980.52	0.262
980.69	0.260
980.86	0.260
981.03	0.260
981.20	0.258
981.37	0.259
981.54	0.259
981.71	0.258
981.88	0.259
982.04	0.259
982.21	0.258
982.38	0.259
982.55	0.257
982.72	0.256
982.89	0.257
983.06	0.256
983.22	0.256
983.39	0.256
983.56	0.256
983.73	0.255
983.90	0.253
984.07	0.256
984.24	0.254
984.40	0.255
984.57	0.253
984.74	0.256
984.91	0.257
985.08	0.254
985.25	0.252
985.41	0.253
985.58	0.253
985.75	0.254
985.92	0.253
986.09	0.251
986.26	0.252
986.42	0.251
986.59	0.250
986.76	0.251
986.93	0.251
987.10	0.252
987.27	0.250
987.43	0.249
987.60	0.250
987.77	0.250
987.94	0.249
988.11	0.250
988.27	0.249
988.44	0.249
988.61	0.247
988.78	0.246
988.95	0.247
989.11	0.248
989.28	0.246
989.45	0.246
989.62	0.245
989.79	0.246
989.95	0.245
990.12	0.246
990.29	0.246
990.46	0.244
990.62	0.243
990.79	0.243
990.96	0.243
991.13	0.244
991.30	0.243
991.46	0.242
991.63	0.240
991.80	0.239
991.97	0.238
992.13	0.239
992.30	0.240
992.47	0.239
992.64	0.238
992.80	0.238
992.97	0.238
993.14	0.236
993.31	0.234
993.47	0.237
993.64	0.234
993.81	0.234
993.98	0.234
994.14	0.232
994.31	0.232
994.48	0.233
994.64	0.233
994.81	0.232
994.98	0.232
995.15	0.230
995.31	0.230
995.48	0.229
995.65	0.232
995.82	0.229
995.98	0.228
996.15	0.229
996.32	0.230
996.48	0.229
996.65	0.228
996.82	0.226
996.99	0.227
997.15	0.227
997.32	0.229
997.49	0.226
997.65	0.227
997.82	0.228
997.99	0.226
998.15	0.226
998.32	0.227
998.49	0.226
998.65	0.226
998.82	0.225
998.99	0.223
999.15	0.223
999.32	0.222
999.49	0.222
999.65	0.222
999.82	0.219
999.99	0.220
1000.15	0.220
1000.32	0.220
1000.49	0.220
1000.65	0.219
1000.82	0.219
1000.99	0.218
1001.15	0.218
1001.32	0.218
1001.49	0.218
1001.65	0.218
1001.82	0.220
1001.99	0.217
1002.15	0.216
1002.32	0.215
1002.49	0.216
1002.65	0.214
1002.82	0.213
1002.99	0.212
1003.15	0.214
1003.32	0.212
1003.48	0.213
1003.65	0.212
1003.82	0.211
1003.98	0.209
1004.15	0.209
1004.32	0.209
1004.48	0.209
1004.65	0.211
1004.81	0.209
1004.98	0.207
1005.15	0.208
1005.31	0.207
1005.48	0.205
1005.64	0.206
1005.81	0.208
1005.98	0.205
1006.14	0.205
1006.31	0.205
1006.47	0.203
1006.64	0.202
1006.81	0.201
1006.97	0.202
1007.14	0.201
1007.30	0.202
1007.47	0.201
1007.63	0.199
1007.80	0.197
1007.97	0.196
1008.13	0.197
1008.30	0.197
1008.46	0.197
1008.63	0.196
1008.79	0.197
1008.96	0.197
1009.13	0.198
1009.29	0.196
1009.46	0.196
1009.62	0.196
1009.79	0.194
1009.95	0.194
1010.12	0.195
1010.28	0.194
1010.45	0.194
1010.62	0.193
1010.78	0.191
1010.95	0.190
1011.11	0.190
1011.28	0.189
1011.44	0.191
1011.61	0.189
1011.77	0.188
1011.94	0.189
1012.10	0.189
1012.27	0.189
1012.43	0.188
1012.60	0.187
1012.76	0.187
1012.93	0.187
1013.10	0.186
1013.26	0.183
1013.43	0.185
1013.59	0.192
1013.76	0.184
1013.92	0.184
1014.09	0.182
1014.25	0.183
1014.42	0.184
1014.58	0.183
1014.75	0.186
1014.91	0.184
1015.08	0.186
1015.24	0.183
1015.41	0.185
1015.57	0.184
1015.73	0.182
1015.90	0.181
1016.06	0.183
1016.23	0.182
1016.39	0.182
1016.56	0.182
1016.72	0.181
1016.89	0.181
1017.05	0.183
1017.22	0.180
1017.38	0.180
1017.55	0.179
1017.71	0.180
1017.88	0.179
1018.04	0.179
1018.21	0.176
1018.37	0.177
1018.53	0.178
1018.70	0.176
1018.86	0.175
1019.03	0.177
1019.19	0.176
1019.36	0.175
1019.52	0.176
1019.69	0.176
1019.85	0.176
1020.01	0.176
1020.18	0.175
1020.34	0.174
1020.51	0.173
1020.67	0.173
1020.84	0.171
1021.00	0.172
1021.16	0.170
1021.33	0.170
1021.49	0.169
1021.66	0.170
1021.82	0.168
1021.98	0.167
1022.15	0.166
1022.31	0.167
1022.48	0.165
1022.64	0.167
1022.80	0.165
1022.97	0.163
1023.13	0.163
1023.30	0.163
1023.46	0.164
1023.62	0.162
1023.79	0.163
1023.95	0.164
1024.12	0.163
1024.28	0.163
1024.44	0.163
1024.61	0.162
1024.77	0.162
1024.93	0.161
1025.10	0.162
1025.26	0.160
1025.43	0.160
1025.59	0.156
1025.75	0.160
1025.92	0.158
1026.08	0.157
1026.24	0.157
1026.41	0.158
1026.57	0.157
1026.73	0.154
1026.90	0.156
1027.06	0.154
1027.23	0.155
1027.39	0.155
1027.55	0.155
1027.72	0.153
1027.88	0.153
1028.04	0.154
1028.21	0.155
1028.37	0.149
1028.53	0.154
1028.70	0.152
1028.86	0.151
1029.02	0.151
1029.19	0.152
1029.35	0.150
1029.51	0.151
1029.67	0.150
1029.84	0.151
1030.00	0.147
1030.16	0.148
1030.33	0.151
1030.49	0.148
1030.65	0.145
1030.82	0.160
1030.98	0.147
1031.14	0.147
1031.31	0.146
1031.47	0.144
1031.63	0.146
1031.79	0.143
1031.96	0.144
1032.12	0.144
1032.28	0.143
1032.45	0.147
1032.61	0.146
1032.77	0.145
1032.93	0.144
1033.10	0.145
1033.26	0.147
1033.42	0.146
1033.58	0.146
1033.75	0.148
1033.91	0.146
1034.07	0.148
1034.24	0.145
1034.40	0.144
1034.56	0.143
1034.72	0.143
1034.89	0.142
1035.05	0.140
1035.21	0.140
1035.37	0.139
1035.54	0.142
1035.70	0.140
1035.86	0.139
1036.02	0.142
1036.19	0.139
1036.35	0.137
1036.51	0.142
1036.67	0.140
1036.83	0.140
1037.00	0.139
1037.16	0.139
1037.32	0.140
1037.48	0.139
1037.65	0.143
1037.81	0.139
1037.97	0.139
1038.13	0.140
1038.29	0.137
1038.46	0.134
1038.62	0.139
1038.78	0.137
1038.94	0.134
1039.10	0.138
1039.27	0.133
1039.43	0.134
1039.59	0.135
1039.75	0.134
1039.91	0.132
1040.08	0.132
1040.24	0.136
1040.40	0.136
1040.56	0.135
1040.72	0.129
1040.89	0.130
1041.05	0.132
1041.21	0.131
1041.37	0.128
1041.53	0.134
1041.69	0.133
1041.86	0.132
1042.02	0.128
1042.18	0.127
1042.34	0.128
1042.50	0.132
1042.66	0.130
1042.83	0.129
1042.99	0.132
1043.15	0.128
1043.31	0.128
1043.47	0.131
1043.63	0.129
1043.79	0.129
1043.96	0.130
1044.12	0.135
1044.28	0.132
1044.44	0.134
1044.60	0.128
1044.76	0.127
1044.92	0.129
1045.09	0.129
1045.25	0.127
1045.41	0.127
1045.57	0.122
1045.73	0.123
1045.89	0.123
1046.05	0.124
1046.21	0.129
1046.38	0.125
1046.54	0.131
1046.70	0.125
1046.86	0.115
>>>>>End Processed Spectral Data<<<<<
