SpectraSuite Data File
++++++++++++++++++++++++++++++++++++
Date: Mon May 20 12:12:20 CDT 2013
User: Students
Dark Spectrum Present: Yes
Reference Spectrum Present: Yes
Number of Sampled Component Spectra: 1
Spectrometers: USB4H00887
Integration Time (usec): 60000 (USB4H00887)
Spectra Averaged: 5 (USB4H00887)
Boxcar Smoothing: 5 (USB4H00887)
Correct for Electrical Dark: No (USB4H00887)
Strobe/Lamp Enabled: No (USB4H00887)
Correct for Detector Non-linearity: No (USB4H00887)
Correct for Stray Light: No (USB4H00887)
Number of Pixels in Processed Spectrum: 3648
>>>>>Begin Processed Spectral Data<<<<<
345.83	-0.189
346.05	-0.189
346.26	-0.189
346.48	-0.000
346.70	-0.139
346.92	0.136
347.14	0.085
347.35	0.081
347.57	0.483
347.79	-0.275
348.01	-0.171
348.23	-0.321
348.44	-0.000
348.66	0.198
348.88	-0.293
349.10	-0.124
349.32	0.031
349.53	0.014
349.75	-0.004
349.97	-0.001
350.19	0.034
350.41	0.000
350.62	0.018
350.84	-0.010
351.06	-0.024
351.28	-0.064
351.50	-0.276
351.71	-0.186
351.93	-0.143
352.15	-0.024
352.37	-0.090
352.58	-0.032
352.80	0.003
353.02	0.039
353.24	0.059
353.46	0.358
353.67	-0.198
353.89	0.068
354.11	0.052
354.33	0.055
354.54	0.086
354.76	0.192
354.98	0.366
355.20	0.260
355.41	0.100
355.63	0.190
355.85	0.078
356.07	0.277
356.28	0.052
356.50	0.092
356.72	0.034
356.94	0.113
357.15	0.057
357.37	-0.000
357.59	0.016
357.81	-0.025
358.02	-0.016
358.24	-0.006
358.46	0.040
358.68	0.009
358.89	0.016
359.11	-0.000
359.33	0.012
359.55	-0.341
359.76	0.069
359.98	0.061
360.20	0.084
360.42	0.090
360.63	0.102
360.85	0.072
361.07	0.394
361.29	0.062
361.50	0.216
361.72	0.083
361.94	0.311
362.15	0.136
362.37	0.097
362.59	0.093
362.81	0.144
363.02	0.241
363.24	0.418
363.46	0.225
363.68	0.320
363.89	0.171
364.11	0.252
364.33	0.309
364.54	0.179
364.76	0.212
364.98	0.218
365.20	0.223
365.41	0.141
365.63	0.178
365.85	0.126
366.06	0.393
366.28	0.518
366.50	0.357
366.71	0.130
366.93	0.146
367.15	0.145
367.37	0.124
367.58	0.170
367.80	0.186
368.02	0.567
368.23	0.193
368.45	0.172
368.67	0.122
368.88	0.120
369.10	-0.000
369.32	0.137
369.53	0.075
369.75	0.133
369.97	0.380
370.19	0.228
370.40	0.096
370.62	0.209
370.84	0.090
371.05	0.674
371.27	0.130
371.49	0.135
371.70	0.180
371.92	0.260
372.14	0.123
372.35	0.119
372.57	0.132
372.79	0.307
373.00	0.077
373.22	0.108
373.44	0.083
373.65	0.073
373.87	0.131
374.09	0.489
374.30	0.130
374.52	0.127
374.74	0.090
374.95	0.378
375.17	0.110
375.39	-0.000
375.60	0.152
375.82	0.279
376.04	0.130
376.25	0.138
376.47	0.091
376.68	0.199
376.90	0.114
377.12	0.274
377.33	0.134
377.55	0.326
377.77	0.149
377.98	0.204
378.20	0.108
378.42	0.134
378.63	0.155
378.85	-0.000
379.07	0.098
379.28	0.332
379.50	0.208
379.71	0.138
379.93	0.092
380.15	0.129
380.36	0.193
380.58	0.149
380.80	0.363
381.01	0.112
381.23	0.113
381.44	0.121
381.66	0.157
381.88	0.207
382.09	-0.081
382.31	0.124
382.53	0.141
382.74	0.779
382.96	0.204
383.17	0.170
383.39	0.251
383.61	0.339
383.82	0.218
384.04	0.237
384.25	0.272
384.47	0.258
384.69	0.240
384.90	0.217
385.12	0.454
385.33	0.294
385.55	0.234
385.77	0.361
385.98	0.185
386.20	0.277
386.41	0.239
386.63	0.272
386.85	0.218
387.06	0.267
387.28	0.410
387.49	0.268
387.71	0.195
387.93	0.162
388.14	0.456
388.36	0.184
388.57	0.165
388.79	0.193
389.01	1.268
389.22	0.274
389.44	0.254
389.65	0.217
389.87	0.214
390.08	0.250
390.30	0.199
390.52	0.391
390.73	0.394
390.95	0.274
391.16	0.266
391.38	-0.000
391.59	0.271
391.81	0.219
392.03	0.201
392.24	0.240
392.46	0.197
392.67	0.180
392.89	0.249
393.10	0.384
393.32	0.254
393.53	0.283
393.75	0.189
393.97	0.227
394.18	0.321
394.40	0.268
394.61	0.284
394.83	0.250
395.04	0.298
395.26	0.198
395.47	0.313
395.69	0.262
395.91	0.281
396.12	0.321
396.34	0.316
396.55	0.205
396.77	0.305
396.98	1.476
397.20	0.394
397.41	0.413
397.63	0.306
397.84	0.259
398.06	0.251
398.27	0.249
398.49	0.290
398.71	0.214
398.92	0.251
399.14	0.322
399.35	0.369
399.57	0.343
399.78	0.249
400.00	0.229
400.21	0.278
400.43	0.232
400.64	0.249
400.86	0.554
401.07	0.318
401.29	0.273
401.50	0.292
401.72	0.433
401.93	0.277
402.15	0.328
402.36	0.312
402.58	0.263
402.79	0.281
403.01	0.456
403.22	0.357
403.44	0.248
403.65	0.399
403.87	0.436
404.08	0.329
404.30	0.530
404.51	0.298
404.73	0.366
404.94	0.324
405.16	0.335
405.37	0.273
405.59	0.481
405.80	0.302
406.02	0.390
406.23	0.387
406.45	0.445
406.66	0.484
406.88	0.319
407.09	0.482
407.31	0.377
407.52	0.453
407.74	0.357
407.95	0.438
408.17	0.405
408.38	0.404
408.60	0.265
408.81	0.454
409.03	0.339
409.24	0.333
409.45	0.386
409.67	0.362
409.88	0.335
410.10	0.424
410.31	0.350
410.53	0.332
410.74	0.465
410.96	0.469
411.17	0.476
411.39	0.361
411.60	0.332
411.82	0.371
412.03	0.367
412.24	0.351
412.46	0.499
412.67	0.419
412.89	0.418
413.10	0.412
413.32	0.371
413.53	0.427
413.75	0.447
413.96	0.345
414.17	0.457
414.39	0.462
414.60	0.380
414.82	0.487
415.03	0.367
415.25	0.392
415.46	0.280
415.68	0.393
415.89	0.642
416.10	0.535
416.32	0.312
416.53	0.363
416.75	0.348
416.96	0.416
417.18	0.362
417.39	0.352
417.60	0.365
417.82	0.522
418.03	0.462
418.25	0.396
418.46	0.408
418.67	0.386
418.89	0.417
419.10	0.431
419.32	0.569
419.53	0.515
419.75	0.452
419.96	0.405
420.17	0.487
420.39	0.458
420.60	0.475
420.82	0.583
421.03	0.468
421.24	0.394
421.46	0.432
421.67	0.469
421.89	0.416
422.10	0.448
422.31	0.441
422.53	0.610
422.74	0.450
422.96	0.365
423.17	0.401
423.38	0.487
423.60	0.415
423.81	0.508
424.03	0.437
424.24	0.488
424.45	0.481
424.67	0.474
424.88	0.429
425.09	0.466
425.31	0.429
425.52	0.457
425.74	0.514
425.95	0.558
426.16	0.440
426.38	0.509
426.59	0.465
426.80	0.522
427.02	0.545
427.23	0.438
427.45	0.563
427.66	0.550
427.87	0.429
428.09	0.451
428.30	0.496
428.51	0.492
428.73	0.545
428.94	0.482
429.15	0.470
429.37	0.444
429.58	0.462
429.79	0.435
430.01	0.520
430.22	0.523
430.44	0.528
430.65	0.480
430.86	0.507
431.08	0.486
431.29	0.459
431.50	0.538
431.72	0.716
431.93	0.601
432.14	0.457
432.36	0.493
432.57	0.504
432.78	0.526
433.00	0.487
433.21	0.487
433.42	0.596
433.64	0.523
433.85	0.591
434.06	0.485
434.28	0.509
434.49	0.524
434.70	0.535
434.92	0.546
435.13	0.574
435.34	0.576
435.56	0.547
435.77	0.544
435.98	0.672
436.20	0.569
436.41	0.492
436.62	0.483
436.83	0.538
437.05	0.599
437.26	0.530
437.47	0.481
437.69	0.523
437.90	0.480
438.11	0.473
438.33	0.516
438.54	0.530
438.75	0.658
438.97	0.644
439.18	0.504
439.39	0.520
439.60	0.562
439.82	0.530
440.03	0.499
440.24	0.696
440.46	0.542
440.67	0.520
440.88	0.554
441.10	0.523
441.31	0.524
441.52	0.568
441.73	0.630
441.95	0.562
442.16	0.525
442.37	0.766
442.58	0.511
442.80	0.508
443.01	0.644
443.22	0.605
443.44	0.516
443.65	0.599
443.86	0.600
444.07	0.642
444.29	0.563
444.50	0.703
444.71	0.550
444.92	0.518
445.14	0.640
445.35	0.667
445.56	0.534
445.78	0.619
445.99	0.617
446.20	0.542
446.41	0.603
446.63	0.604
446.84	0.567
447.05	0.570
447.26	0.671
447.48	0.580
447.69	0.554
447.90	0.627
448.11	0.572
448.33	0.591
448.54	0.601
448.75	0.623
448.96	0.632
449.18	0.665
449.39	0.602
449.60	0.585
449.81	0.693
450.03	0.615
450.24	0.657
450.45	0.620
450.66	0.605
450.87	0.636
451.09	0.600
451.30	0.587
451.51	0.643
451.72	0.652
451.94	0.666
452.15	0.716
452.36	0.611
452.57	0.625
452.78	0.625
453.00	0.651
453.21	0.615
453.42	0.592
453.63	0.661
453.85	0.632
454.06	0.631
454.27	0.721
454.48	0.653
454.69	0.595
454.91	0.644
455.12	0.572
455.33	0.637
455.54	0.648
455.75	0.635
455.97	0.656
456.18	0.652
456.39	0.656
456.60	0.684
456.81	0.631
457.03	0.647
457.24	0.646
457.45	0.714
457.66	0.671
457.87	0.637
458.09	0.647
458.30	0.582
458.51	0.673
458.72	0.685
458.93	0.690
459.15	0.624
459.36	0.667
459.57	0.687
459.78	0.720
459.99	0.652
460.20	0.627
460.42	0.687
460.63	0.651
460.84	0.641
461.05	0.663
461.26	0.705
461.47	0.641
461.69	0.680
461.90	0.704
462.11	0.673
462.32	0.716
462.53	0.673
462.74	0.743
462.96	0.663
463.17	0.657
463.38	0.685
463.59	0.770
463.80	0.661
464.01	0.679
464.23	0.741
464.44	0.710
464.65	0.719
464.86	0.732
465.07	0.737
465.28	0.707
465.49	0.722
465.71	0.690
465.92	0.716
466.13	0.751
466.34	0.700
466.55	0.740
466.76	0.715
466.97	0.729
467.19	0.721
467.40	0.746
467.61	0.747
467.82	0.689
468.03	0.675
468.24	0.729
468.45	0.755
468.66	0.745
468.88	0.752
469.09	0.753
469.30	0.784
469.51	0.730
469.72	0.761
469.93	0.740
470.14	0.726
470.35	0.788
470.57	0.748
470.78	0.707
470.99	0.802
471.20	0.760
471.41	0.730
471.62	0.771
471.83	0.753
472.04	0.773
472.25	0.803
472.47	0.743
472.68	0.749
472.89	0.752
473.10	0.783
473.31	0.747
473.52	0.787
473.73	0.798
473.94	0.741
474.15	0.759
474.36	0.758
474.57	0.778
474.79	0.759
475.00	0.761
475.21	0.753
475.42	0.812
475.63	0.744
475.84	0.770
476.05	0.776
476.26	0.758
476.47	0.783
476.68	0.820
476.89	0.771
477.10	0.807
477.32	0.797
477.53	0.837
477.74	0.780
477.95	0.813
478.16	0.774
478.37	0.806
478.58	0.809
478.79	0.818
479.00	0.818
479.21	0.790
479.42	0.821
479.63	0.823
479.84	0.791
480.05	0.794
480.26	0.808
480.47	0.821
480.69	0.820
480.90	0.796
481.11	0.797
481.32	0.836
481.53	0.793
481.74	0.828
481.95	0.805
482.16	0.816
482.37	0.820
482.58	0.799
482.79	0.810
483.00	0.831
483.21	0.793
483.42	0.772
483.63	0.824
483.84	0.841
484.05	0.835
484.26	0.815
484.47	0.817
484.68	0.792
484.89	0.800
485.10	0.834
485.31	0.818
485.52	0.824
485.73	0.824
485.94	0.852
486.15	0.817
486.37	0.825
486.58	0.801
486.79	0.810
487.00	0.841
487.21	0.835
487.42	0.832
487.63	0.838
487.84	0.849
488.05	0.848
488.26	0.819
488.47	0.825
488.68	0.848
488.89	0.833
489.10	0.828
489.31	0.837
489.52	0.858
489.73	0.837
489.94	0.862
490.15	0.831
490.36	0.857
490.57	0.827
490.78	0.815
490.99	0.840
491.20	0.892
491.41	0.862
491.62	0.824
491.83	0.845
492.04	0.842
492.25	0.847
492.45	0.849
492.66	0.868
492.87	0.859
493.08	0.852
493.29	0.843
493.50	0.835
493.71	0.844
493.92	0.840
494.13	0.852
494.34	0.865
494.55	0.870
494.76	0.890
494.97	0.883
495.18	0.860
495.39	0.870
495.60	0.835
495.81	0.836
496.02	0.848
496.23	0.843
496.44	0.863
496.65	0.859
496.86	0.863
497.07	0.881
497.28	0.879
497.49	0.844
497.70	0.844
497.91	0.859
498.12	0.848
498.32	0.878
498.53	0.868
498.74	0.860
498.95	0.876
499.16	0.845
499.37	0.846
499.58	0.853
499.79	0.876
500.00	0.875
500.21	0.893
500.42	0.854
500.63	0.855
500.84	0.867
501.05	0.854
501.26	0.871
501.46	0.897
501.67	0.873
501.88	0.874
502.09	0.856
502.30	0.860
502.51	0.894
502.72	0.864
502.93	0.876
503.14	0.893
503.35	0.873
503.56	0.870
503.77	0.891
503.97	0.875
504.18	0.875
504.39	0.899
504.60	0.878
504.81	0.897
505.02	0.889
505.23	0.888
505.44	0.875
505.65	0.881
505.86	0.868
506.07	0.913
506.27	0.887
506.48	0.889
506.69	0.878
506.90	0.891
507.11	0.890
507.32	0.875
507.53	0.881
507.74	0.876
507.95	0.885
508.15	0.889
508.36	0.891
508.57	0.898
508.78	0.887
508.99	0.886
509.20	0.869
509.41	0.888
509.62	0.879
509.82	0.878
510.03	0.884
510.24	0.885
510.45	0.901
510.66	0.896
510.87	0.893
511.08	0.868
511.29	0.898
511.49	0.881
511.70	0.911
511.91	0.866
512.12	0.864
512.33	0.886
512.54	0.897
512.75	0.885
512.95	0.903
513.16	0.896
513.37	0.879
513.58	0.904
513.79	0.880
514.00	0.883
514.20	0.894
514.41	0.886
514.62	0.866
514.83	0.892
515.04	0.886
515.25	0.872
515.46	0.881
515.66	0.882
515.87	0.889
516.08	0.867
516.29	0.884
516.50	0.871
516.71	0.865
516.91	0.871
517.12	0.882
517.33	0.872
517.54	0.862
517.75	0.862
517.95	0.871
518.16	0.878
518.37	0.857
518.58	0.862
518.79	0.846
519.00	0.869
519.20	0.876
519.41	0.856
519.62	0.871
519.83	0.877
520.04	0.852
520.24	0.850
520.45	0.857
520.66	0.871
520.87	0.846
521.08	0.842
521.28	0.844
521.49	0.855
521.70	0.836
521.91	0.845
522.12	0.831
522.32	0.846
522.53	0.834
522.74	0.825
522.95	0.833
523.16	0.831
523.36	0.838
523.57	0.824
523.78	0.821
523.99	0.825
524.20	0.820
524.40	0.830
524.61	0.834
524.82	0.816
525.03	0.820
525.23	0.819
525.44	0.808
525.65	0.807
525.86	0.822
526.06	0.802
526.27	0.800
526.48	0.806
526.69	0.792
526.90	0.795
527.10	0.818
527.31	0.787
527.52	0.783
527.73	0.778
527.93	0.785
528.14	0.789
528.35	0.783
528.56	0.784
528.76	0.779
528.97	0.772
529.18	0.766
529.39	0.766
529.59	0.768
529.80	0.789
530.01	0.771
530.22	0.769
530.42	0.747
530.63	0.758
530.84	0.741
531.05	0.751
531.25	0.753
531.46	0.746
531.67	0.730
531.88	0.743
532.08	0.738
532.29	0.734
532.50	0.728
532.70	0.724
532.91	0.717
533.12	0.719
533.33	0.737
533.53	0.715
533.74	0.714
533.95	0.720
534.15	0.711
534.36	0.712
534.57	0.699
534.78	0.702
534.98	0.710
535.19	0.687
535.40	0.688
535.60	0.701
535.81	0.685
536.02	0.688
536.23	0.680
536.43	0.682
536.64	0.672
536.85	0.679
537.05	0.685
537.26	0.666
537.47	0.670
537.67	0.662
537.88	0.658
538.09	0.664
538.30	0.655
538.50	0.649
538.71	0.657
538.92	0.646
539.12	0.643
539.33	0.639
539.54	0.639
539.74	0.642
539.95	0.635
540.16	0.632
540.36	0.625
540.57	0.626
540.78	0.620
540.98	0.620
541.19	0.619
541.40	0.608
541.60	0.616
541.81	0.612
542.02	0.612
542.22	0.605
542.43	0.600
542.64	0.597
542.84	0.596
543.05	0.590
543.26	0.590
543.46	0.593
543.67	0.593
543.88	0.588
544.08	0.580
544.29	0.576
544.50	0.575
544.70	0.576
544.91	0.569
545.12	0.570
545.32	0.567
545.53	0.570
545.74	0.559
545.94	0.557
546.15	0.555
546.35	0.553
546.56	0.550
546.77	0.548
546.97	0.547
547.18	0.540
547.39	0.541
547.59	0.538
547.80	0.536
548.01	0.540
548.21	0.536
548.42	0.530
548.62	0.529
548.83	0.527
549.04	0.524
549.24	0.518
549.45	0.517
549.65	0.514
549.86	0.511
550.07	0.510
550.27	0.508
550.48	0.515
550.69	0.503
550.89	0.504
551.10	0.501
551.30	0.500
551.51	0.500
551.72	0.492
551.92	0.493
552.13	0.492
552.33	0.493
552.54	0.489
552.75	0.483
552.95	0.484
553.16	0.479
553.36	0.478
553.57	0.476
553.78	0.474
553.98	0.475
554.19	0.467
554.39	0.465
554.60	0.467
554.80	0.467
555.01	0.461
555.22	0.462
555.42	0.460
555.63	0.454
555.83	0.457
556.04	0.452
556.25	0.454
556.45	0.446
556.66	0.445
556.86	0.449
557.07	0.446
557.27	0.445
557.48	0.441
557.68	0.438
557.89	0.439
558.10	0.436
558.30	0.433
558.51	0.432
558.71	0.431
558.92	0.427
559.12	0.428
559.33	0.432
559.54	0.428
559.74	0.424
559.95	0.422
560.15	0.422
560.36	0.420
560.56	0.415
560.77	0.415
560.97	0.415
561.18	0.410
561.38	0.410
561.59	0.412
561.79	0.408
562.00	0.407
562.21	0.405
562.41	0.404
562.62	0.404
562.82	0.402
563.03	0.399
563.23	0.399
563.44	0.399
563.64	0.395
563.85	0.396
564.05	0.390
564.26	0.389
564.46	0.389
564.67	0.390
564.87	0.386
565.08	0.383
565.28	0.383
565.49	0.384
565.69	0.381
565.90	0.379
566.10	0.381
566.31	0.375
566.51	0.377
566.72	0.378
566.92	0.371
567.13	0.371
567.33	0.370
567.54	0.369
567.74	0.368
567.95	0.364
568.15	0.365
568.36	0.365
568.56	0.364
568.77	0.360
568.97	0.359
569.18	0.359
569.38	0.358
569.59	0.359
569.79	0.356
570.00	0.354
570.20	0.353
570.41	0.352
570.61	0.351
570.82	0.352
571.02	0.349
571.23	0.351
571.43	0.347
571.64	0.345
571.84	0.344
572.05	0.343
572.25	0.342
572.45	0.340
572.66	0.338
572.86	0.337
573.07	0.336
573.27	0.336
573.48	0.335
573.68	0.331
573.89	0.331
574.09	0.332
574.30	0.331
574.50	0.329
574.70	0.329
574.91	0.327
575.11	0.327
575.32	0.327
575.52	0.323
575.73	0.323
575.93	0.323
576.14	0.322
576.34	0.320
576.54	0.319
576.75	0.318
576.95	0.317
577.16	0.315
577.36	0.314
577.57	0.314
577.77	0.313
577.97	0.310
578.18	0.312
578.38	0.309
578.59	0.308
578.79	0.306
579.00	0.306
579.20	0.305
579.40	0.304
579.61	0.304
579.81	0.303
580.02	0.301
580.22	0.301
580.42	0.299
580.63	0.299
580.83	0.298
581.04	0.296
581.24	0.296
581.45	0.295
581.65	0.295
581.85	0.294
582.06	0.292
582.26	0.292
582.47	0.290
582.67	0.291
582.87	0.290
583.08	0.288
583.28	0.289
583.48	0.287
583.69	0.285
583.89	0.285
584.10	0.286
584.30	0.283
584.50	0.282
584.71	0.281
584.91	0.281
585.12	0.278
585.32	0.279
585.52	0.276
585.73	0.275
585.93	0.275
586.13	0.275
586.34	0.274
586.54	0.274
586.75	0.273
586.95	0.272
587.15	0.272
587.36	0.271
587.56	0.270
587.76	0.270
587.97	0.269
588.17	0.268
588.37	0.267
588.58	0.268
588.78	0.265
588.98	0.265
589.19	0.264
589.39	0.262
589.60	0.264
589.80	0.262
590.00	0.261
590.21	0.261
590.41	0.259
590.61	0.260
590.82	0.259
591.02	0.258
591.22	0.256
591.43	0.258
591.63	0.256
591.83	0.255
592.04	0.254
592.24	0.255
592.44	0.253
592.65	0.252
592.85	0.252
593.05	0.252
593.26	0.250
593.46	0.250
593.66	0.250
593.86	0.249
594.07	0.247
594.27	0.247
594.47	0.246
594.68	0.246
594.88	0.247
595.08	0.246
595.29	0.247
595.49	0.244
595.69	0.244
595.90	0.242
596.10	0.243
596.30	0.242
596.50	0.240
596.71	0.240
596.91	0.240
597.11	0.239
597.32	0.238
597.52	0.237
597.72	0.237
597.93	0.237
598.13	0.235
598.33	0.235
598.53	0.235
598.74	0.234
598.94	0.234
599.14	0.234
599.35	0.234
599.55	0.233
599.75	0.232
599.95	0.231
600.16	0.232
600.36	0.230
600.56	0.231
600.76	0.230
600.97	0.228
601.17	0.227
601.37	0.227
601.58	0.226
601.78	0.226
601.98	0.226
602.18	0.225
602.39	0.225
602.59	0.225
602.79	0.224
602.99	0.224
603.20	0.223
603.40	0.223
603.60	0.223
603.80	0.222
604.01	0.222
604.21	0.221
604.41	0.221
604.61	0.220
604.82	0.219
605.02	0.219
605.22	0.218
605.42	0.218
605.62	0.218
605.83	0.217
606.03	0.216
606.23	0.216
606.43	0.216
606.64	0.216
606.84	0.215
607.04	0.215
607.24	0.215
607.45	0.215
607.65	0.214
607.85	0.215
608.05	0.213
608.25	0.212
608.46	0.212
608.66	0.212
608.86	0.212
609.06	0.211
609.26	0.210
609.47	0.210
609.67	0.209
609.87	0.210
610.07	0.209
610.28	0.208
610.48	0.208
610.68	0.208
610.88	0.207
611.08	0.207
611.29	0.206
611.49	0.205
611.69	0.206
611.89	0.203
612.09	0.203
612.29	0.203
612.50	0.203
612.70	0.203
612.90	0.202
613.10	0.202
613.30	0.202
613.51	0.202
613.71	0.201
613.91	0.206
614.11	0.201
614.31	0.201
614.51	0.200
614.72	0.199
614.92	0.199
615.12	0.199
615.32	0.199
615.52	0.198
615.72	0.198
615.93	0.199
616.13	0.198
616.33	0.199
616.53	0.198
616.73	0.199
616.93	0.197
617.14	0.198
617.34	0.197
617.54	0.198
617.74	0.198
617.94	0.196
618.14	0.196
618.34	0.195
618.55	0.194
618.75	0.195
618.95	0.194
619.15	0.194
619.35	0.193
619.55	0.192
619.75	0.193
619.96	0.192
620.16	0.192
620.36	0.192
620.56	0.191
620.76	0.191
620.96	0.190
621.16	0.190
621.36	0.190
621.57	0.190
621.77	0.191
621.97	0.190
622.17	0.190
622.37	0.190
622.57	0.190
622.77	0.190
622.97	0.188
623.18	0.189
623.38	0.189
623.58	0.188
623.78	0.188
623.98	0.188
624.18	0.187
624.38	0.186
624.58	0.186
624.78	0.187
624.98	0.186
625.19	0.186
625.39	0.186
625.59	0.185
625.79	0.186
625.99	0.185
626.19	0.185
626.39	0.185
626.59	0.185
626.79	0.184
626.99	0.184
627.19	0.184
627.40	0.184
627.60	0.183
627.80	0.183
628.00	0.183
628.20	0.182
628.40	0.181
628.60	0.181
628.80	0.180
629.00	0.180
629.20	0.179
629.40	0.180
629.60	0.179
629.80	0.179
630.00	0.179
630.20	0.179
630.41	0.178
630.61	0.178
630.81	0.178
631.01	0.178
631.21	0.177
631.41	0.178
631.61	0.178
631.81	0.177
632.01	0.177
632.21	0.177
632.41	0.176
632.61	0.175
632.81	0.175
633.01	0.176
633.21	0.176
633.41	0.176
633.61	0.174
633.81	0.174
634.01	0.173
634.21	0.174
634.41	0.173
634.61	0.174
634.81	0.173
635.01	0.173
635.22	0.173
635.42	0.172
635.62	0.172
635.82	0.173
636.02	0.172
636.22	0.172
636.42	0.171
636.62	0.172
636.82	0.172
637.02	0.171
637.22	0.172
637.42	0.171
637.62	0.170
637.82	0.170
638.02	0.170
638.22	0.170
638.42	0.169
638.62	0.169
638.82	0.169
639.02	0.168
639.22	0.168
639.42	0.167
639.62	0.167
639.82	0.166
640.02	0.167
640.22	0.166
640.42	0.166
640.62	0.166
640.82	0.166
641.02	0.165
641.22	0.166
641.42	0.165
641.61	0.165
641.81	0.166
642.01	0.166
642.21	0.166
642.41	0.166
642.61	0.165
642.81	0.164
643.01	0.164
643.21	0.165
643.41	0.165
643.61	0.164
643.81	0.164
644.01	0.162
644.21	0.162
644.41	0.162
644.61	0.161
644.81	0.161
645.01	0.161
645.21	0.161
645.41	0.160
645.61	0.160
645.81	0.160
646.01	0.159
646.21	0.160
646.40	0.159
646.60	0.159
646.80	0.160
647.00	0.159
647.20	0.159
647.40	0.158
647.60	0.158
647.80	0.158
648.00	0.158
648.20	0.158
648.40	0.158
648.60	0.157
648.80	0.157
649.00	0.156
649.20	0.157
649.39	0.156
649.59	0.155
649.79	0.155
649.99	0.155
650.19	0.155
650.39	0.155
650.59	0.155
650.79	0.155
650.99	0.155
651.19	0.154
651.39	0.154
651.58	0.154
651.78	0.154
651.98	0.154
652.18	0.154
652.38	0.153
652.58	0.153
652.78	0.152
652.98	0.152
653.18	0.152
653.38	0.152
653.57	0.151
653.77	0.152
653.97	0.151
654.17	0.151
654.37	0.150
654.57	0.150
654.77	0.150
654.97	0.150
655.16	0.150
655.36	0.149
655.56	0.149
655.76	0.148
655.96	0.149
656.16	0.148
656.36	0.148
656.56	0.147
656.75	0.148
656.95	0.147
657.15	0.147
657.35	0.147
657.55	0.146
657.75	0.147
657.95	0.147
658.14	0.146
658.34	0.146
658.54	0.146
658.74	0.146
658.94	0.146
659.14	0.146
659.34	0.146
659.53	0.145
659.73	0.145
659.93	0.144
660.13	0.144
660.33	0.144
660.53	0.144
660.72	0.144
660.92	0.144
661.12	0.143
661.32	0.143
661.52	0.143
661.72	0.142
661.91	0.142
662.11	0.142
662.31	0.142
662.51	0.142
662.71	0.141
662.90	0.140
663.10	0.140
663.30	0.140
663.50	0.140
663.70	0.139
663.90	0.139
664.09	0.139
664.29	0.138
664.49	0.138
664.69	0.138
664.89	0.137
665.08	0.138
665.28	0.137
665.48	0.136
665.68	0.136
665.88	0.136
666.07	0.136
666.27	0.136
666.47	0.136
666.67	0.136
666.87	0.136
667.06	0.136
667.26	0.135
667.46	0.135
667.66	0.136
667.85	0.135
668.05	0.136
668.25	0.135
668.45	0.135
668.65	0.135
668.84	0.135
669.04	0.135
669.24	0.134
669.44	0.133
669.63	0.133
669.83	0.133
670.03	0.132
670.23	0.132
670.42	0.131
670.62	0.131
670.82	0.131
671.02	0.130
671.22	0.130
671.41	0.129
671.61	0.130
671.81	0.130
672.01	0.130
672.20	0.130
672.40	0.130
672.60	0.129
672.80	0.130
672.99	0.130
673.19	0.129
673.39	0.129
673.58	0.129
673.78	0.129
673.98	0.128
674.18	0.128
674.37	0.127
674.57	0.127
674.77	0.127
674.97	0.127
675.16	0.127
675.36	0.126
675.56	0.126
675.75	0.125
675.95	0.125
676.15	0.125
676.35	0.125
676.54	0.125
676.74	0.125
676.94	0.125
677.13	0.124
677.33	0.123
677.53	0.123
677.73	0.123
677.92	0.123
678.12	0.123
678.32	0.123
678.51	0.122
678.71	0.122
678.91	0.122
679.11	0.122
679.30	0.122
679.50	0.122
679.70	0.122
679.89	0.122
680.09	0.122
680.29	0.121
680.48	0.121
680.68	0.120
680.88	0.121
681.07	0.121
681.27	0.120
681.47	0.120
681.66	0.120
681.86	0.120
682.06	0.119
682.25	0.119
682.45	0.119
682.65	0.119
682.84	0.118
683.04	0.118
683.24	0.118
683.43	0.119
683.63	0.118
683.83	0.118
684.02	0.118
684.22	0.117
684.42	0.117
684.61	0.117
684.81	0.117
685.01	0.117
685.20	0.116
685.40	0.116
685.60	0.116
685.79	0.116
685.99	0.116
686.19	0.115
686.38	0.115
686.58	0.116
686.77	0.115
686.97	0.115
687.17	0.115
687.36	0.115
687.56	0.114
687.76	0.114
687.95	0.114
688.15	0.114
688.34	0.114
688.54	0.113
688.74	0.113
688.93	0.112
689.13	0.112
689.33	0.112
689.52	0.112
689.72	0.112
689.91	0.112
690.11	0.111
690.31	0.111
690.50	0.111
690.70	0.112
690.89	0.111
691.09	0.111
691.29	0.111
691.48	0.111
691.68	0.110
691.87	0.110
692.07	0.110
692.27	0.110
692.46	0.110
692.66	0.109
692.85	0.109
693.05	0.109
693.25	0.109
693.44	0.109
693.64	0.108
693.83	0.109
694.03	0.108
694.22	0.108
694.42	0.108
694.62	0.108
694.81	0.108
695.01	0.108
695.20	0.108
695.40	0.107
695.59	0.107
695.79	0.107
695.99	0.107
696.18	0.107
696.38	0.107
696.57	0.106
696.77	0.106
696.96	0.106
697.16	0.106
697.36	0.106
697.55	0.105
697.75	0.105
697.94	0.105
698.14	0.105
698.33	0.105
698.53	0.105
698.72	0.105
698.92	0.105
699.11	0.105
699.31	0.104
699.51	0.105
699.70	0.104
699.90	0.104
700.09	0.104
700.29	0.104
700.48	0.104
700.68	0.104
700.87	0.104
701.07	0.103
701.26	0.103
701.46	0.102
701.65	0.103
701.85	0.102
702.04	0.102
702.24	0.102
702.43	0.102
702.63	0.102
702.82	0.101
703.02	0.101
703.21	0.102
703.41	0.101
703.60	0.101
703.80	0.101
703.99	0.100
704.19	0.101
704.38	0.100
704.58	0.100
704.77	0.100
704.97	0.100
705.16	0.100
705.36	0.100
705.55	0.100
705.75	0.100
705.94	0.100
706.14	0.100
706.33	0.100
706.53	0.100
706.72	0.100
706.92	0.099
707.11	0.099
707.31	0.099
707.50	0.099
707.70	0.099
707.89	0.099
708.09	0.098
708.28	0.098
708.48	0.098
708.67	0.097
708.86	0.097
709.06	0.097
709.25	0.097
709.45	0.097
709.64	0.097
709.84	0.097
710.03	0.096
710.23	0.097
710.42	0.096
710.62	0.096
710.81	0.096
711.00	0.096
711.20	0.096
711.39	0.096
711.59	0.096
711.78	0.096
711.98	0.096
712.17	0.096
712.37	0.096
712.56	0.096
712.75	0.096
712.95	0.096
713.14	0.096
713.34	0.096
713.53	0.096
713.73	0.096
713.92	0.096
714.11	0.096
714.31	0.096
714.50	0.096
714.70	0.096
714.89	0.096
715.08	0.096
715.28	0.096
715.47	0.095
715.67	0.096
715.86	0.095
716.06	0.096
716.25	0.095
716.44	0.095
716.64	0.095
716.83	0.094
717.03	0.094
717.22	0.093
717.41	0.093
717.61	0.093
717.80	0.094
717.99	0.094
718.19	0.093
718.38	0.093
718.58	0.092
718.77	0.093
718.96	0.093
719.16	0.093
719.35	0.093
719.55	0.093
719.74	0.093
719.93	0.093
720.13	0.093
720.32	0.093
720.51	0.093
720.71	0.093
720.90	0.093
721.10	0.093
721.29	0.093
721.48	0.092
721.68	0.092
721.87	0.092
722.06	0.092
722.26	0.093
722.45	0.092
722.64	0.092
722.84	0.092
723.03	0.093
723.22	0.093
723.42	0.093
723.61	0.093
723.80	0.093
724.00	0.093
724.19	0.093
724.38	0.092
724.58	0.092
724.77	0.092
724.96	0.092
725.16	0.092
725.35	0.092
725.54	0.092
725.74	0.092
725.93	0.092
726.12	0.092
726.32	0.092
726.51	0.093
726.70	0.093
726.90	0.093
727.09	0.092
727.28	0.092
727.48	0.092
727.67	0.092
727.86	0.092
728.06	0.092
728.25	0.092
728.44	0.092
728.64	0.092
728.83	0.092
729.02	0.091
729.21	0.092
729.41	0.092
729.60	0.092
729.79	0.091
729.99	0.092
730.18	0.092
730.37	0.091
730.56	0.091
730.76	0.091
730.95	0.091
731.14	0.091
731.34	0.091
731.53	0.091
731.72	0.091
731.91	0.091
732.11	0.091
732.30	0.091
732.49	0.091
732.69	0.091
732.88	0.091
733.07	0.092
733.26	0.092
733.46	0.091
733.65	0.091
733.84	0.091
734.03	0.091
734.23	0.091
734.42	0.091
734.61	0.091
734.80	0.091
735.00	0.091
735.19	0.091
735.38	0.091
735.57	0.091
735.77	0.092
735.96	0.091
736.15	0.091
736.34	0.091
736.54	0.091
736.73	0.091
736.92	0.091
737.11	0.091
737.31	0.091
737.50	0.091
737.69	0.091
737.88	0.091
738.07	0.091
738.27	0.091
738.46	0.091
738.65	0.091
738.84	0.091
739.04	0.091
739.23	0.091
739.42	0.091
739.61	0.091
739.80	0.090
740.00	0.090
740.19	0.090
740.38	0.090
740.57	0.090
740.76	0.090
740.96	0.090
741.15	0.089
741.34	0.089
741.53	0.090
741.72	0.090
741.92	0.089
742.11	0.090
742.30	0.090
742.49	0.090
742.68	0.090
742.88	0.090
743.07	0.090
743.26	0.090
743.45	0.090
743.64	0.090
743.84	0.090
744.03	0.090
744.22	0.090
744.41	0.089
744.60	0.089
744.79	0.089
744.99	0.089
745.18	0.089
745.37	0.089
745.56	0.089
745.75	0.089
745.94	0.088
746.14	0.088
746.33	0.088
746.52	0.088
746.71	0.088
746.90	0.088
747.09	0.088
747.28	0.088
747.48	0.088
747.67	0.088
747.86	0.087
748.05	0.088
748.24	0.087
748.43	0.087
748.62	0.087
748.82	0.087
749.01	0.087
749.20	0.087
749.39	0.087
749.58	0.087
749.77	0.087
749.96	0.087
750.16	0.087
750.35	0.086
750.54	0.086
750.73	0.086
750.92	0.086
751.11	0.086
751.30	0.086
751.49	0.086
751.68	0.086
751.88	0.086
752.07	0.086
752.26	0.086
752.45	0.086
752.64	0.086
752.83	0.086
753.02	0.086
753.21	0.086
753.40	0.086
753.60	0.086
753.79	0.085
753.98	0.085
754.17	0.085
754.36	0.085
754.55	0.085
754.74	0.085
754.93	0.085
755.12	0.085
755.31	0.085
755.50	0.085
755.70	0.084
755.89	0.084
756.08	0.084
756.27	0.084
756.46	0.084
756.65	0.084
756.84	0.084
757.03	0.084
757.22	0.083
757.41	0.083
757.60	0.083
757.79	0.084
757.98	0.084
758.17	0.084
758.36	0.084
758.56	0.083
758.75	0.084
758.94	0.084
759.13	0.084
759.32	0.084
759.51	0.084
759.70	0.084
759.89	0.083
760.08	0.083
760.27	0.083
760.46	0.083
760.65	0.083
760.84	0.083
761.03	0.083
761.22	0.083
761.41	0.083
761.60	0.083
761.79	0.083
761.98	0.083
762.17	0.083
762.36	0.082
762.55	0.082
762.74	0.082
762.93	0.082
763.12	0.082
763.31	0.082
763.50	0.082
763.69	0.082
763.88	0.082
764.07	0.082
764.26	0.083
764.45	0.083
764.64	0.083
764.83	0.083
765.02	0.083
765.21	0.083
765.40	0.083
765.59	0.083
765.78	0.083
765.97	0.083
766.16	0.083
766.35	0.082
766.54	0.082
766.73	0.082
766.92	0.081
767.11	0.081
767.30	0.081
767.49	0.081
767.68	0.081
767.87	0.081
768.06	0.081
768.25	0.080
768.44	0.081
768.63	0.081
768.82	0.081
769.01	0.081
769.20	0.081
769.39	0.081
769.58	0.080
769.77	0.081
769.96	0.081
770.15	0.081
770.34	0.081
770.53	0.080
770.72	0.080
770.91	0.080
771.10	0.080
771.29	0.080
771.47	0.080
771.66	0.080
771.85	0.080
772.04	0.080
772.23	0.080
772.42	0.080
772.61	0.080
772.80	0.080
772.99	0.080
773.18	0.079
773.37	0.080
773.56	0.080
773.75	0.080
773.94	0.080
774.13	0.080
774.31	0.080
774.50	0.080
774.69	0.080
774.88	0.080
775.07	0.080
775.26	0.080
775.45	0.079
775.64	0.080
775.83	0.079
776.02	0.079
776.21	0.079
776.40	0.079
776.58	0.079
776.77	0.079
776.96	0.079
777.15	0.079
777.34	0.079
777.53	0.079
777.72	0.079
777.91	0.079
778.10	0.079
778.28	0.079
778.47	0.079
778.66	0.079
778.85	0.078
779.04	0.078
779.23	0.078
779.42	0.078
779.61	0.077
779.79	0.077
779.98	0.077
780.17	0.077
780.36	0.077
780.55	0.077
780.74	0.077
780.93	0.077
781.12	0.077
781.30	0.077
781.49	0.077
781.68	0.077
781.87	0.078
782.06	0.078
782.25	0.077
782.44	0.078
782.62	0.077
782.81	0.078
783.00	0.078
783.19	0.078
783.38	0.078
783.57	0.078
783.75	0.077
783.94	0.077
784.13	0.077
784.32	0.077
784.51	0.077
784.70	0.077
784.88	0.077
785.07	0.076
785.26	0.076
785.45	0.076
785.64	0.076
785.83	0.076
786.01	0.076
786.20	0.076
786.39	0.076
786.58	0.076
786.77	0.075
786.95	0.075
787.14	0.076
787.33	0.076
787.52	0.075
787.71	0.076
787.90	0.075
788.08	0.076
788.27	0.075
788.46	0.075
788.65	0.075
788.84	0.075
789.02	0.075
789.21	0.075
789.40	0.075
789.59	0.075
789.77	0.076
789.96	0.075
790.15	0.075
790.34	0.075
790.53	0.075
790.71	0.075
790.90	0.075
791.09	0.075
791.28	0.075
791.46	0.075
791.65	0.075
791.84	0.075
792.03	0.075
792.22	0.075
792.40	0.075
792.59	0.075
792.78	0.075
792.97	0.075
793.15	0.075
793.34	0.075
793.53	0.075
793.72	0.075
793.90	0.075
794.09	0.075
794.28	0.075
794.47	0.075
794.65	0.075
794.84	0.075
795.03	0.075
795.22	0.075
795.40	0.074
795.59	0.074
795.78	0.074
795.97	0.074
796.15	0.074
796.34	0.074
796.53	0.074
796.71	0.075
796.90	0.075
797.09	0.075
797.28	0.075
797.46	0.075
797.65	0.075
797.84	0.075
798.02	0.075
798.21	0.075
798.40	0.074
798.59	0.074
798.77	0.074
798.96	0.073
799.15	0.073
799.33	0.073
799.52	0.073
799.71	0.073
799.90	0.073
800.08	0.073
800.27	0.073
800.46	0.073
800.64	0.073
800.83	0.073
801.02	0.073
801.20	0.073
801.39	0.073
801.58	0.073
801.76	0.073
801.95	0.073
802.14	0.073
802.32	0.073
802.51	0.073
802.70	0.073
802.88	0.073
803.07	0.073
803.26	0.072
803.44	0.072
803.63	0.072
803.82	0.072
804.00	0.072
804.19	0.073
804.38	0.073
804.56	0.072
804.75	0.072
804.94	0.072
805.12	0.072
805.31	0.073
805.50	0.073
805.68	0.073
805.87	0.073
806.06	0.073
806.24	0.073
806.43	0.073
806.62	0.073
806.80	0.073
806.99	0.073
807.17	0.073
807.36	0.073
807.55	0.073
807.73	0.073
807.92	0.073
808.11	0.073
808.29	0.072
808.48	0.072
808.66	0.072
808.85	0.072
809.04	0.072
809.22	0.071
809.41	0.072
809.59	0.071
809.78	0.071
809.97	0.071
810.15	0.071
810.34	0.071
810.53	0.071
810.71	0.071
810.90	0.071
811.08	0.071
811.27	0.071
811.45	0.071
811.64	0.071
811.83	0.071
812.01	0.071
812.20	0.071
812.38	0.071
812.57	0.072
812.76	0.072
812.94	0.072
813.13	0.071
813.31	0.072
813.50	0.072
813.68	0.072
813.87	0.072
814.06	0.072
814.24	0.071
814.43	0.071
814.61	0.071
814.80	0.071
814.98	0.072
815.17	0.071
815.36	0.071
815.54	0.072
815.73	0.072
815.91	0.071
816.10	0.071
816.28	0.072
816.47	0.071
816.65	0.071
816.84	0.072
817.03	0.072
817.21	0.072
817.40	0.072
817.58	0.071
817.77	0.071
817.95	0.071
818.14	0.071
818.32	0.071
818.51	0.071
818.69	0.071
818.88	0.072
819.06	0.071
819.25	0.071
819.43	0.071
819.62	0.072
819.80	0.071
819.99	0.072
820.18	0.072
820.36	0.072
820.55	0.072
820.73	0.072
820.92	0.071
821.10	0.071
821.29	0.071
821.47	0.071
821.66	0.071
821.84	0.071
822.03	0.071
822.21	0.071
822.40	0.071
822.58	0.072
822.77	0.071
822.95	0.072
823.14	0.072
823.32	0.072
823.50	0.073
823.69	0.073
823.87	0.073
824.06	0.073
824.24	0.073
824.43	0.073
824.61	0.073
824.80	0.074
824.98	0.074
825.17	0.074
825.35	0.074
825.54	0.074
825.72	0.074
825.91	0.074
826.09	0.074
826.28	0.074
826.46	0.074
826.64	0.074
826.83	0.074
827.01	0.074
827.20	0.074
827.38	0.074
827.57	0.074
827.75	0.074
827.94	0.074
828.12	0.074
828.31	0.074
828.49	0.074
828.67	0.074
828.86	0.074
829.04	0.074
829.23	0.074
829.41	0.075
829.60	0.075
829.78	0.075
829.96	0.076
830.15	0.076
830.33	0.076
830.52	0.076
830.70	0.076
830.88	0.076
831.07	0.077
831.25	0.077
831.44	0.076
831.62	0.076
831.81	0.077
831.99	0.076
832.17	0.077
832.36	0.077
832.54	0.077
832.73	0.077
832.91	0.077
833.09	0.076
833.28	0.077
833.46	0.077
833.65	0.077
833.83	0.077
834.01	0.078
834.20	0.078
834.38	0.077
834.56	0.078
834.75	0.078
834.93	0.078
835.12	0.078
835.30	0.078
835.48	0.078
835.67	0.078
835.85	0.078
836.03	0.078
836.22	0.078
836.40	0.078
836.59	0.078
836.77	0.078
836.95	0.078
837.14	0.078
837.32	0.078
837.50	0.078
837.69	0.078
837.87	0.078
838.05	0.078
838.24	0.078
838.42	0.079
838.60	0.079
838.79	0.079
838.97	0.079
839.15	0.079
839.34	0.079
839.52	0.080
839.70	0.080
839.89	0.080
840.07	0.080
840.25	0.080
840.44	0.079
840.62	0.079
840.80	0.079
840.99	0.079
841.17	0.079
841.35	0.079
841.54	0.079
841.72	0.079
841.90	0.079
842.09	0.079
842.27	0.078
842.45	0.079
842.64	0.079
842.82	0.079
843.00	0.079
843.19	0.079
843.37	0.078
843.55	0.079
843.73	0.078
843.92	0.078
844.10	0.078
844.28	0.079
844.47	0.079
844.65	0.079
844.83	0.079
845.01	0.079
845.20	0.079
845.38	0.080
845.56	0.079
845.75	0.079
845.93	0.079
846.11	0.079
846.29	0.080
846.48	0.080
846.66	0.080
846.84	0.079
847.02	0.079
847.21	0.079
847.39	0.079
847.57	0.079
847.76	0.079
847.94	0.079
848.12	0.079
848.30	0.079
848.49	0.079
848.67	0.079
848.85	0.080
849.03	0.080
849.22	0.080
849.40	0.080
849.58	0.080
849.76	0.081
849.95	0.080
850.13	0.081
850.31	0.081
850.49	0.081
850.67	0.081
850.86	0.081
851.04	0.081
851.22	0.081
851.40	0.081
851.59	0.081
851.77	0.081
851.95	0.081
852.13	0.081
852.31	0.081
852.50	0.081
852.68	0.081
852.86	0.081
853.04	0.081
853.23	0.081
853.41	0.080
853.59	0.080
853.77	0.080
853.95	0.081
854.14	0.080
854.32	0.080
854.50	0.080
854.68	0.080
854.86	0.080
855.04	0.080
855.23	0.080
855.41	0.081
855.59	0.081
855.77	0.081
855.95	0.081
856.14	0.081
856.32	0.081
856.50	0.081
856.68	0.081
856.86	0.081
857.04	0.081
857.23	0.081
857.41	0.080
857.59	0.081
857.77	0.081
857.95	0.081
858.13	0.081
858.32	0.081
858.50	0.082
858.68	0.081
858.86	0.081
859.04	0.081
859.22	0.081
859.41	0.081
859.59	0.081
859.77	0.080
859.95	0.080
860.13	0.081
860.31	0.081
860.49	0.080
860.68	0.081
860.86	0.081
861.04	0.081
861.22	0.081
861.40	0.081
861.58	0.081
861.76	0.081
861.94	0.081
862.13	0.081
862.31	0.081
862.49	0.081
862.67	0.081
862.85	0.081
863.03	0.081
863.21	0.082
863.39	0.082
863.57	0.082
863.76	0.082
863.94	0.082
864.12	0.082
864.30	0.082
864.48	0.082
864.66	0.082
864.84	0.082
865.02	0.082
865.20	0.082
865.38	0.082
865.57	0.082
865.75	0.082
865.93	0.083
866.11	0.082
866.29	0.083
866.47	0.083
866.65	0.083
866.83	0.083
867.01	0.082
867.19	0.082
867.37	0.082
867.55	0.082
867.73	0.083
867.92	0.082
868.10	0.083
868.28	0.083
868.46	0.083
868.64	0.082
868.82	0.083
869.00	0.083
869.18	0.083
869.36	0.083
869.54	0.083
869.72	0.083
869.90	0.083
870.08	0.083
870.26	0.083
870.44	0.083
870.62	0.083
870.80	0.083
870.98	0.083
871.16	0.083
871.34	0.082
871.53	0.082
871.71	0.082
871.89	0.082
872.07	0.083
872.25	0.082
872.43	0.082
872.61	0.083
872.79	0.083
872.97	0.083
873.15	0.083
873.33	0.084
873.51	0.084
873.69	0.084
873.87	0.084
874.05	0.084
874.23	0.084
874.41	0.084
874.59	0.085
874.77	0.084
874.95	0.084
875.13	0.084
875.31	0.083
875.49	0.084
875.67	0.084
875.85	0.083
876.03	0.084
876.21	0.084
876.39	0.084
876.57	0.084
876.75	0.085
876.93	0.084
877.11	0.085
877.29	0.084
877.47	0.085
877.65	0.085
877.82	0.085
878.00	0.085
878.18	0.085
878.36	0.085
878.54	0.085
878.72	0.084
878.90	0.084
879.08	0.085
879.26	0.085
879.44	0.085
879.62	0.085
879.80	0.085
879.98	0.085
880.16	0.084
880.34	0.084
880.52	0.085
880.70	0.085
880.88	0.085
881.06	0.084
881.24	0.084
881.42	0.084
881.59	0.084
881.77	0.084
881.95	0.084
882.13	0.084
882.31	0.084
882.49	0.084
882.67	0.085
882.85	0.085
883.03	0.085
883.21	0.085
883.39	0.085
883.57	0.085
883.75	0.085
883.92	0.085
884.10	0.086
884.28	0.086
884.46	0.085
884.64	0.085
884.82	0.085
885.00	0.085
885.18	0.086
885.36	0.085
885.54	0.085
885.71	0.086
885.89	0.086
886.07	0.086
886.25	0.086
886.43	0.086
886.61	0.086
886.79	0.086
886.97	0.086
887.15	0.086
887.32	0.086
887.50	0.087
887.68	0.086
887.86	0.087
888.04	0.087
888.22	0.087
888.40	0.086
888.57	0.087
888.75	0.087
888.93	0.087
889.11	0.086
889.29	0.087
889.47	0.087
889.65	0.087
889.82	0.087
890.00	0.087
890.18	0.087
890.36	0.087
890.54	0.087
890.72	0.087
890.90	0.087
891.07	0.087
891.25	0.087
891.43	0.087
891.61	0.087
891.79	0.087
891.97	0.087
892.14	0.087
892.32	0.087
892.50	0.087
892.68	0.087
892.86	0.088
893.03	0.087
893.21	0.088
893.39	0.088
893.57	0.088
893.75	0.088
893.93	0.088
894.10	0.088
894.28	0.088
894.46	0.088
894.64	0.088
894.82	0.088
894.99	0.088
895.17	0.088
895.35	0.088
895.53	0.088
895.71	0.088
895.88	0.088
896.06	0.088
896.24	0.089
896.42	0.089
896.59	0.089
896.77	0.088
896.95	0.088
897.13	0.089
897.31	0.089
897.48	0.089
897.66	0.089
897.84	0.089
898.02	0.089
898.19	0.089
898.37	0.089
898.55	0.089
898.73	0.089
898.91	0.089
899.08	0.089
899.26	0.090
899.44	0.090
899.62	0.090
899.79	0.090
899.97	0.091
900.15	0.090
900.33	0.090
900.50	0.090
900.68	0.090
900.86	0.090
901.04	0.090
901.21	0.090
901.39	0.089
901.57	0.089
901.74	0.089
901.92	0.089
902.10	0.090
902.28	0.089
902.45	0.090
902.63	0.090
902.81	0.090
902.99	0.090
903.16	0.090
903.34	0.090
903.52	0.090
903.69	0.090
903.87	0.090
904.05	0.090
904.22	0.090
904.40	0.091
904.58	0.091
904.76	0.091
904.93	0.091
905.11	0.091
905.29	0.091
905.46	0.091
905.64	0.092
905.82	0.092
905.99	0.092
906.17	0.092
906.35	0.092
906.53	0.092
906.70	0.092
906.88	0.092
907.06	0.092
907.23	0.092
907.41	0.092
907.59	0.092
907.76	0.092
907.94	0.092
908.12	0.092
908.29	0.092
908.47	0.092
908.65	0.092
908.82	0.092
909.00	0.092
909.18	0.093
909.35	0.092
909.53	0.093
909.71	0.092
909.88	0.092
910.06	0.092
910.23	0.092
910.41	0.093
910.59	0.092
910.76	0.092
910.94	0.092
911.12	0.093
911.29	0.093
911.47	0.093
911.65	0.094
911.82	0.094
912.00	0.094
912.17	0.094
912.35	0.095
912.53	0.095
912.70	0.095
912.88	0.095
913.06	0.095
913.23	0.095
913.41	0.095
913.58	0.095
913.76	0.095
913.94	0.095
914.11	0.096
914.29	0.096
914.46	0.096
914.64	0.096
914.82	0.096
914.99	0.096
915.17	0.096
915.34	0.096
915.52	0.096
915.70	0.096
915.87	0.096
916.05	0.096
916.22	0.096
916.40	0.096
916.57	0.097
916.75	0.097
916.93	0.097
917.10	0.097
917.28	0.097
917.45	0.096
917.63	0.096
917.80	0.096
917.98	0.096
918.16	0.097
918.33	0.098
918.51	0.098
918.68	0.098
918.86	0.098
919.03	0.098
919.21	0.098
919.39	0.099
919.56	0.099
919.74	0.100
919.91	0.100
920.09	0.100
920.26	0.099
920.44	0.100
920.61	0.100
920.79	0.100
920.96	0.100
921.14	0.100
921.31	0.100
921.49	0.101
921.67	0.101
921.84	0.101
922.02	0.102
922.19	0.102
922.37	0.102
922.54	0.102
922.72	0.102
922.89	0.103
923.07	0.103
923.24	0.104
923.42	0.104
923.59	0.104
923.77	0.104
923.94	0.104
924.12	0.105
924.29	0.106
924.47	0.106
924.64	0.106
924.82	0.106
924.99	0.106
925.17	0.107
925.34	0.107
925.52	0.107
925.69	0.107
925.87	0.108
926.04	0.108
926.22	0.108
926.39	0.108
926.57	0.108
926.74	0.108
926.91	0.109
927.09	0.109
927.26	0.109
927.44	0.109
927.61	0.110
927.79	0.110
927.96	0.111
928.14	0.111
928.31	0.111
928.49	0.111
928.66	0.112
928.84	0.113
929.01	0.113
929.18	0.114
929.36	0.114
929.53	0.114
929.71	0.115
929.88	0.115
930.06	0.115
930.23	0.116
930.41	0.116
930.58	0.117
930.75	0.117
930.93	0.117
931.10	0.117
931.28	0.118
931.45	0.118
931.63	0.119
931.80	0.119
931.97	0.119
932.15	0.120
932.32	0.120
932.50	0.121
932.67	0.121
932.84	0.122
933.02	0.123
933.19	0.123
933.37	0.124
933.54	0.125
933.71	0.125
933.89	0.126
934.06	0.126
934.24	0.127
934.41	0.127
934.58	0.128
934.76	0.128
934.93	0.129
935.11	0.128
935.28	0.129
935.45	0.129
935.63	0.130
935.80	0.130
935.98	0.131
936.15	0.131
936.32	0.131
936.50	0.131
936.67	0.132
936.84	0.132
937.02	0.133
937.19	0.134
937.36	0.135
937.54	0.135
937.71	0.136
937.89	0.136
938.06	0.136
938.23	0.137
938.41	0.138
938.58	0.138
938.75	0.138
938.93	0.139
939.10	0.139
939.27	0.139
939.45	0.140
939.62	0.140
939.79	0.141
939.97	0.141
940.14	0.141
940.31	0.142
940.49	0.143
940.66	0.143
940.83	0.144
941.01	0.144
941.18	0.145
941.35	0.146
941.53	0.147
941.70	0.148
941.87	0.148
942.05	0.149
942.22	0.150
942.39	0.151
942.57	0.152
942.74	0.153
942.91	0.153
943.08	0.153
943.26	0.154
943.43	0.155
943.60	0.155
943.78	0.156
943.95	0.157
944.12	0.157
944.29	0.158
944.47	0.158
944.64	0.159
944.81	0.160
944.99	0.161
945.16	0.162
945.33	0.162
945.50	0.163
945.68	0.163
945.85	0.164
946.02	0.166
946.20	0.167
946.37	0.168
946.54	0.168
946.71	0.169
946.89	0.169
947.06	0.171
947.23	0.172
947.40	0.173
947.58	0.173
947.75	0.174
947.92	0.174
948.09	0.175
948.27	0.176
948.44	0.177
948.61	0.178
948.78	0.179
948.96	0.181
949.13	0.181
949.30	0.182
949.47	0.183
949.65	0.185
949.82	0.187
949.99	0.187
950.16	0.189
950.33	0.189
950.51	0.190
950.68	0.192
950.85	0.193
951.02	0.194
951.20	0.195
951.37	0.197
951.54	0.197
951.71	0.198
951.88	0.199
952.06	0.200
952.23	0.201
952.40	0.203
952.57	0.204
952.74	0.205
952.92	0.206
953.09	0.207
953.26	0.209
953.43	0.210
953.60	0.212
953.77	0.213
953.95	0.213
954.12	0.215
954.29	0.216
954.46	0.218
954.63	0.219
954.81	0.221
954.98	0.221
955.15	0.223
955.32	0.224
955.49	0.224
955.66	0.226
955.84	0.227
956.01	0.227
956.18	0.229
956.35	0.231
956.52	0.231
956.69	0.233
956.87	0.233
957.04	0.234
957.21	0.236
957.38	0.236
957.55	0.238
957.72	0.239
957.89	0.239
958.07	0.239
958.24	0.242
958.41	0.243
958.58	0.243
958.75	0.244
958.92	0.245
959.09	0.246
959.26	0.246
959.44	0.247
959.61	0.248
959.78	0.249
959.95	0.251
960.12	0.251
960.29	0.253
960.46	0.252
960.63	0.252
960.81	0.253
960.98	0.254
961.15	0.254
961.32	0.255
961.49	0.254
961.66	0.255
961.83	0.255
962.00	0.255
962.17	0.256
962.34	0.256
962.52	0.257
962.69	0.258
962.86	0.257
963.03	0.258
963.20	0.259
963.37	0.258
963.54	0.259
963.71	0.259
963.88	0.259
964.05	0.260
964.22	0.261
964.39	0.260
964.56	0.260
964.74	0.261
964.91	0.261
965.08	0.261
965.25	0.262
965.42	0.262
965.59	0.262
965.76	0.262
965.93	0.264
966.10	0.262
966.27	0.263
966.44	0.263
966.61	0.264
966.78	0.263
966.95	0.263
967.12	0.264
967.29	0.265
967.46	0.265
967.63	0.264
967.80	0.264
967.97	0.264
968.14	0.263
968.32	0.264
968.49	0.264
968.66	0.263
968.83	0.264
969.00	0.264
969.17	0.264
969.34	0.265
969.51	0.266
969.68	0.265
969.85	0.266
970.02	0.266
970.19	0.266
970.36	0.267
970.53	0.267
970.70	0.266
970.87	0.266
971.04	0.266
971.21	0.266
971.38	0.267
971.55	0.267
971.72	0.266
971.89	0.267
972.06	0.266
972.23	0.266
972.40	0.266
972.57	0.265
972.74	0.265
972.91	0.266
973.07	0.265
973.24	0.265
973.41	0.265
973.58	0.264
973.75	0.276
973.92	0.264
974.09	0.264
974.26	0.264
974.43	0.263
974.60	0.264
974.77	0.264
974.94	0.263
975.11	0.265
975.28	0.265
975.45	0.264
975.62	0.265
975.79	0.267
975.96	0.265
976.13	0.264
976.30	0.266
976.47	0.265
976.64	0.266
976.80	0.266
976.97	0.266
977.14	0.266
977.31	0.266
977.48	0.266
977.65	0.265
977.82	0.264
977.99	0.266
978.16	0.265
978.33	0.265
978.50	0.264
978.67	0.264
978.83	0.264
979.00	0.264
979.17	0.263
979.34	0.263
979.51	0.262
979.68	0.263
979.85	0.262
980.02	0.263
980.19	0.261
980.36	0.262
980.52	0.263
980.69	0.261
980.86	0.262
981.03	0.262
981.20	0.260
981.37	0.261
981.54	0.261
981.71	0.260
981.88	0.260
982.04	0.260
982.21	0.259
982.38	0.260
982.55	0.259
982.72	0.258
982.89	0.259
983.06	0.258
983.22	0.258
983.39	0.258
983.56	0.257
983.73	0.257
983.90	0.256
984.07	0.258
984.24	0.256
984.40	0.256
984.57	0.255
984.74	0.257
984.91	0.258
985.08	0.256
985.25	0.255
985.41	0.256
985.58	0.256
985.75	0.257
985.92	0.256
986.09	0.255
986.26	0.255
986.42	0.254
986.59	0.253
986.76	0.254
986.93	0.254
987.10	0.253
987.27	0.251
987.43	0.250
987.60	0.252
987.77	0.251
987.94	0.250
988.11	0.251
988.27	0.250
988.44	0.250
988.61	0.248
988.78	0.247
988.95	0.248
989.11	0.249
989.28	0.248
989.45	0.247
989.62	0.246
989.79	0.247
989.95	0.246
990.12	0.247
990.29	0.248
990.46	0.246
990.62	0.244
990.79	0.245
990.96	0.244
991.13	0.245
991.30	0.244
991.46	0.243
991.63	0.241
991.80	0.240
991.97	0.240
992.13	0.240
992.30	0.241
992.47	0.239
992.64	0.239
992.80	0.239
992.97	0.240
993.14	0.238
993.31	0.235
993.47	0.238
993.64	0.236
993.81	0.236
993.98	0.236
994.14	0.235
994.31	0.234
994.48	0.235
994.64	0.235
994.81	0.233
994.98	0.234
995.15	0.231
995.31	0.232
995.48	0.232
995.65	0.234
995.82	0.231
995.98	0.231
996.15	0.232
996.32	0.233
996.48	0.231
996.65	0.231
996.82	0.229
996.99	0.230
997.15	0.229
997.32	0.230
997.49	0.229
997.65	0.229
997.82	0.229
997.99	0.227
998.15	0.228
998.32	0.230
998.49	0.228
998.65	0.228
998.82	0.227
998.99	0.225
999.15	0.226
999.32	0.224
999.49	0.224
999.65	0.225
999.82	0.222
999.99	0.222
1000.15	0.223
1000.32	0.224
1000.49	0.224
1000.65	0.222
1000.82	0.221
1000.99	0.222
1001.15	0.221
1001.32	0.220
1001.49	0.220
1001.65	0.220
1001.82	0.222
1001.99	0.218
1002.15	0.217
1002.32	0.217
1002.49	0.217
1002.65	0.217
1002.82	0.215
1002.99	0.214
1003.15	0.216
1003.32	0.215
1003.48	0.215
1003.65	0.215
1003.82	0.215
1003.98	0.212
1004.15	0.212
1004.32	0.212
1004.48	0.212
1004.65	0.214
1004.81	0.211
1004.98	0.209
1005.15	0.211
1005.31	0.210
1005.48	0.208
1005.64	0.208
1005.81	0.211
1005.98	0.208
1006.14	0.208
1006.31	0.207
1006.47	0.206
1006.64	0.205
1006.81	0.204
1006.97	0.205
1007.14	0.204
1007.30	0.206
1007.47	0.206
1007.63	0.203
1007.80	0.202
1007.97	0.201
1008.13	0.201
1008.30	0.201
1008.46	0.201
1008.63	0.200
1008.79	0.200
1008.96	0.199
1009.13	0.199
1009.29	0.197
1009.46	0.197
1009.62	0.197
1009.79	0.195
1009.95	0.196
1010.12	0.196
1010.28	0.196
1010.45	0.195
1010.62	0.195
1010.78	0.194
1010.95	0.192
1011.11	0.192
1011.28	0.192
1011.44	0.194
1011.61	0.191
1011.77	0.190
1011.94	0.190
1012.10	0.189
1012.27	0.189
1012.43	0.188
1012.60	0.187
1012.76	0.188
1012.93	0.187
1013.10	0.186
1013.26	0.183
1013.43	0.185
1013.59	0.193
1013.76	0.185
1013.92	0.184
1014.09	0.183
1014.25	0.185
1014.42	0.185
1014.58	0.185
1014.75	0.187
1014.91	0.186
1015.08	0.188
1015.24	0.185
1015.41	0.186
1015.57	0.186
1015.73	0.185
1015.90	0.184
1016.06	0.185
1016.23	0.183
1016.39	0.184
1016.56	0.184
1016.72	0.183
1016.89	0.182
1017.05	0.184
1017.22	0.180
1017.38	0.181
1017.55	0.180
1017.71	0.180
1017.88	0.180
1018.04	0.181
1018.21	0.178
1018.37	0.178
1018.53	0.178
1018.70	0.177
1018.86	0.176
1019.03	0.178
1019.19	0.176
1019.36	0.176
1019.52	0.177
1019.69	0.179
1019.85	0.178
1020.01	0.177
1020.18	0.176
1020.34	0.176
1020.51	0.175
1020.67	0.176
1020.84	0.174
1021.00	0.175
1021.16	0.173
1021.33	0.173
1021.49	0.171
1021.66	0.171
1021.82	0.169
1021.98	0.170
1022.15	0.170
1022.31	0.169
1022.48	0.168
1022.64	0.170
1022.80	0.168
1022.97	0.166
1023.13	0.166
1023.30	0.167
1023.46	0.168
1023.62	0.165
1023.79	0.166
1023.95	0.166
1024.12	0.166
1024.28	0.165
1024.44	0.165
1024.61	0.164
1024.77	0.164
1024.93	0.163
1025.10	0.164
1025.26	0.161
1025.43	0.162
1025.59	0.158
1025.75	0.162
1025.92	0.160
1026.08	0.159
1026.24	0.159
1026.41	0.161
1026.57	0.159
1026.73	0.156
1026.90	0.158
1027.06	0.156
1027.23	0.158
1027.39	0.157
1027.55	0.158
1027.72	0.156
1027.88	0.156
1028.04	0.156
1028.21	0.156
1028.37	0.150
1028.53	0.155
1028.70	0.153
1028.86	0.151
1029.02	0.151
1029.19	0.152
1029.35	0.150
1029.51	0.150
1029.67	0.150
1029.84	0.152
1030.00	0.147
1030.16	0.148
1030.33	0.151
1030.49	0.149
1030.65	0.147
1030.82	0.162
1030.98	0.150
1031.14	0.149
1031.31	0.149
1031.47	0.147
1031.63	0.149
1031.79	0.148
1031.96	0.148
1032.12	0.148
1032.28	0.146
1032.45	0.150
1032.61	0.148
1032.77	0.147
1032.93	0.145
1033.10	0.147
1033.26	0.149
1033.42	0.146
1033.58	0.146
1033.75	0.148
1033.91	0.146
1034.07	0.149
1034.24	0.148
1034.40	0.146
1034.56	0.145
1034.72	0.145
1034.89	0.145
1035.05	0.143
1035.21	0.143
1035.37	0.143
1035.54	0.146
1035.70	0.144
1035.86	0.142
1036.02	0.143
1036.19	0.140
1036.35	0.140
1036.51	0.144
1036.67	0.142
1036.83	0.141
1037.00	0.140
1037.16	0.140
1037.32	0.141
1037.48	0.140
1037.65	0.146
1037.81	0.141
1037.97	0.142
1038.13	0.142
1038.29	0.140
1038.46	0.137
1038.62	0.143
1038.78	0.140
1038.94	0.137
1039.10	0.141
1039.27	0.136
1039.43	0.138
1039.59	0.137
1039.75	0.136
1039.91	0.134
1040.08	0.134
1040.24	0.137
1040.40	0.138
1040.56	0.137
1040.72	0.132
1040.89	0.134
1041.05	0.136
1041.21	0.135
1041.37	0.134
1041.53	0.141
1041.69	0.138
1041.86	0.137
1042.02	0.134
1042.18	0.133
1042.34	0.135
1042.50	0.138
1042.66	0.134
1042.83	0.132
1042.99	0.135
1043.15	0.131
1043.31	0.131
1043.47	0.135
1043.63	0.131
1043.79	0.132
1043.96	0.132
1044.12	0.136
1044.28	0.132
1044.44	0.135
1044.60	0.130
1044.76	0.129
1044.92	0.131
1045.09	0.132
1045.25	0.129
1045.41	0.131
1045.57	0.127
1045.73	0.127
1045.89	0.128
1046.05	0.130
1046.21	0.135
1046.38	0.134
1046.54	0.124
1046.70	0.135
1046.86	0.128
>>>>>End Processed Spectral Data<<<<<
