SpectraSuite Data File
++++++++++++++++++++++++++++++++++++
Date: Mon May 20 12:11:51 CDT 2013
User: Students
Dark Spectrum Present: Yes
Reference Spectrum Present: Yes
Number of Sampled Component Spectra: 1
Spectrometers: USB4H00887
Integration Time (usec): 60000 (USB4H00887)
Spectra Averaged: 5 (USB4H00887)
Boxcar Smoothing: 5 (USB4H00887)
Correct for Electrical Dark: No (USB4H00887)
Strobe/Lamp Enabled: No (USB4H00887)
Correct for Detector Non-linearity: No (USB4H00887)
Correct for Stray Light: No (USB4H00887)
Number of Pixels in Processed Spectrum: 3648
>>>>>Begin Processed Spectral Data<<<<<
345.83	-0.074
346.05	-0.074
346.26	-0.074
346.48	-0.000
346.70	-0.000
346.92	0.036
347.14	0.049
347.35	0.036
347.57	0.171
347.79	-0.159
348.01	-0.153
348.23	-0.299
348.44	-0.000
348.66	0.275
348.88	-0.353
349.10	-0.152
349.32	0.092
349.53	0.011
349.75	0.025
349.97	0.015
350.19	0.045
350.41	0.016
350.62	-0.132
350.84	0.013
351.06	0.014
351.28	0.002
351.50	-0.124
351.71	0.019
351.93	-0.044
352.15	-0.008
352.37	-0.064
352.58	0.003
352.80	0.023
353.02	0.058
353.24	0.107
353.46	0.805
353.67	-0.191
353.89	0.074
354.11	0.066
354.33	0.081
354.54	0.110
354.76	0.205
354.98	0.351
355.20	0.278
355.41	0.083
355.63	0.106
355.85	0.051
356.07	0.519
356.28	0.062
356.50	0.086
356.72	0.034
356.94	0.124
357.15	0.172
357.37	-0.000
357.59	0.089
357.81	0.056
358.02	0.103
358.24	0.064
358.46	0.181
358.68	0.176
358.89	0.112
359.11	-0.000
359.33	0.092
359.55	-0.580
359.76	0.111
359.98	0.128
360.20	0.154
360.42	0.134
360.63	0.186
360.85	0.093
361.07	0.276
361.29	0.058
361.50	0.160
361.72	0.066
361.94	0.310
362.15	0.141
362.37	0.084
362.59	0.084
362.81	0.126
363.02	0.227
363.24	0.463
363.46	0.277
363.68	0.322
363.89	0.205
364.11	0.257
364.33	0.293
364.54	0.188
364.76	0.233
364.98	0.239
365.20	0.275
365.41	0.159
365.63	0.185
365.85	0.148
366.06	0.610
366.28	0.672
366.50	0.370
366.71	0.155
366.93	0.208
367.15	0.195
367.37	0.190
367.58	0.250
367.80	0.275
368.02	-0.000
368.23	0.194
368.45	0.182
368.67	0.155
368.88	0.161
369.10	-0.000
369.32	0.137
369.53	0.084
369.75	0.117
369.97	0.341
370.19	0.200
370.40	0.057
370.62	0.218
370.84	0.094
371.05	0.544
371.27	0.154
371.49	0.193
371.70	0.226
371.92	0.309
372.14	0.137
372.35	0.124
372.57	0.171
372.79	0.737
373.00	0.122
373.22	0.213
373.44	0.205
373.65	0.148
373.87	0.234
374.09	-0.000
374.30	0.206
374.52	0.228
374.74	0.159
374.95	0.893
375.17	0.155
375.39	-0.000
375.60	0.157
375.82	0.278
376.04	0.108
376.25	0.100
376.47	0.065
376.68	0.117
376.90	0.071
377.12	0.140
377.33	0.087
377.55	0.219
377.77	0.115
377.98	0.182
378.20	0.104
378.42	0.140
378.63	0.195
378.85	-0.000
379.07	0.134
379.28	0.503
379.50	0.326
379.71	0.177
379.93	0.128
380.15	0.177
380.36	0.259
380.58	0.199
380.80	0.564
381.01	0.159
381.23	0.141
381.44	0.162
381.66	0.174
381.88	0.197
382.09	-0.086
382.31	0.121
382.53	0.136
382.74	0.785
382.96	0.206
383.17	0.174
383.39	0.222
383.61	0.315
383.82	0.213
384.04	0.255
384.25	0.334
384.47	0.290
384.69	0.304
384.90	0.249
385.12	0.541
385.33	0.309
385.55	0.223
385.77	0.341
385.98	0.164
386.20	0.217
386.41	0.204
386.63	0.215
386.85	0.183
387.06	0.225
387.28	0.369
387.49	0.233
387.71	0.169
387.93	0.154
388.14	0.468
388.36	0.206
388.57	0.187
388.79	0.198
389.01	2.162
389.22	0.266
389.44	0.222
389.65	0.186
389.87	0.185
390.08	0.211
390.30	0.165
390.52	0.331
390.73	0.316
390.95	0.221
391.16	0.213
391.38	-0.000
391.59	0.245
391.81	0.208
392.03	0.186
392.24	0.231
392.46	0.196
392.67	0.173
392.89	0.234
393.10	0.349
393.32	0.239
393.53	0.265
393.75	0.164
393.97	0.184
394.18	0.248
394.40	0.219
394.61	0.214
394.83	0.195
395.04	0.217
395.26	0.150
395.47	0.221
395.69	0.186
395.91	0.198
396.12	0.228
396.34	0.226
396.55	0.147
396.77	0.217
396.98	0.560
397.20	0.258
397.41	0.292
397.63	0.208
397.84	0.193
398.06	0.185
398.27	0.178
398.49	0.218
398.71	0.173
398.92	0.213
399.14	0.273
399.35	0.342
399.57	0.311
399.78	0.230
400.00	0.231
400.21	0.283
400.43	0.229
400.64	0.253
400.86	0.508
401.07	0.287
401.29	0.248
401.50	0.250
401.72	0.356
401.93	0.233
402.15	0.261
402.36	0.235
402.58	0.191
402.79	0.210
403.01	0.324
403.22	0.260
403.44	0.190
403.65	0.284
403.87	0.334
404.08	0.264
404.30	0.418
404.51	0.265
404.73	0.309
404.94	0.271
405.16	0.280
405.37	0.215
405.59	0.371
405.80	0.235
406.02	0.287
406.23	0.280
406.45	0.295
406.66	0.304
406.88	0.203
407.09	0.282
407.31	0.237
407.52	0.279
407.74	0.236
407.95	0.264
408.17	0.249
408.38	0.262
408.60	0.181
408.81	0.282
409.03	0.218
409.24	0.215
409.45	0.255
409.67	0.242
409.88	0.221
410.10	0.274
410.31	0.240
410.53	0.229
410.74	0.301
410.96	0.294
411.17	0.302
411.39	0.245
411.60	0.234
411.82	0.260
412.03	0.247
412.24	0.231
412.46	0.310
412.67	0.266
412.89	0.272
413.10	0.269
413.32	0.242
413.53	0.268
413.75	0.276
413.96	0.217
414.17	0.266
414.39	0.265
414.60	0.234
414.82	0.278
415.03	0.223
415.25	0.235
415.46	0.174
415.68	0.230
415.89	0.329
416.10	0.289
416.32	0.183
416.53	0.211
416.75	0.210
416.96	0.241
417.18	0.218
417.39	0.214
417.60	0.213
417.82	0.280
418.03	0.257
418.25	0.229
418.46	0.239
418.67	0.233
418.89	0.254
419.10	0.259
419.32	0.310
419.53	0.292
419.75	0.263
419.96	0.240
420.17	0.274
420.39	0.257
420.60	0.264
420.82	0.298
421.03	0.252
421.24	0.213
421.46	0.232
421.67	0.245
421.89	0.224
422.10	0.230
422.31	0.231
422.53	0.290
422.74	0.240
422.96	0.205
423.17	0.223
423.38	0.257
423.60	0.228
423.81	0.264
424.03	0.240
424.24	0.247
424.45	0.246
424.67	0.241
424.88	0.224
425.09	0.233
425.31	0.210
425.52	0.214
425.74	0.229
425.95	0.238
426.16	0.200
426.38	0.223
426.59	0.212
426.80	0.231
427.02	0.229
427.23	0.196
427.45	0.231
427.66	0.237
427.87	0.208
428.09	0.217
428.30	0.234
428.51	0.232
428.73	0.246
428.94	0.229
429.15	0.225
429.37	0.223
429.58	0.228
429.79	0.219
430.01	0.243
430.22	0.237
430.44	0.236
430.65	0.216
430.86	0.224
431.08	0.217
431.29	0.205
431.50	0.231
431.72	0.268
431.93	0.245
432.14	0.203
432.36	0.217
432.57	0.218
432.78	0.225
433.00	0.216
433.21	0.214
433.42	0.246
433.64	0.228
433.85	0.243
434.06	0.210
434.28	0.214
434.49	0.217
434.70	0.220
434.92	0.222
435.13	0.230
435.34	0.227
435.56	0.219
435.77	0.219
435.98	0.246
436.20	0.223
436.41	0.206
436.62	0.204
436.83	0.221
437.05	0.235
437.26	0.215
437.47	0.202
437.69	0.212
437.90	0.201
438.11	0.197
438.33	0.207
438.54	0.212
438.75	0.237
438.97	0.237
439.18	0.203
439.39	0.208
439.60	0.219
439.82	0.209
440.03	0.198
440.24	0.239
440.46	0.206
440.67	0.200
440.88	0.206
441.10	0.200
441.31	0.193
441.52	0.203
441.73	0.215
441.95	0.199
442.16	0.190
442.37	0.235
442.58	0.188
442.80	0.186
443.01	0.216
443.22	0.206
443.44	0.188
443.65	0.209
443.86	0.208
444.07	0.211
444.29	0.195
444.50	0.219
444.71	0.194
444.92	0.186
445.14	0.212
445.35	0.217
445.56	0.190
445.78	0.209
445.99	0.210
446.20	0.190
446.41	0.206
446.63	0.208
446.84	0.204
447.05	0.202
447.26	0.222
447.48	0.202
447.69	0.198
447.90	0.212
448.11	0.196
448.33	0.199
448.54	0.203
448.75	0.205
448.96	0.205
449.18	0.209
449.39	0.195
449.60	0.191
449.81	0.209
450.03	0.194
450.24	0.203
450.45	0.199
450.66	0.197
450.87	0.201
451.09	0.194
451.30	0.193
451.51	0.203
451.72	0.208
451.94	0.209
452.15	0.219
452.36	0.198
452.57	0.205
452.78	0.205
453.00	0.209
453.21	0.201
453.42	0.197
453.63	0.209
453.85	0.201
454.06	0.200
454.27	0.217
454.48	0.206
454.69	0.197
454.91	0.204
455.12	0.188
455.33	0.201
455.54	0.204
455.75	0.201
455.97	0.206
456.18	0.207
456.39	0.207
456.60	0.210
456.81	0.204
457.03	0.203
457.24	0.203
457.45	0.215
457.66	0.206
457.87	0.202
458.09	0.204
458.30	0.193
458.51	0.208
458.72	0.208
458.93	0.209
459.15	0.197
459.36	0.207
459.57	0.211
459.78	0.218
459.99	0.209
460.20	0.203
460.42	0.213
460.63	0.205
460.84	0.204
461.05	0.209
461.26	0.216
461.47	0.205
461.69	0.209
461.90	0.213
462.11	0.207
462.32	0.214
462.53	0.208
462.74	0.220
462.96	0.207
463.17	0.206
463.38	0.210
463.59	0.221
463.80	0.203
464.01	0.209
464.23	0.219
464.44	0.215
464.65	0.215
464.86	0.215
465.07	0.215
465.28	0.212
465.49	0.214
465.71	0.209
465.92	0.215
466.13	0.219
466.34	0.211
466.55	0.217
466.76	0.212
466.97	0.215
467.19	0.214
467.40	0.219
467.61	0.217
467.82	0.210
468.03	0.209
468.24	0.217
468.45	0.221
468.66	0.218
468.88	0.217
469.09	0.217
469.30	0.220
469.51	0.214
469.72	0.217
469.93	0.216
470.14	0.212
470.35	0.219
470.57	0.214
470.78	0.208
470.99	0.221
471.20	0.217
471.41	0.214
471.62	0.219
471.83	0.215
472.04	0.219
472.25	0.223
472.47	0.216
472.68	0.217
472.89	0.218
473.10	0.224
473.31	0.219
473.52	0.224
473.73	0.227
473.94	0.220
474.15	0.224
474.36	0.224
474.57	0.226
474.79	0.224
475.00	0.224
475.21	0.223
475.42	0.231
475.63	0.222
475.84	0.225
476.05	0.225
476.26	0.221
476.47	0.223
476.68	0.226
476.89	0.220
477.10	0.225
477.32	0.224
477.53	0.229
477.74	0.221
477.95	0.224
478.16	0.220
478.37	0.224
478.58	0.225
478.79	0.227
479.00	0.228
479.21	0.224
479.42	0.227
479.63	0.227
479.84	0.224
480.05	0.224
480.26	0.227
480.47	0.229
480.69	0.229
480.90	0.227
481.11	0.227
481.32	0.231
481.53	0.225
481.74	0.230
481.95	0.228
482.16	0.229
482.37	0.231
482.58	0.229
482.79	0.231
483.00	0.234
483.21	0.228
483.42	0.224
483.63	0.232
483.84	0.234
484.05	0.233
484.26	0.229
484.47	0.229
484.68	0.225
484.89	0.225
485.10	0.229
485.31	0.227
485.52	0.228
485.73	0.230
485.94	0.234
486.15	0.230
486.37	0.231
486.58	0.230
486.79	0.232
487.00	0.236
487.21	0.237
487.42	0.236
487.63	0.237
487.84	0.238
488.05	0.237
488.26	0.234
488.47	0.235
488.68	0.238
488.89	0.236
489.10	0.235
489.31	0.236
489.52	0.238
489.73	0.235
489.94	0.238
490.15	0.235
490.36	0.239
490.57	0.234
490.78	0.232
490.99	0.236
491.20	0.241
491.41	0.239
491.62	0.234
491.83	0.236
492.04	0.236
492.25	0.237
492.45	0.237
492.66	0.239
492.87	0.239
493.08	0.238
493.29	0.237
493.50	0.237
493.71	0.238
493.92	0.239
494.13	0.241
494.34	0.243
494.55	0.244
494.76	0.247
494.97	0.246
495.18	0.243
495.39	0.245
495.60	0.241
495.81	0.240
496.02	0.241
496.23	0.239
496.44	0.241
496.65	0.240
496.86	0.240
497.07	0.243
497.28	0.243
497.49	0.238
497.70	0.239
497.91	0.240
498.12	0.239
498.32	0.243
498.53	0.242
498.74	0.242
498.95	0.244
499.16	0.240
499.37	0.240
499.58	0.242
499.79	0.244
500.00	0.244
500.21	0.247
500.42	0.243
500.63	0.243
500.84	0.245
501.05	0.243
501.26	0.245
501.46	0.248
501.67	0.246
501.88	0.246
502.09	0.244
502.30	0.245
502.51	0.248
502.72	0.244
502.93	0.246
503.14	0.248
503.35	0.247
503.56	0.247
503.77	0.250
503.97	0.247
504.18	0.247
504.39	0.250
504.60	0.248
504.81	0.250
505.02	0.250
505.23	0.249
505.44	0.247
505.65	0.248
505.86	0.246
506.07	0.251
506.27	0.249
506.48	0.250
506.69	0.249
506.90	0.251
507.11	0.252
507.32	0.249
507.53	0.251
507.74	0.250
507.95	0.251
508.15	0.252
508.36	0.252
508.57	0.253
508.78	0.251
508.99	0.251
509.20	0.249
509.41	0.251
509.62	0.251
509.82	0.250
510.03	0.252
510.24	0.252
510.45	0.255
510.66	0.254
510.87	0.254
511.08	0.251
511.29	0.255
511.49	0.253
511.70	0.256
511.91	0.250
512.12	0.250
512.33	0.253
512.54	0.254
512.75	0.253
512.95	0.254
513.16	0.254
513.37	0.252
513.58	0.255
513.79	0.253
514.00	0.254
514.20	0.256
514.41	0.255
514.62	0.253
514.83	0.256
515.04	0.255
515.25	0.254
515.46	0.255
515.66	0.255
515.87	0.256
516.08	0.254
516.29	0.256
516.50	0.254
516.71	0.254
516.91	0.256
517.12	0.257
517.33	0.255
517.54	0.255
517.75	0.255
517.95	0.257
518.16	0.258
518.37	0.256
518.58	0.257
518.79	0.255
519.00	0.257
519.20	0.258
519.41	0.256
519.62	0.258
519.83	0.259
520.04	0.255
520.24	0.255
520.45	0.256
520.66	0.258
520.87	0.255
521.08	0.255
521.28	0.256
521.49	0.258
521.70	0.255
521.91	0.257
522.12	0.256
522.32	0.259
522.53	0.257
522.74	0.256
522.95	0.257
523.16	0.257
523.36	0.258
523.57	0.256
523.78	0.256
523.99	0.256
524.20	0.256
524.40	0.257
524.61	0.257
524.82	0.255
525.03	0.256
525.23	0.257
525.44	0.256
525.65	0.256
525.86	0.258
526.06	0.256
526.27	0.257
526.48	0.258
526.69	0.257
526.90	0.258
527.10	0.261
527.31	0.257
527.52	0.256
527.73	0.255
527.93	0.256
528.14	0.256
528.35	0.256
528.56	0.256
528.76	0.255
528.97	0.254
529.18	0.253
529.39	0.253
529.59	0.254
529.80	0.258
530.01	0.256
530.22	0.256
530.42	0.253
530.63	0.255
530.84	0.253
531.05	0.254
531.25	0.255
531.46	0.254
531.67	0.251
531.88	0.254
532.08	0.254
532.29	0.254
532.50	0.253
532.70	0.253
532.91	0.252
533.12	0.253
533.33	0.257
533.53	0.254
533.74	0.255
533.95	0.256
534.15	0.255
534.36	0.255
534.57	0.253
534.78	0.254
534.98	0.256
535.19	0.252
535.40	0.251
535.60	0.255
535.81	0.253
536.02	0.254
536.23	0.253
536.43	0.254
536.64	0.253
536.85	0.255
537.05	0.256
537.26	0.253
537.47	0.255
537.67	0.253
537.88	0.253
538.09	0.254
538.30	0.253
538.50	0.252
538.71	0.253
538.92	0.252
539.12	0.251
539.33	0.252
539.54	0.252
539.74	0.254
539.95	0.253
540.16	0.253
540.36	0.251
540.57	0.252
540.78	0.252
540.98	0.253
541.19	0.253
541.40	0.251
541.60	0.254
541.81	0.253
542.02	0.254
542.22	0.252
542.43	0.253
542.64	0.252
542.84	0.252
543.05	0.250
543.26	0.251
543.46	0.253
543.67	0.254
543.88	0.254
544.08	0.252
544.29	0.251
544.50	0.252
544.70	0.252
544.91	0.252
545.12	0.253
545.32	0.253
545.53	0.254
545.74	0.252
545.94	0.252
546.15	0.252
546.35	0.252
546.56	0.251
546.77	0.251
546.97	0.252
547.18	0.250
547.39	0.251
547.59	0.251
547.80	0.251
548.01	0.253
548.21	0.253
548.42	0.251
548.62	0.251
548.83	0.252
549.04	0.252
549.24	0.250
549.45	0.251
549.65	0.251
549.86	0.250
550.07	0.251
550.27	0.251
550.48	0.253
550.69	0.250
550.89	0.251
551.10	0.250
551.30	0.251
551.51	0.252
551.72	0.249
551.92	0.250
552.13	0.251
552.33	0.251
552.54	0.250
552.75	0.249
552.95	0.250
553.16	0.250
553.36	0.250
553.57	0.250
553.78	0.249
553.98	0.250
554.19	0.248
554.39	0.247
554.60	0.249
554.80	0.249
555.01	0.248
555.22	0.249
555.42	0.248
555.63	0.246
555.83	0.248
556.04	0.247
556.25	0.249
556.45	0.247
556.66	0.248
556.86	0.250
557.07	0.250
557.27	0.250
557.48	0.249
557.68	0.249
557.89	0.250
558.10	0.250
558.30	0.249
558.51	0.250
558.71	0.249
558.92	0.248
559.12	0.250
559.33	0.251
559.54	0.250
559.74	0.249
559.95	0.249
560.15	0.250
560.36	0.250
560.56	0.249
560.77	0.249
560.97	0.250
561.18	0.248
561.38	0.248
561.59	0.251
561.79	0.250
562.00	0.250
562.21	0.249
562.41	0.249
562.62	0.249
562.82	0.249
563.03	0.248
563.23	0.249
563.44	0.249
563.64	0.248
563.85	0.250
564.05	0.248
564.26	0.248
564.46	0.249
564.67	0.250
564.87	0.248
565.08	0.247
565.28	0.249
565.49	0.249
565.69	0.248
565.90	0.248
566.10	0.249
566.31	0.247
566.51	0.249
566.72	0.250
566.92	0.247
567.13	0.248
567.33	0.248
567.54	0.249
567.74	0.249
567.95	0.248
568.15	0.250
568.36	0.251
568.56	0.250
568.77	0.248
568.97	0.248
569.18	0.249
569.38	0.249
569.59	0.250
569.79	0.248
570.00	0.248
570.20	0.248
570.41	0.247
570.61	0.246
570.82	0.248
571.02	0.246
571.23	0.248
571.43	0.246
571.64	0.246
571.84	0.247
572.05	0.247
572.25	0.247
572.45	0.247
572.66	0.246
572.86	0.246
573.07	0.246
573.27	0.247
573.48	0.247
573.68	0.245
573.89	0.245
574.09	0.247
574.30	0.246
574.50	0.246
574.70	0.247
574.91	0.246
575.11	0.247
575.32	0.248
575.52	0.246
575.73	0.247
575.93	0.248
576.14	0.247
576.34	0.247
576.54	0.247
576.75	0.246
576.95	0.246
577.16	0.245
577.36	0.246
577.57	0.246
577.77	0.246
577.97	0.244
578.18	0.246
578.38	0.245
578.59	0.245
578.79	0.244
579.00	0.245
579.20	0.244
579.40	0.244
579.61	0.244
579.81	0.244
580.02	0.243
580.22	0.243
580.42	0.243
580.63	0.243
580.83	0.243
581.04	0.242
581.24	0.243
581.45	0.243
581.65	0.243
581.85	0.243
582.06	0.242
582.26	0.244
582.47	0.243
582.67	0.243
582.87	0.243
583.08	0.242
583.28	0.244
583.48	0.243
583.69	0.241
583.89	0.243
584.10	0.244
584.30	0.242
584.50	0.242
584.71	0.242
584.91	0.242
585.12	0.242
585.32	0.243
585.52	0.242
585.73	0.241
585.93	0.242
586.13	0.242
586.34	0.242
586.54	0.242
586.75	0.241
586.95	0.241
587.15	0.242
587.36	0.241
587.56	0.241
587.76	0.241
587.97	0.241
588.17	0.240
588.37	0.241
588.58	0.242
588.78	0.240
588.98	0.241
589.19	0.241
589.39	0.239
589.60	0.242
589.80	0.240
590.00	0.240
590.21	0.241
590.41	0.240
590.61	0.240
590.82	0.239
591.02	0.239
591.22	0.239
591.43	0.240
591.63	0.239
591.83	0.239
592.04	0.238
592.24	0.240
592.44	0.238
592.65	0.237
592.85	0.238
593.05	0.239
593.26	0.238
593.46	0.238
593.66	0.238
593.86	0.238
594.07	0.236
594.27	0.237
594.47	0.236
594.68	0.236
594.88	0.237
595.08	0.237
595.29	0.238
595.49	0.236
595.69	0.237
595.90	0.236
596.10	0.237
596.30	0.237
596.50	0.236
596.71	0.237
596.91	0.236
597.11	0.237
597.32	0.236
597.52	0.236
597.72	0.236
597.93	0.235
598.13	0.234
598.33	0.235
598.53	0.235
598.74	0.235
598.94	0.234
599.14	0.234
599.35	0.235
599.55	0.235
599.75	0.235
599.95	0.234
600.16	0.235
600.36	0.234
600.56	0.235
600.76	0.234
600.97	0.233
601.17	0.233
601.37	0.234
601.58	0.233
601.78	0.233
601.98	0.233
602.18	0.232
602.39	0.232
602.59	0.232
602.79	0.232
602.99	0.232
603.20	0.231
603.40	0.232
603.60	0.232
603.80	0.232
604.01	0.232
604.21	0.232
604.41	0.231
604.61	0.231
604.82	0.231
605.02	0.232
605.22	0.231
605.42	0.231
605.62	0.231
605.83	0.230
606.03	0.230
606.23	0.231
606.43	0.230
606.64	0.231
606.84	0.230
607.04	0.230
607.24	0.230
607.45	0.230
607.65	0.229
607.85	0.230
608.05	0.229
608.25	0.229
608.46	0.229
608.66	0.229
608.86	0.228
609.06	0.227
609.26	0.227
609.47	0.228
609.67	0.227
609.87	0.228
610.07	0.228
610.28	0.227
610.48	0.227
610.68	0.227
610.88	0.226
611.08	0.227
611.29	0.226
611.49	0.226
611.69	0.227
611.89	0.225
612.09	0.225
612.29	0.225
612.50	0.225
612.70	0.225
612.90	0.224
613.10	0.224
613.30	0.224
613.51	0.224
613.71	0.224
613.91	0.229
614.11	0.223
614.31	0.223
614.51	0.223
614.72	0.222
614.92	0.222
615.12	0.222
615.32	0.223
615.52	0.222
615.72	0.222
615.93	0.222
616.13	0.222
616.33	0.222
616.53	0.222
616.73	0.222
616.93	0.221
617.14	0.222
617.34	0.222
617.54	0.222
617.74	0.222
617.94	0.221
618.14	0.221
618.34	0.221
618.55	0.220
618.75	0.221
618.95	0.221
619.15	0.221
619.35	0.220
619.55	0.219
619.75	0.220
619.96	0.219
620.16	0.219
620.36	0.219
620.56	0.218
620.76	0.219
620.96	0.218
621.16	0.218
621.36	0.218
621.57	0.218
621.77	0.219
621.97	0.218
622.17	0.218
622.37	0.217
622.57	0.218
622.77	0.218
622.97	0.216
623.18	0.216
623.38	0.217
623.58	0.216
623.78	0.216
623.98	0.216
624.18	0.215
624.38	0.215
624.58	0.215
624.78	0.216
624.98	0.215
625.19	0.215
625.39	0.215
625.59	0.214
625.79	0.215
625.99	0.214
626.19	0.214
626.39	0.214
626.59	0.214
626.79	0.213
626.99	0.213
627.19	0.213
627.40	0.214
627.60	0.213
627.80	0.214
628.00	0.214
628.20	0.213
628.40	0.213
628.60	0.213
628.80	0.212
629.00	0.213
629.20	0.212
629.40	0.212
629.60	0.211
629.80	0.211
630.00	0.211
630.20	0.211
630.41	0.210
630.61	0.210
630.81	0.210
631.01	0.210
631.21	0.209
631.41	0.209
631.61	0.210
631.81	0.209
632.01	0.209
632.21	0.209
632.41	0.207
632.61	0.207
632.81	0.208
633.01	0.208
633.21	0.207
633.41	0.208
633.61	0.207
633.81	0.206
634.01	0.205
634.21	0.206
634.41	0.205
634.61	0.205
634.81	0.204
635.01	0.204
635.22	0.205
635.42	0.205
635.62	0.204
635.82	0.204
636.02	0.204
636.22	0.203
636.42	0.203
636.62	0.203
636.82	0.203
637.02	0.203
637.22	0.203
637.42	0.202
637.62	0.201
637.82	0.202
638.02	0.201
638.22	0.201
638.42	0.201
638.62	0.201
638.82	0.201
639.02	0.200
639.22	0.200
639.42	0.200
639.62	0.200
639.82	0.199
640.02	0.199
640.22	0.199
640.42	0.198
640.62	0.198
640.82	0.198
641.02	0.197
641.22	0.198
641.42	0.196
641.61	0.196
641.81	0.196
642.01	0.196
642.21	0.196
642.41	0.196
642.61	0.196
642.81	0.195
643.01	0.195
643.21	0.195
643.41	0.195
643.61	0.195
643.81	0.194
644.01	0.193
644.21	0.192
644.41	0.193
644.61	0.193
644.81	0.193
645.01	0.193
645.21	0.193
645.41	0.193
645.61	0.192
645.81	0.192
646.01	0.191
646.21	0.192
646.40	0.191
646.60	0.191
646.80	0.192
647.00	0.191
647.20	0.189
647.40	0.189
647.60	0.190
647.80	0.189
648.00	0.189
648.20	0.189
648.40	0.188
648.60	0.188
648.80	0.188
649.00	0.188
649.20	0.188
649.39	0.188
649.59	0.187
649.79	0.187
649.99	0.187
650.19	0.187
650.39	0.187
650.59	0.187
650.79	0.186
650.99	0.186
651.19	0.185
651.39	0.185
651.58	0.184
651.78	0.184
651.98	0.183
652.18	0.183
652.38	0.182
652.58	0.183
652.78	0.182
652.98	0.181
653.18	0.181
653.38	0.181
653.57	0.181
653.77	0.182
653.97	0.181
654.17	0.181
654.37	0.180
654.57	0.181
654.77	0.180
654.97	0.180
655.16	0.179
655.36	0.180
655.56	0.179
655.76	0.178
655.96	0.179
656.16	0.177
656.36	0.178
656.56	0.177
656.75	0.177
656.95	0.177
657.15	0.177
657.35	0.177
657.55	0.176
657.75	0.177
657.95	0.176
658.14	0.176
658.34	0.176
658.54	0.176
658.74	0.175
658.94	0.174
659.14	0.174
659.34	0.174
659.53	0.173
659.73	0.173
659.93	0.172
660.13	0.172
660.33	0.172
660.53	0.171
660.72	0.172
660.92	0.172
661.12	0.171
661.32	0.171
661.52	0.170
661.72	0.170
661.91	0.169
662.11	0.170
662.31	0.169
662.51	0.169
662.71	0.169
662.90	0.168
663.10	0.167
663.30	0.167
663.50	0.167
663.70	0.166
663.90	0.166
664.09	0.166
664.29	0.165
664.49	0.165
664.69	0.165
664.89	0.164
665.08	0.164
665.28	0.164
665.48	0.164
665.68	0.163
665.88	0.163
666.07	0.163
666.27	0.163
666.47	0.163
666.67	0.163
666.87	0.163
667.06	0.162
667.26	0.162
667.46	0.162
667.66	0.162
667.85	0.162
668.05	0.162
668.25	0.162
668.45	0.162
668.65	0.161
668.84	0.161
669.04	0.161
669.24	0.160
669.44	0.160
669.63	0.160
669.83	0.159
670.03	0.158
670.23	0.158
670.42	0.158
670.62	0.157
670.82	0.157
671.02	0.156
671.22	0.156
671.41	0.155
671.61	0.156
671.81	0.156
672.01	0.156
672.20	0.155
672.40	0.154
672.60	0.154
672.80	0.154
672.99	0.154
673.19	0.153
673.39	0.153
673.58	0.153
673.78	0.152
673.98	0.152
674.18	0.152
674.37	0.151
674.57	0.151
674.77	0.151
674.97	0.151
675.16	0.151
675.36	0.151
675.56	0.150
675.75	0.150
675.95	0.149
676.15	0.149
676.35	0.149
676.54	0.149
676.74	0.149
676.94	0.149
677.13	0.148
677.33	0.148
677.53	0.148
677.73	0.148
677.92	0.147
678.12	0.147
678.32	0.146
678.51	0.146
678.71	0.146
678.91	0.145
679.11	0.145
679.30	0.145
679.50	0.144
679.70	0.144
679.89	0.144
680.09	0.144
680.29	0.143
680.48	0.143
680.68	0.143
680.88	0.143
681.07	0.143
681.27	0.142
681.47	0.142
681.66	0.142
681.86	0.141
682.06	0.141
682.25	0.141
682.45	0.141
682.65	0.140
682.84	0.139
683.04	0.139
683.24	0.139
683.43	0.139
683.63	0.138
683.83	0.139
684.02	0.139
684.22	0.138
684.42	0.138
684.61	0.138
684.81	0.138
685.01	0.138
685.20	0.137
685.40	0.137
685.60	0.137
685.79	0.137
685.99	0.138
686.19	0.137
686.38	0.137
686.58	0.137
686.77	0.137
686.97	0.136
687.17	0.136
687.36	0.136
687.56	0.135
687.76	0.134
687.95	0.134
688.15	0.134
688.34	0.134
688.54	0.133
688.74	0.132
688.93	0.132
689.13	0.132
689.33	0.132
689.52	0.131
689.72	0.132
689.91	0.131
690.11	0.131
690.31	0.130
690.50	0.130
690.70	0.131
690.89	0.130
691.09	0.130
691.29	0.130
691.48	0.129
691.68	0.129
691.87	0.129
692.07	0.129
692.27	0.129
692.46	0.129
692.66	0.128
692.85	0.128
693.05	0.128
693.25	0.128
693.44	0.128
693.64	0.127
693.83	0.127
694.03	0.127
694.22	0.126
694.42	0.126
694.62	0.126
694.81	0.126
695.01	0.126
695.20	0.126
695.40	0.125
695.59	0.125
695.79	0.125
695.99	0.125
696.18	0.124
696.38	0.124
696.57	0.124
696.77	0.124
696.96	0.124
697.16	0.123
697.36	0.123
697.55	0.123
697.75	0.123
697.94	0.122
698.14	0.123
698.33	0.122
698.53	0.122
698.72	0.122
698.92	0.122
699.11	0.122
699.31	0.121
699.51	0.121
699.70	0.120
699.90	0.120
700.09	0.120
700.29	0.119
700.48	0.120
700.68	0.120
700.87	0.120
701.07	0.119
701.26	0.118
701.46	0.118
701.65	0.119
701.85	0.118
702.04	0.118
702.24	0.118
702.43	0.118
702.63	0.117
702.82	0.117
703.02	0.116
703.21	0.116
703.41	0.116
703.60	0.116
703.80	0.116
703.99	0.116
704.19	0.116
704.38	0.116
704.58	0.115
704.77	0.115
704.97	0.115
705.16	0.115
705.36	0.115
705.55	0.115
705.75	0.114
705.94	0.115
706.14	0.114
706.33	0.114
706.53	0.114
706.72	0.114
706.92	0.114
707.11	0.114
707.31	0.113
707.50	0.113
707.70	0.114
707.89	0.114
708.09	0.113
708.28	0.113
708.48	0.113
708.67	0.113
708.86	0.113
709.06	0.113
709.25	0.112
709.45	0.112
709.64	0.112
709.84	0.111
710.03	0.111
710.23	0.110
710.42	0.110
710.62	0.110
710.81	0.110
711.00	0.109
711.20	0.109
711.39	0.109
711.59	0.109
711.78	0.109
711.98	0.109
712.17	0.109
712.37	0.109
712.56	0.109
712.75	0.109
712.95	0.109
713.14	0.109
713.34	0.109
713.53	0.109
713.73	0.109
713.92	0.109
714.11	0.108
714.31	0.109
714.50	0.108
714.70	0.108
714.89	0.108
715.08	0.108
715.28	0.108
715.47	0.107
715.67	0.107
715.86	0.107
716.06	0.107
716.25	0.107
716.44	0.106
716.64	0.106
716.83	0.106
717.03	0.106
717.22	0.105
717.41	0.105
717.61	0.105
717.80	0.106
717.99	0.106
718.19	0.105
718.38	0.105
718.58	0.105
718.77	0.104
718.96	0.104
719.16	0.104
719.35	0.104
719.55	0.104
719.74	0.104
719.93	0.103
720.13	0.103
720.32	0.102
720.51	0.102
720.71	0.103
720.90	0.103
721.10	0.102
721.29	0.102
721.48	0.102
721.68	0.102
721.87	0.102
722.06	0.102
722.26	0.103
722.45	0.102
722.64	0.102
722.84	0.102
723.03	0.102
723.22	0.102
723.42	0.103
723.61	0.102
723.80	0.102
724.00	0.102
724.19	0.102
724.38	0.102
724.58	0.101
724.77	0.101
724.96	0.101
725.16	0.101
725.35	0.101
725.54	0.101
725.74	0.101
725.93	0.101
726.12	0.101
726.32	0.101
726.51	0.101
726.70	0.101
726.90	0.101
727.09	0.100
727.28	0.100
727.48	0.101
727.67	0.100
727.86	0.100
728.06	0.100
728.25	0.100
728.44	0.100
728.64	0.100
728.83	0.100
729.02	0.100
729.21	0.100
729.41	0.100
729.60	0.100
729.79	0.100
729.99	0.100
730.18	0.100
730.37	0.100
730.56	0.099
730.76	0.099
730.95	0.099
731.14	0.099
731.34	0.099
731.53	0.099
731.72	0.099
731.91	0.099
732.11	0.098
732.30	0.099
732.49	0.098
732.69	0.099
732.88	0.099
733.07	0.099
733.26	0.099
733.46	0.098
733.65	0.099
733.84	0.099
734.03	0.099
734.23	0.099
734.42	0.098
734.61	0.098
734.80	0.098
735.00	0.099
735.19	0.098
735.38	0.098
735.57	0.098
735.77	0.098
735.96	0.098
736.15	0.098
736.34	0.098
736.54	0.098
736.73	0.098
736.92	0.098
737.11	0.097
737.31	0.097
737.50	0.097
737.69	0.098
737.88	0.097
738.07	0.097
738.27	0.097
738.46	0.097
738.65	0.096
738.84	0.097
739.04	0.097
739.23	0.097
739.42	0.096
739.61	0.096
739.80	0.096
740.00	0.096
740.19	0.096
740.38	0.096
740.57	0.096
740.76	0.096
740.96	0.095
741.15	0.095
741.34	0.095
741.53	0.095
741.72	0.095
741.92	0.095
742.11	0.094
742.30	0.095
742.49	0.094
742.68	0.094
742.88	0.094
743.07	0.094
743.26	0.095
743.45	0.095
743.64	0.094
743.84	0.094
744.03	0.094
744.22	0.094
744.41	0.094
744.60	0.093
744.79	0.094
744.99	0.093
745.18	0.093
745.37	0.093
745.56	0.093
745.75	0.093
745.94	0.092
746.14	0.092
746.33	0.092
746.52	0.093
746.71	0.093
746.90	0.092
747.09	0.092
747.28	0.092
747.48	0.092
747.67	0.092
747.86	0.092
748.05	0.092
748.24	0.091
748.43	0.091
748.62	0.091
748.82	0.091
749.01	0.090
749.20	0.090
749.39	0.090
749.58	0.090
749.77	0.090
749.96	0.090
750.16	0.090
750.35	0.090
750.54	0.090
750.73	0.089
750.92	0.090
751.11	0.089
751.30	0.090
751.49	0.090
751.68	0.090
751.88	0.090
752.07	0.089
752.26	0.090
752.45	0.090
752.64	0.089
752.83	0.090
753.02	0.089
753.21	0.089
753.40	0.088
753.60	0.089
753.79	0.088
753.98	0.088
754.17	0.088
754.36	0.087
754.55	0.087
754.74	0.087
754.93	0.087
755.12	0.087
755.31	0.087
755.50	0.087
755.70	0.087
755.89	0.086
756.08	0.086
756.27	0.086
756.46	0.087
756.65	0.087
756.84	0.086
757.03	0.086
757.22	0.086
757.41	0.086
757.60	0.086
757.79	0.087
757.98	0.087
758.17	0.087
758.36	0.087
758.56	0.086
758.75	0.086
758.94	0.086
759.13	0.086
759.32	0.086
759.51	0.085
759.70	0.085
759.89	0.085
760.08	0.085
760.27	0.085
760.46	0.086
760.65	0.085
760.84	0.085
761.03	0.085
761.22	0.085
761.41	0.085
761.60	0.085
761.79	0.084
761.98	0.084
762.17	0.084
762.36	0.084
762.55	0.083
762.74	0.083
762.93	0.083
763.12	0.083
763.31	0.083
763.50	0.083
763.69	0.083
763.88	0.083
764.07	0.083
764.26	0.083
764.45	0.083
764.64	0.083
764.83	0.083
765.02	0.083
765.21	0.083
765.40	0.083
765.59	0.082
765.78	0.083
765.97	0.083
766.16	0.082
766.35	0.082
766.54	0.082
766.73	0.082
766.92	0.082
767.11	0.082
767.30	0.082
767.49	0.082
767.68	0.082
767.87	0.082
768.06	0.082
768.25	0.082
768.44	0.082
768.63	0.081
768.82	0.082
769.01	0.081
769.20	0.081
769.39	0.082
769.58	0.082
769.77	0.082
769.96	0.081
770.15	0.081
770.34	0.081
770.53	0.081
770.72	0.081
770.91	0.080
771.10	0.081
771.29	0.080
771.47	0.080
771.66	0.080
771.85	0.080
772.04	0.080
772.23	0.080
772.42	0.080
772.61	0.080
772.80	0.080
772.99	0.080
773.18	0.080
773.37	0.080
773.56	0.080
773.75	0.081
773.94	0.081
774.13	0.080
774.31	0.080
774.50	0.080
774.69	0.080
774.88	0.079
775.07	0.080
775.26	0.079
775.45	0.078
775.64	0.079
775.83	0.078
776.02	0.078
776.21	0.078
776.40	0.078
776.58	0.078
776.77	0.078
776.96	0.079
777.15	0.079
777.34	0.079
777.53	0.079
777.72	0.079
777.91	0.079
778.10	0.078
778.28	0.078
778.47	0.078
778.66	0.078
778.85	0.077
779.04	0.077
779.23	0.077
779.42	0.077
779.61	0.077
779.79	0.077
779.98	0.076
780.17	0.077
780.36	0.076
780.55	0.076
780.74	0.076
780.93	0.075
781.12	0.076
781.30	0.076
781.49	0.076
781.68	0.076
781.87	0.076
782.06	0.076
782.25	0.076
782.44	0.076
782.62	0.076
782.81	0.077
783.00	0.076
783.19	0.076
783.38	0.076
783.57	0.076
783.75	0.076
783.94	0.075
784.13	0.075
784.32	0.075
784.51	0.075
784.70	0.075
784.88	0.075
785.07	0.075
785.26	0.075
785.45	0.075
785.64	0.074
785.83	0.075
786.01	0.074
786.20	0.075
786.39	0.075
786.58	0.075
786.77	0.074
786.95	0.074
787.14	0.074
787.33	0.074
787.52	0.074
787.71	0.074
787.90	0.074
788.08	0.074
788.27	0.074
788.46	0.074
788.65	0.074
788.84	0.074
789.02	0.074
789.21	0.074
789.40	0.074
789.59	0.074
789.77	0.074
789.96	0.073
790.15	0.073
790.34	0.074
790.53	0.073
790.71	0.073
790.90	0.073
791.09	0.072
791.28	0.073
791.46	0.073
791.65	0.073
791.84	0.073
792.03	0.073
792.22	0.073
792.40	0.073
792.59	0.073
792.78	0.073
792.97	0.072
793.15	0.072
793.34	0.072
793.53	0.072
793.72	0.072
793.90	0.072
794.09	0.072
794.28	0.072
794.47	0.072
794.65	0.072
794.84	0.072
795.03	0.072
795.22	0.072
795.40	0.072
795.59	0.072
795.78	0.072
795.97	0.072
796.15	0.072
796.34	0.072
796.53	0.072
796.71	0.072
796.90	0.072
797.09	0.072
797.28	0.072
797.46	0.072
797.65	0.072
797.84	0.072
798.02	0.071
798.21	0.071
798.40	0.071
798.59	0.071
798.77	0.071
798.96	0.070
799.15	0.070
799.33	0.070
799.52	0.070
799.71	0.070
799.90	0.070
800.08	0.070
800.27	0.070
800.46	0.070
800.64	0.070
800.83	0.070
801.02	0.070
801.20	0.071
801.39	0.071
801.58	0.070
801.76	0.070
801.95	0.070
802.14	0.070
802.32	0.070
802.51	0.070
802.70	0.070
802.88	0.069
803.07	0.070
803.26	0.069
803.44	0.069
803.63	0.069
803.82	0.069
804.00	0.069
804.19	0.069
804.38	0.070
804.56	0.070
804.75	0.069
804.94	0.070
805.12	0.070
805.31	0.070
805.50	0.070
805.68	0.070
805.87	0.070
806.06	0.070
806.24	0.070
806.43	0.070
806.62	0.069
806.80	0.069
806.99	0.069
807.17	0.069
807.36	0.070
807.55	0.070
807.73	0.069
807.92	0.070
808.11	0.070
808.29	0.069
808.48	0.069
808.66	0.070
808.85	0.069
809.04	0.069
809.22	0.069
809.41	0.070
809.59	0.069
809.78	0.069
809.97	0.069
810.15	0.069
810.34	0.068
810.53	0.068
810.71	0.068
810.90	0.068
811.08	0.068
811.27	0.068
811.45	0.068
811.64	0.068
811.83	0.068
812.01	0.068
812.20	0.068
812.38	0.068
812.57	0.068
812.76	0.068
812.94	0.068
813.13	0.068
813.31	0.068
813.50	0.068
813.68	0.068
813.87	0.068
814.06	0.068
814.24	0.068
814.43	0.068
814.61	0.068
814.80	0.068
814.98	0.068
815.17	0.068
815.36	0.068
815.54	0.068
815.73	0.068
815.91	0.068
816.10	0.068
816.28	0.068
816.47	0.068
816.65	0.068
816.84	0.068
817.03	0.068
817.21	0.068
817.40	0.068
817.58	0.068
817.77	0.068
817.95	0.068
818.14	0.068
818.32	0.068
818.51	0.068
818.69	0.068
818.88	0.068
819.06	0.068
819.25	0.068
819.43	0.068
819.62	0.068
819.80	0.068
819.99	0.068
820.18	0.068
820.36	0.068
820.55	0.068
820.73	0.068
820.92	0.068
821.10	0.068
821.29	0.068
821.47	0.068
821.66	0.068
821.84	0.068
822.03	0.068
822.21	0.068
822.40	0.068
822.58	0.068
822.77	0.068
822.95	0.068
823.14	0.068
823.32	0.068
823.50	0.068
823.69	0.068
823.87	0.068
824.06	0.069
824.24	0.069
824.43	0.069
824.61	0.069
824.80	0.069
824.98	0.069
825.17	0.069
825.35	0.069
825.54	0.069
825.72	0.070
825.91	0.069
826.09	0.069
826.28	0.069
826.46	0.070
826.64	0.069
826.83	0.069
827.01	0.069
827.20	0.070
827.38	0.069
827.57	0.070
827.75	0.070
827.94	0.070
828.12	0.070
828.31	0.070
828.49	0.070
828.67	0.071
828.86	0.071
829.04	0.071
829.23	0.071
829.41	0.071
829.60	0.071
829.78	0.071
829.96	0.072
830.15	0.072
830.33	0.072
830.52	0.072
830.70	0.072
830.88	0.072
831.07	0.073
831.25	0.072
831.44	0.072
831.62	0.072
831.81	0.072
831.99	0.072
832.17	0.072
832.36	0.072
832.54	0.072
832.73	0.072
832.91	0.072
833.09	0.072
833.28	0.072
833.46	0.073
833.65	0.073
833.83	0.073
834.01	0.073
834.20	0.074
834.38	0.073
834.56	0.073
834.75	0.074
834.93	0.074
835.12	0.074
835.30	0.074
835.48	0.074
835.67	0.073
835.85	0.073
836.03	0.073
836.22	0.073
836.40	0.073
836.59	0.074
836.77	0.073
836.95	0.073
837.14	0.073
837.32	0.073
837.50	0.073
837.69	0.073
837.87	0.074
838.05	0.074
838.24	0.074
838.42	0.074
838.60	0.074
838.79	0.075
838.97	0.074
839.15	0.074
839.34	0.074
839.52	0.074
839.70	0.074
839.89	0.074
840.07	0.075
840.25	0.075
840.44	0.075
840.62	0.074
840.80	0.074
840.99	0.074
841.17	0.074
841.35	0.074
841.54	0.074
841.72	0.074
841.90	0.075
842.09	0.074
842.27	0.075
842.45	0.075
842.64	0.075
842.82	0.075
843.00	0.075
843.19	0.075
843.37	0.075
843.55	0.075
843.73	0.075
843.92	0.075
844.10	0.075
844.28	0.075
844.47	0.075
844.65	0.074
844.83	0.075
845.01	0.075
845.20	0.075
845.38	0.075
845.56	0.075
845.75	0.075
845.93	0.075
846.11	0.075
846.29	0.075
846.48	0.075
846.66	0.075
846.84	0.075
847.02	0.075
847.21	0.074
847.39	0.075
847.57	0.075
847.76	0.075
847.94	0.075
848.12	0.075
848.30	0.075
848.49	0.075
848.67	0.075
848.85	0.075
849.03	0.076
849.22	0.076
849.40	0.076
849.58	0.076
849.76	0.076
849.95	0.076
850.13	0.076
850.31	0.076
850.49	0.076
850.67	0.076
850.86	0.076
851.04	0.076
851.22	0.075
851.40	0.076
851.59	0.076
851.77	0.076
851.95	0.076
852.13	0.076
852.31	0.076
852.50	0.076
852.68	0.077
852.86	0.076
853.04	0.076
853.23	0.076
853.41	0.076
853.59	0.076
853.77	0.076
853.95	0.076
854.14	0.076
854.32	0.076
854.50	0.075
854.68	0.075
854.86	0.075
855.04	0.076
855.23	0.075
855.41	0.075
855.59	0.076
855.77	0.076
855.95	0.076
856.14	0.076
856.32	0.076
856.50	0.077
856.68	0.077
856.86	0.077
857.04	0.076
857.23	0.076
857.41	0.076
857.59	0.076
857.77	0.076
857.95	0.076
858.13	0.076
858.32	0.076
858.50	0.076
858.68	0.075
858.86	0.076
859.04	0.076
859.22	0.076
859.41	0.076
859.59	0.076
859.77	0.076
859.95	0.075
860.13	0.076
860.31	0.076
860.49	0.076
860.68	0.076
860.86	0.076
861.04	0.076
861.22	0.076
861.40	0.076
861.58	0.076
861.76	0.076
861.94	0.076
862.13	0.076
862.31	0.076
862.49	0.076
862.67	0.076
862.85	0.076
863.03	0.076
863.21	0.076
863.39	0.077
863.57	0.077
863.76	0.077
863.94	0.077
864.12	0.077
864.30	0.077
864.48	0.077
864.66	0.077
864.84	0.077
865.02	0.077
865.20	0.077
865.38	0.077
865.57	0.077
865.75	0.077
865.93	0.077
866.11	0.077
866.29	0.077
866.47	0.077
866.65	0.077
866.83	0.077
867.01	0.077
867.19	0.076
867.37	0.076
867.55	0.077
867.73	0.077
867.92	0.077
868.10	0.077
868.28	0.077
868.46	0.077
868.64	0.077
868.82	0.077
869.00	0.078
869.18	0.078
869.36	0.078
869.54	0.078
869.72	0.079
869.90	0.079
870.08	0.078
870.26	0.078
870.44	0.078
870.62	0.078
870.80	0.078
870.98	0.078
871.16	0.078
871.34	0.078
871.53	0.078
871.71	0.077
871.89	0.077
872.07	0.078
872.25	0.078
872.43	0.078
872.61	0.078
872.79	0.078
872.97	0.078
873.15	0.078
873.33	0.079
873.51	0.079
873.69	0.079
873.87	0.079
874.05	0.079
874.23	0.079
874.41	0.078
874.59	0.079
874.77	0.078
874.95	0.078
875.13	0.079
875.31	0.079
875.49	0.079
875.67	0.078
875.85	0.079
876.03	0.079
876.21	0.079
876.39	0.079
876.57	0.079
876.75	0.080
876.93	0.079
877.11	0.079
877.29	0.079
877.47	0.079
877.65	0.080
877.82	0.080
878.00	0.080
878.18	0.080
878.36	0.080
878.54	0.080
878.72	0.080
878.90	0.080
879.08	0.081
879.26	0.080
879.44	0.081
879.62	0.080
879.80	0.080
879.98	0.081
880.16	0.081
880.34	0.080
880.52	0.080
880.70	0.080
880.88	0.080
881.06	0.080
881.24	0.080
881.42	0.079
881.59	0.079
881.77	0.079
881.95	0.079
882.13	0.079
882.31	0.079
882.49	0.079
882.67	0.080
882.85	0.079
883.03	0.080
883.21	0.080
883.39	0.080
883.57	0.080
883.75	0.080
883.92	0.080
884.10	0.080
884.28	0.080
884.46	0.080
884.64	0.080
884.82	0.080
885.00	0.080
885.18	0.081
885.36	0.081
885.54	0.081
885.71	0.081
885.89	0.081
886.07	0.081
886.25	0.081
886.43	0.081
886.61	0.081
886.79	0.081
886.97	0.081
887.15	0.081
887.32	0.081
887.50	0.082
887.68	0.082
887.86	0.082
888.04	0.082
888.22	0.081
888.40	0.081
888.57	0.082
888.75	0.082
888.93	0.082
889.11	0.082
889.29	0.082
889.47	0.082
889.65	0.082
889.82	0.082
890.00	0.082
890.18	0.082
890.36	0.082
890.54	0.082
890.72	0.082
890.90	0.082
891.07	0.082
891.25	0.082
891.43	0.082
891.61	0.082
891.79	0.082
891.97	0.082
892.14	0.083
892.32	0.083
892.50	0.083
892.68	0.083
892.86	0.083
893.03	0.083
893.21	0.083
893.39	0.083
893.57	0.083
893.75	0.083
893.93	0.083
894.10	0.083
894.28	0.083
894.46	0.083
894.64	0.083
894.82	0.083
894.99	0.083
895.17	0.083
895.35	0.083
895.53	0.083
895.71	0.083
895.88	0.083
896.06	0.083
896.24	0.083
896.42	0.083
896.59	0.083
896.77	0.083
896.95	0.083
897.13	0.083
897.31	0.084
897.48	0.084
897.66	0.084
897.84	0.084
898.02	0.084
898.19	0.084
898.37	0.084
898.55	0.084
898.73	0.085
898.91	0.085
899.08	0.085
899.26	0.085
899.44	0.085
899.62	0.085
899.79	0.085
899.97	0.085
900.15	0.085
900.33	0.085
900.50	0.085
900.68	0.085
900.86	0.085
901.04	0.085
901.21	0.085
901.39	0.085
901.57	0.085
901.74	0.085
901.92	0.085
902.10	0.086
902.28	0.085
902.45	0.086
902.63	0.085
902.81	0.085
902.99	0.086
903.16	0.086
903.34	0.086
903.52	0.086
903.69	0.085
903.87	0.085
904.05	0.086
904.22	0.086
904.40	0.086
904.58	0.086
904.76	0.086
904.93	0.086
905.11	0.086
905.29	0.086
905.46	0.086
905.64	0.087
905.82	0.087
905.99	0.086
906.17	0.086
906.35	0.086
906.53	0.087
906.70	0.087
906.88	0.087
907.06	0.087
907.23	0.087
907.41	0.087
907.59	0.087
907.76	0.087
907.94	0.087
908.12	0.087
908.29	0.087
908.47	0.087
908.65	0.087
908.82	0.087
909.00	0.087
909.18	0.088
909.35	0.088
909.53	0.088
909.71	0.088
909.88	0.088
910.06	0.088
910.23	0.088
910.41	0.088
910.59	0.088
910.76	0.088
910.94	0.088
911.12	0.088
911.29	0.088
911.47	0.088
911.65	0.088
911.82	0.088
912.00	0.088
912.17	0.088
912.35	0.089
912.53	0.089
912.70	0.089
912.88	0.089
913.06	0.090
913.23	0.090
913.41	0.090
913.58	0.090
913.76	0.090
913.94	0.090
914.11	0.091
914.29	0.091
914.46	0.091
914.64	0.091
914.82	0.091
914.99	0.092
915.17	0.091
915.34	0.092
915.52	0.092
915.70	0.092
915.87	0.092
916.05	0.092
916.22	0.091
916.40	0.091
916.57	0.092
916.75	0.092
916.93	0.092
917.10	0.091
917.28	0.091
917.45	0.091
917.63	0.091
917.80	0.091
917.98	0.092
918.16	0.092
918.33	0.092
918.51	0.092
918.68	0.092
918.86	0.093
919.03	0.093
919.21	0.093
919.39	0.094
919.56	0.094
919.74	0.094
919.91	0.094
920.09	0.094
920.26	0.094
920.44	0.095
920.61	0.095
920.79	0.095
920.96	0.095
921.14	0.096
921.31	0.096
921.49	0.096
921.67	0.096
921.84	0.097
922.02	0.097
922.19	0.097
922.37	0.097
922.54	0.097
922.72	0.098
922.89	0.099
923.07	0.099
923.24	0.099
923.42	0.099
923.59	0.099
923.77	0.099
923.94	0.100
924.12	0.100
924.29	0.101
924.47	0.101
924.64	0.101
924.82	0.101
924.99	0.101
925.17	0.102
925.34	0.102
925.52	0.102
925.69	0.103
925.87	0.103
926.04	0.103
926.22	0.103
926.39	0.104
926.57	0.104
926.74	0.104
926.91	0.104
927.09	0.105
927.26	0.104
927.44	0.105
927.61	0.105
927.79	0.105
927.96	0.106
928.14	0.106
928.31	0.106
928.49	0.106
928.66	0.107
928.84	0.108
929.01	0.108
929.18	0.109
929.36	0.109
929.53	0.110
929.71	0.110
929.88	0.111
930.06	0.111
930.23	0.112
930.41	0.112
930.58	0.113
930.75	0.113
930.93	0.114
931.10	0.114
931.28	0.114
931.45	0.115
931.63	0.115
931.80	0.115
931.97	0.116
932.15	0.116
932.32	0.116
932.50	0.117
932.67	0.117
932.84	0.118
933.02	0.119
933.19	0.119
933.37	0.119
933.54	0.120
933.71	0.120
933.89	0.121
934.06	0.121
934.24	0.122
934.41	0.122
934.58	0.123
934.76	0.123
934.93	0.124
935.11	0.124
935.28	0.124
935.45	0.125
935.63	0.125
935.80	0.125
935.98	0.126
936.15	0.126
936.32	0.126
936.50	0.127
936.67	0.127
936.84	0.127
937.02	0.128
937.19	0.129
937.36	0.129
937.54	0.130
937.71	0.131
937.89	0.131
938.06	0.132
938.23	0.132
938.41	0.133
938.58	0.134
938.75	0.134
938.93	0.135
939.10	0.135
939.27	0.135
939.45	0.136
939.62	0.137
939.79	0.138
939.97	0.138
940.14	0.138
940.31	0.139
940.49	0.140
940.66	0.140
940.83	0.141
941.01	0.142
941.18	0.143
941.35	0.143
941.53	0.144
941.70	0.145
941.87	0.145
942.05	0.146
942.22	0.147
942.39	0.148
942.57	0.148
942.74	0.149
942.91	0.149
943.08	0.149
943.26	0.150
943.43	0.151
943.60	0.151
943.78	0.152
943.95	0.153
944.12	0.153
944.29	0.153
944.47	0.154
944.64	0.155
944.81	0.156
944.99	0.156
945.16	0.157
945.33	0.157
945.50	0.158
945.68	0.159
945.85	0.160
946.02	0.161
946.20	0.162
946.37	0.163
946.54	0.164
946.71	0.165
946.89	0.166
947.06	0.166
947.23	0.167
947.40	0.168
947.58	0.168
947.75	0.170
947.92	0.170
948.09	0.170
948.27	0.171
948.44	0.173
948.61	0.174
948.78	0.175
948.96	0.177
949.13	0.178
949.30	0.179
949.47	0.179
949.65	0.181
949.82	0.183
949.99	0.184
950.16	0.186
950.33	0.186
950.51	0.187
950.68	0.189
950.85	0.189
951.02	0.190
951.20	0.191
951.37	0.193
951.54	0.193
951.71	0.195
951.88	0.196
952.06	0.197
952.23	0.197
952.40	0.199
952.57	0.200
952.74	0.201
952.92	0.202
953.09	0.204
953.26	0.205
953.43	0.206
953.60	0.207
953.77	0.209
953.95	0.210
954.12	0.212
954.29	0.213
954.46	0.215
954.63	0.216
954.81	0.217
954.98	0.218
955.15	0.220
955.32	0.221
955.49	0.221
955.66	0.222
955.84	0.223
956.01	0.223
956.18	0.226
956.35	0.226
956.52	0.226
956.69	0.228
956.87	0.228
957.04	0.229
957.21	0.231
957.38	0.231
957.55	0.233
957.72	0.234
957.89	0.235
958.07	0.234
958.24	0.237
958.41	0.239
958.58	0.238
958.75	0.239
958.92	0.241
959.09	0.242
959.26	0.243
959.44	0.244
959.61	0.245
959.78	0.246
959.95	0.247
960.12	0.247
960.29	0.249
960.46	0.249
960.63	0.249
960.81	0.249
960.98	0.250
961.15	0.250
961.32	0.251
961.49	0.250
961.66	0.252
961.83	0.252
962.00	0.252
962.17	0.253
962.34	0.253
962.52	0.254
962.69	0.255
962.86	0.254
963.03	0.255
963.20	0.255
963.37	0.255
963.54	0.255
963.71	0.256
963.88	0.255
964.05	0.256
964.22	0.257
964.39	0.256
964.56	0.256
964.74	0.257
964.91	0.256
965.08	0.257
965.25	0.257
965.42	0.257
965.59	0.258
965.76	0.258
965.93	0.259
966.10	0.257
966.27	0.258
966.44	0.258
966.61	0.259
966.78	0.259
966.95	0.259
967.12	0.260
967.29	0.261
967.46	0.261
967.63	0.260
967.80	0.261
967.97	0.261
968.14	0.261
968.32	0.262
968.49	0.262
968.66	0.260
968.83	0.261
969.00	0.261
969.17	0.261
969.34	0.262
969.51	0.263
969.68	0.262
969.85	0.262
970.02	0.262
970.19	0.262
970.36	0.262
970.53	0.263
970.70	0.261
970.87	0.262
971.04	0.261
971.21	0.262
971.38	0.262
971.55	0.262
971.72	0.262
971.89	0.262
972.06	0.261
972.23	0.261
972.40	0.262
972.57	0.261
972.74	0.261
972.91	0.262
973.07	0.262
973.24	0.261
973.41	0.261
973.58	0.260
973.75	0.273
973.92	0.261
974.09	0.261
974.26	0.260
974.43	0.260
974.60	0.261
974.77	0.262
974.94	0.261
975.11	0.262
975.28	0.263
975.45	0.261
975.62	0.262
975.79	0.264
975.96	0.262
976.13	0.261
976.30	0.263
976.47	0.261
976.64	0.262
976.80	0.263
976.97	0.262
977.14	0.262
977.31	0.263
977.48	0.263
977.65	0.262
977.82	0.262
977.99	0.263
978.16	0.262
978.33	0.262
978.50	0.262
978.67	0.262
978.83	0.262
979.00	0.262
979.17	0.261
979.34	0.260
979.51	0.260
979.68	0.261
979.85	0.260
980.02	0.261
980.19	0.259
980.36	0.259
980.52	0.260
980.69	0.258
980.86	0.258
981.03	0.257
981.20	0.256
981.37	0.257
981.54	0.257
981.71	0.256
981.88	0.256
982.04	0.255
982.21	0.255
982.38	0.257
982.55	0.256
982.72	0.255
982.89	0.257
983.06	0.255
983.22	0.255
983.39	0.256
983.56	0.255
983.73	0.255
983.90	0.254
984.07	0.256
984.24	0.254
984.40	0.254
984.57	0.253
984.74	0.254
984.91	0.255
985.08	0.254
985.25	0.251
985.41	0.252
985.58	0.252
985.75	0.253
985.92	0.252
986.09	0.251
986.26	0.251
986.42	0.250
986.59	0.249
986.76	0.250
986.93	0.250
987.10	0.250
987.27	0.247
987.43	0.246
987.60	0.247
987.77	0.247
987.94	0.246
988.11	0.246
988.27	0.246
988.44	0.246
988.61	0.244
988.78	0.242
988.95	0.243
989.11	0.245
989.28	0.243
989.45	0.242
989.62	0.242
989.79	0.243
989.95	0.241
990.12	0.243
990.29	0.243
990.46	0.241
990.62	0.240
990.79	0.240
990.96	0.240
991.13	0.241
991.30	0.240
991.46	0.239
991.63	0.238
991.80	0.237
991.97	0.237
992.13	0.237
992.30	0.238
992.47	0.237
992.64	0.236
992.80	0.235
992.97	0.235
993.14	0.233
993.31	0.231
993.47	0.234
993.64	0.232
993.81	0.232
993.98	0.231
994.14	0.230
994.31	0.229
994.48	0.231
994.64	0.231
994.81	0.230
994.98	0.230
995.15	0.228
995.31	0.228
995.48	0.227
995.65	0.230
995.82	0.227
995.98	0.227
996.15	0.228
996.32	0.229
996.48	0.227
996.65	0.227
996.82	0.224
996.99	0.225
997.15	0.225
997.32	0.226
997.49	0.224
997.65	0.225
997.82	0.224
997.99	0.223
998.15	0.223
998.32	0.224
998.49	0.223
998.65	0.223
998.82	0.222
998.99	0.220
999.15	0.220
999.32	0.219
999.49	0.219
999.65	0.220
999.82	0.217
999.99	0.218
1000.15	0.218
1000.32	0.218
1000.49	0.219
1000.65	0.217
1000.82	0.216
1000.99	0.216
1001.15	0.216
1001.32	0.216
1001.49	0.216
1001.65	0.215
1001.82	0.217
1001.99	0.214
1002.15	0.213
1002.32	0.213
1002.49	0.215
1002.65	0.214
1002.82	0.213
1002.99	0.213
1003.15	0.214
1003.32	0.213
1003.48	0.214
1003.65	0.214
1003.82	0.212
1003.98	0.210
1004.15	0.209
1004.32	0.209
1004.48	0.209
1004.65	0.210
1004.81	0.207
1004.98	0.206
1005.15	0.206
1005.31	0.205
1005.48	0.203
1005.64	0.204
1005.81	0.206
1005.98	0.204
1006.14	0.204
1006.31	0.204
1006.47	0.203
1006.64	0.202
1006.81	0.202
1006.97	0.202
1007.14	0.201
1007.30	0.202
1007.47	0.202
1007.63	0.199
1007.80	0.197
1007.97	0.197
1008.13	0.197
1008.30	0.197
1008.46	0.197
1008.63	0.196
1008.79	0.196
1008.96	0.197
1009.13	0.198
1009.29	0.195
1009.46	0.195
1009.62	0.195
1009.79	0.193
1009.95	0.194
1010.12	0.194
1010.28	0.194
1010.45	0.192
1010.62	0.191
1010.78	0.189
1010.95	0.188
1011.11	0.189
1011.28	0.189
1011.44	0.191
1011.61	0.189
1011.77	0.188
1011.94	0.188
1012.10	0.188
1012.27	0.189
1012.43	0.189
1012.60	0.187
1012.76	0.188
1012.93	0.187
1013.10	0.185
1013.26	0.183
1013.43	0.185
1013.59	0.192
1013.76	0.183
1013.92	0.182
1014.09	0.180
1014.25	0.181
1014.42	0.181
1014.58	0.180
1014.75	0.182
1014.91	0.181
1015.08	0.183
1015.24	0.179
1015.41	0.181
1015.57	0.182
1015.73	0.181
1015.90	0.179
1016.06	0.181
1016.23	0.180
1016.39	0.182
1016.56	0.182
1016.72	0.182
1016.89	0.181
1017.05	0.183
1017.22	0.179
1017.38	0.179
1017.55	0.177
1017.71	0.179
1017.88	0.178
1018.04	0.179
1018.21	0.175
1018.37	0.175
1018.53	0.174
1018.70	0.173
1018.86	0.172
1019.03	0.175
1019.19	0.173
1019.36	0.173
1019.52	0.174
1019.69	0.174
1019.85	0.172
1020.01	0.172
1020.18	0.171
1020.34	0.171
1020.51	0.170
1020.67	0.171
1020.84	0.169
1021.00	0.171
1021.16	0.168
1021.33	0.168
1021.49	0.167
1021.66	0.169
1021.82	0.167
1021.98	0.167
1022.15	0.167
1022.31	0.167
1022.48	0.165
1022.64	0.167
1022.80	0.164
1022.97	0.163
1023.13	0.162
1023.30	0.163
1023.46	0.164
1023.62	0.161
1023.79	0.162
1023.95	0.162
1024.12	0.162
1024.28	0.161
1024.44	0.161
1024.61	0.159
1024.77	0.160
1024.93	0.160
1025.10	0.161
1025.26	0.158
1025.43	0.160
1025.59	0.155
1025.75	0.159
1025.92	0.158
1026.08	0.158
1026.24	0.158
1026.41	0.159
1026.57	0.157
1026.73	0.155
1026.90	0.156
1027.06	0.154
1027.23	0.155
1027.39	0.155
1027.55	0.155
1027.72	0.154
1027.88	0.154
1028.04	0.153
1028.21	0.154
1028.37	0.148
1028.53	0.152
1028.70	0.152
1028.86	0.151
1029.02	0.150
1029.19	0.152
1029.35	0.149
1029.51	0.149
1029.67	0.148
1029.84	0.150
1030.00	0.145
1030.16	0.146
1030.33	0.148
1030.49	0.145
1030.65	0.143
1030.82	0.160
1030.98	0.146
1031.14	0.146
1031.31	0.145
1031.47	0.142
1031.63	0.145
1031.79	0.144
1031.96	0.146
1032.12	0.147
1032.28	0.144
1032.45	0.147
1032.61	0.144
1032.77	0.143
1032.93	0.141
1033.10	0.143
1033.26	0.145
1033.42	0.144
1033.58	0.143
1033.75	0.143
1033.91	0.142
1034.07	0.145
1034.24	0.143
1034.40	0.142
1034.56	0.142
1034.72	0.142
1034.89	0.143
1035.05	0.140
1035.21	0.140
1035.37	0.139
1035.54	0.142
1035.70	0.139
1035.86	0.138
1036.02	0.141
1036.19	0.138
1036.35	0.135
1036.51	0.140
1036.67	0.137
1036.83	0.137
1037.00	0.135
1037.16	0.135
1037.32	0.136
1037.48	0.135
1037.65	0.138
1037.81	0.133
1037.97	0.133
1038.13	0.133
1038.29	0.131
1038.46	0.128
1038.62	0.132
1038.78	0.130
1038.94	0.128
1039.10	0.131
1039.27	0.126
1039.43	0.128
1039.59	0.129
1039.75	0.129
1039.91	0.128
1040.08	0.129
1040.24	0.132
1040.40	0.134
1040.56	0.132
1040.72	0.127
1040.89	0.130
1041.05	0.133
1041.21	0.131
1041.37	0.128
1041.53	0.134
1041.69	0.132
1041.86	0.131
1042.02	0.128
1042.18	0.127
1042.34	0.128
1042.50	0.133
1042.66	0.130
1042.83	0.128
1042.99	0.132
1043.15	0.127
1043.31	0.127
1043.47	0.131
1043.63	0.128
1043.79	0.127
1043.96	0.129
1044.12	0.133
1044.28	0.131
1044.44	0.132
1044.60	0.127
1044.76	0.125
1044.92	0.128
1045.09	0.129
1045.25	0.126
1045.41	0.127
1045.57	0.124
1045.73	0.124
1045.89	0.124
1046.05	0.125
1046.21	0.127
1046.38	0.131
1046.54	0.134
1046.70	0.126
1046.86	0.119
>>>>>End Processed Spectral Data<<<<<
