SpectraSuite Data File
++++++++++++++++++++++++++++++++++++
Date: Mon May 20 12:12:56 CDT 2013
User: Students
Dark Spectrum Present: Yes
Reference Spectrum Present: Yes
Number of Sampled Component Spectra: 1
Spectrometers: USB4H00887
Integration Time (usec): 60000 (USB4H00887)
Spectra Averaged: 5 (USB4H00887)
Boxcar Smoothing: 5 (USB4H00887)
Correct for Electrical Dark: No (USB4H00887)
Strobe/Lamp Enabled: No (USB4H00887)
Correct for Detector Non-linearity: No (USB4H00887)
Correct for Stray Light: No (USB4H00887)
Number of Pixels in Processed Spectrum: 3648
>>>>>Begin Processed Spectral Data<<<<<
345.83	0.194
346.05	0.194
346.26	0.194
346.48	-0.000
346.70	0.342
346.92	0.070
347.14	0.090
347.35	0.107
347.57	-0.000
347.79	-0.343
348.01	-0.231
348.23	-0.390
348.44	-0.000
348.66	0.381
348.88	-0.385
349.10	-0.174
349.32	0.064
349.53	0.025
349.75	0.097
349.97	0.056
350.19	0.096
350.41	0.089
350.62	-0.177
350.84	0.016
351.06	0.015
351.28	0.014
351.50	-0.057
351.71	0.004
351.93	0.020
352.15	0.000
352.37	0.029
352.58	0.014
352.80	0.027
353.02	0.066
353.24	0.096
353.46	0.311
353.67	-0.035
353.89	0.025
354.11	0.022
354.33	0.017
354.54	0.053
354.76	0.096
354.98	0.105
355.20	0.096
355.41	0.051
355.63	0.085
355.85	0.073
356.07	1.563
356.28	0.084
356.50	0.135
356.72	0.053
356.94	0.089
357.15	0.113
357.37	-0.000
357.59	0.057
357.81	0.029
358.02	0.029
358.24	0.014
358.46	0.083
358.68	0.078
358.89	0.055
359.11	-0.000
359.33	0.065
359.55	-0.493
359.76	0.104
359.98	0.133
360.20	0.136
360.42	0.142
360.63	0.184
360.85	0.100
361.07	0.372
361.29	0.090
361.50	0.313
361.72	0.103
361.94	0.364
362.15	0.154
362.37	0.079
362.59	0.089
362.81	0.135
363.02	0.220
363.24	0.373
363.46	0.213
363.68	0.249
363.89	0.153
364.11	0.235
364.33	0.328
364.54	0.191
364.76	0.224
364.98	0.169
365.20	0.194
365.41	0.114
365.63	0.140
365.85	0.097
366.06	0.291
366.28	0.281
366.50	0.177
366.71	0.066
366.93	0.080
367.15	0.108
367.37	0.125
367.58	0.157
367.80	0.180
368.02	0.525
368.23	0.181
368.45	0.162
368.67	0.132
368.88	0.126
369.10	-0.000
369.32	0.141
369.53	0.082
369.75	0.144
369.97	0.303
370.19	0.185
370.40	0.085
370.62	0.225
370.84	0.089
371.05	0.412
371.27	0.103
371.49	0.128
371.70	0.140
371.92	0.202
372.14	0.098
372.35	0.126
372.57	0.145
372.79	0.316
373.00	0.072
373.22	0.141
373.44	0.159
373.65	0.126
373.87	0.166
374.09	1.099
374.30	0.157
374.52	0.157
374.74	0.100
374.95	0.362
375.17	0.124
375.39	-0.000
375.60	0.124
375.82	0.210
376.04	0.089
376.25	0.101
376.47	0.057
376.68	0.117
376.90	0.087
377.12	0.203
377.33	0.116
377.55	0.235
377.77	0.112
377.98	0.192
378.20	0.116
378.42	0.144
378.63	0.200
378.85	-0.000
379.07	0.129
379.28	0.405
379.50	0.240
379.71	0.155
379.93	0.114
380.15	0.150
380.36	0.223
380.58	0.155
380.80	0.454
381.01	0.151
381.23	0.125
381.44	0.134
381.66	0.159
381.88	0.202
382.09	-0.080
382.31	0.118
382.53	0.128
382.74	0.652
382.96	0.179
383.17	0.147
383.39	0.179
383.61	0.238
383.82	0.181
384.04	0.198
384.25	0.254
384.47	0.247
384.69	0.245
384.90	0.234
385.12	0.529
385.33	0.344
385.55	0.251
385.77	0.360
385.98	0.196
386.20	0.277
386.41	0.259
386.63	0.293
386.85	0.228
387.06	0.276
387.28	0.426
387.49	0.271
387.71	0.175
387.93	0.163
388.14	0.536
388.36	0.201
388.57	0.178
388.79	0.191
389.01	0.981
389.22	0.263
389.44	0.223
389.65	0.179
389.87	0.170
390.08	0.208
390.30	0.157
390.52	0.296
390.73	0.293
390.95	0.201
391.16	0.212
391.38	-0.000
391.59	0.202
391.81	0.170
392.03	0.156
392.24	0.196
392.46	0.173
392.67	0.155
392.89	0.214
393.10	0.301
393.32	0.230
393.53	0.243
393.75	0.168
393.97	0.200
394.18	0.287
394.40	0.259
394.61	0.251
394.83	0.211
395.04	0.251
395.26	0.167
395.47	0.241
395.69	0.187
395.91	0.196
396.12	0.230
396.34	0.240
396.55	0.159
396.77	0.228
396.98	0.628
397.20	0.268
397.41	0.307
397.63	0.219
397.84	0.220
398.06	0.209
398.27	0.215
398.49	0.242
398.71	0.180
398.92	0.216
399.14	0.274
399.35	0.345
399.57	0.328
399.78	0.223
400.00	0.219
400.21	0.259
400.43	0.221
400.64	0.231
400.86	0.466
401.07	0.269
401.29	0.229
401.50	0.235
401.72	0.310
401.93	0.206
402.15	0.244
402.36	0.232
402.58	0.197
402.79	0.208
403.01	0.325
403.22	0.265
403.44	0.197
403.65	0.289
403.87	0.311
404.08	0.248
404.30	0.391
404.51	0.232
404.73	0.263
404.94	0.229
405.16	0.233
405.37	0.181
405.59	0.298
405.80	0.194
406.02	0.224
406.23	0.230
406.45	0.257
406.66	0.267
406.88	0.190
407.09	0.275
407.31	0.226
407.52	0.265
407.74	0.226
407.95	0.254
408.17	0.246
408.38	0.264
408.60	0.185
408.81	0.281
409.03	0.217
409.24	0.216
409.45	0.245
409.67	0.232
409.88	0.212
410.10	0.252
410.31	0.213
410.53	0.202
410.74	0.270
410.96	0.262
411.17	0.270
411.39	0.223
411.60	0.208
411.82	0.229
412.03	0.224
412.24	0.211
412.46	0.290
412.67	0.254
412.89	0.250
413.10	0.248
413.32	0.231
413.53	0.266
413.75	0.278
413.96	0.222
414.17	0.285
414.39	0.287
414.60	0.255
414.82	0.318
415.03	0.262
415.25	0.283
415.46	0.204
415.68	0.274
415.89	0.405
416.10	0.357
416.32	0.222
416.53	0.244
416.75	0.244
416.96	0.272
417.18	0.236
417.39	0.230
417.60	0.230
417.82	0.310
418.03	0.281
418.25	0.247
418.46	0.245
418.67	0.233
418.89	0.249
419.10	0.249
419.32	0.319
419.53	0.306
419.75	0.272
419.96	0.245
420.17	0.282
420.39	0.264
420.60	0.269
420.82	0.316
421.03	0.277
421.24	0.238
421.46	0.256
421.67	0.265
421.89	0.239
422.10	0.250
422.31	0.246
422.53	0.318
422.74	0.262
422.96	0.222
423.17	0.243
423.38	0.276
423.60	0.254
423.81	0.299
424.03	0.268
424.24	0.279
424.45	0.276
424.67	0.279
424.88	0.250
425.09	0.264
425.31	0.248
425.52	0.253
425.74	0.279
425.95	0.289
426.16	0.244
426.38	0.270
426.59	0.257
426.80	0.288
427.02	0.297
427.23	0.254
427.45	0.303
427.66	0.304
427.87	0.257
428.09	0.268
428.30	0.295
428.51	0.292
428.73	0.309
428.94	0.282
429.15	0.273
429.37	0.265
429.58	0.273
429.79	0.261
430.01	0.294
430.22	0.290
430.44	0.294
430.65	0.268
430.86	0.283
431.08	0.279
431.29	0.267
431.50	0.304
431.72	0.353
431.93	0.312
432.14	0.256
432.36	0.273
432.57	0.278
432.78	0.284
433.00	0.269
433.21	0.263
433.42	0.307
433.64	0.280
433.85	0.305
434.06	0.273
434.28	0.288
434.49	0.294
434.70	0.302
434.92	0.311
435.13	0.327
435.34	0.330
435.56	0.321
435.77	0.320
435.98	0.372
436.20	0.327
436.41	0.294
436.62	0.289
436.83	0.315
437.05	0.330
437.26	0.300
437.47	0.276
437.69	0.292
437.90	0.274
438.11	0.271
438.33	0.288
438.54	0.296
438.75	0.343
438.97	0.343
439.18	0.290
439.39	0.302
439.60	0.319
439.82	0.307
440.03	0.297
440.24	0.379
440.46	0.319
440.67	0.312
440.88	0.328
441.10	0.314
441.31	0.310
441.52	0.329
441.73	0.353
441.95	0.325
442.16	0.309
442.37	0.395
442.58	0.304
442.80	0.299
443.01	0.354
443.22	0.335
443.44	0.302
443.65	0.338
443.86	0.334
444.07	0.347
444.29	0.319
444.50	0.368
444.71	0.311
444.92	0.294
445.14	0.344
445.35	0.359
445.56	0.310
445.78	0.347
445.99	0.343
446.20	0.312
446.41	0.339
446.63	0.341
446.84	0.328
447.05	0.326
447.26	0.364
447.48	0.329
447.69	0.316
447.90	0.345
448.11	0.318
448.33	0.327
448.54	0.336
448.75	0.345
448.96	0.343
449.18	0.355
449.39	0.335
449.60	0.333
449.81	0.371
450.03	0.340
450.24	0.357
450.45	0.345
450.66	0.341
450.87	0.349
451.09	0.335
451.30	0.332
451.51	0.356
451.72	0.362
451.94	0.363
452.15	0.383
452.36	0.344
452.57	0.349
452.78	0.348
453.00	0.357
453.21	0.345
453.42	0.338
453.63	0.367
453.85	0.359
454.06	0.355
454.27	0.389
454.48	0.363
454.69	0.344
454.91	0.365
455.12	0.336
455.33	0.363
455.54	0.368
455.75	0.362
455.97	0.367
456.18	0.363
456.39	0.364
456.60	0.369
456.81	0.356
457.03	0.358
457.24	0.356
457.45	0.381
457.66	0.364
457.87	0.350
458.09	0.354
458.30	0.331
458.51	0.367
458.72	0.379
458.93	0.384
459.15	0.355
459.36	0.377
459.57	0.384
459.78	0.397
459.99	0.374
460.20	0.365
460.42	0.389
460.63	0.376
460.84	0.373
461.05	0.376
461.26	0.393
461.47	0.372
461.69	0.384
461.90	0.396
462.11	0.386
462.32	0.403
462.53	0.387
462.74	0.413
462.96	0.380
463.17	0.376
463.38	0.386
463.59	0.413
463.80	0.373
464.01	0.384
464.23	0.406
464.44	0.396
464.65	0.398
464.86	0.406
465.07	0.410
465.28	0.401
465.49	0.408
465.71	0.397
465.92	0.409
466.13	0.422
466.34	0.401
466.55	0.416
466.76	0.405
466.97	0.409
467.19	0.403
467.40	0.414
467.61	0.416
467.82	0.395
468.03	0.390
468.24	0.410
468.45	0.420
468.66	0.417
468.88	0.420
469.09	0.423
469.30	0.435
469.51	0.419
469.72	0.427
469.93	0.421
470.14	0.415
470.35	0.439
470.57	0.425
470.78	0.409
470.99	0.442
471.20	0.426
471.41	0.413
471.62	0.425
471.83	0.418
472.04	0.427
472.25	0.439
472.47	0.421
472.68	0.420
472.89	0.423
473.10	0.434
473.31	0.423
473.52	0.438
473.73	0.447
473.94	0.431
474.15	0.439
474.36	0.438
474.57	0.445
474.79	0.439
475.00	0.441
475.21	0.437
475.42	0.461
475.63	0.437
475.84	0.447
476.05	0.448
476.26	0.439
476.47	0.447
476.68	0.458
476.89	0.441
477.10	0.455
477.32	0.452
477.53	0.465
477.74	0.445
477.95	0.455
478.16	0.443
478.37	0.454
478.58	0.456
478.79	0.460
479.00	0.461
479.21	0.450
479.42	0.458
479.63	0.459
479.84	0.450
480.05	0.450
480.26	0.458
480.47	0.461
480.69	0.461
480.90	0.453
481.11	0.453
481.32	0.467
481.53	0.453
481.74	0.468
481.95	0.460
482.16	0.464
482.37	0.465
482.58	0.459
482.79	0.465
483.00	0.471
483.21	0.458
483.42	0.450
483.63	0.470
483.84	0.475
484.05	0.472
484.26	0.467
484.47	0.467
484.68	0.460
484.89	0.460
485.10	0.471
485.31	0.467
485.52	0.469
485.73	0.471
485.94	0.480
486.15	0.468
486.37	0.473
486.58	0.465
486.79	0.467
487.00	0.478
487.21	0.478
487.42	0.477
487.63	0.479
487.84	0.483
488.05	0.481
488.26	0.473
488.47	0.476
488.68	0.482
488.89	0.476
489.10	0.474
489.31	0.477
489.52	0.483
489.73	0.476
489.94	0.483
490.15	0.474
490.36	0.484
490.57	0.472
490.78	0.469
490.99	0.478
491.20	0.496
491.41	0.488
491.62	0.474
491.83	0.483
492.04	0.482
492.25	0.486
492.45	0.486
492.66	0.491
492.87	0.488
493.08	0.484
493.29	0.481
493.50	0.479
493.71	0.480
493.92	0.480
494.13	0.482
494.34	0.488
494.55	0.489
494.76	0.496
494.97	0.496
495.18	0.488
495.39	0.492
495.60	0.481
495.81	0.481
496.02	0.486
496.23	0.485
496.44	0.494
496.65	0.492
496.86	0.492
497.07	0.498
497.28	0.496
497.49	0.485
497.70	0.487
497.91	0.491
498.12	0.486
498.32	0.496
498.53	0.494
498.74	0.491
498.95	0.497
499.16	0.489
499.37	0.491
499.58	0.494
499.79	0.502
500.00	0.501
500.21	0.508
500.42	0.496
500.63	0.497
500.84	0.501
501.05	0.496
501.26	0.502
501.46	0.509
501.67	0.501
501.88	0.502
502.09	0.495
502.30	0.497
502.51	0.508
502.72	0.498
502.93	0.501
503.14	0.506
503.35	0.499
503.56	0.499
503.77	0.507
503.97	0.501
504.18	0.499
504.39	0.507
504.60	0.500
504.81	0.507
505.02	0.504
505.23	0.505
505.44	0.501
505.65	0.502
505.86	0.498
506.07	0.512
506.27	0.505
506.48	0.508
506.69	0.505
506.90	0.509
507.11	0.509
507.32	0.504
507.53	0.505
507.74	0.504
507.95	0.509
508.15	0.510
508.36	0.511
508.57	0.512
508.78	0.507
508.99	0.507
509.20	0.502
509.41	0.508
509.62	0.504
509.82	0.504
510.03	0.507
510.24	0.506
510.45	0.511
510.66	0.509
510.87	0.508
511.08	0.499
511.29	0.509
511.49	0.504
511.70	0.514
511.91	0.499
512.12	0.498
512.33	0.506
512.54	0.510
512.75	0.506
512.95	0.512
513.16	0.512
513.37	0.506
513.58	0.515
513.79	0.506
514.00	0.508
514.20	0.513
514.41	0.511
514.62	0.502
514.83	0.511
515.04	0.510
515.25	0.505
515.46	0.508
515.66	0.509
515.87	0.511
516.08	0.504
516.29	0.509
516.50	0.504
516.71	0.503
516.91	0.505
517.12	0.509
517.33	0.506
517.54	0.502
517.75	0.502
517.95	0.504
518.16	0.506
518.37	0.500
518.58	0.502
518.79	0.496
519.00	0.503
519.20	0.504
519.41	0.498
519.62	0.502
519.83	0.505
520.04	0.497
520.24	0.496
520.45	0.498
520.66	0.504
520.87	0.495
521.08	0.494
521.28	0.495
521.49	0.499
521.70	0.492
521.91	0.495
522.12	0.490
522.32	0.495
522.53	0.491
522.74	0.488
522.95	0.489
523.16	0.489
523.36	0.492
523.57	0.487
523.78	0.485
523.99	0.487
524.20	0.485
524.40	0.488
524.61	0.490
524.82	0.484
525.03	0.485
525.23	0.485
525.44	0.482
525.65	0.481
525.86	0.487
526.06	0.481
526.27	0.481
526.48	0.483
526.69	0.478
526.90	0.480
527.10	0.488
527.31	0.476
527.52	0.474
527.73	0.472
527.93	0.474
528.14	0.475
528.35	0.472
528.56	0.472
528.76	0.470
528.97	0.467
529.18	0.464
529.39	0.464
529.59	0.465
529.80	0.473
530.01	0.465
530.22	0.465
530.42	0.456
530.63	0.461
530.84	0.454
531.05	0.458
531.25	0.459
531.46	0.457
531.67	0.451
531.88	0.457
532.08	0.454
532.29	0.453
532.50	0.451
532.70	0.449
532.91	0.446
533.12	0.448
533.33	0.456
533.53	0.447
533.74	0.446
533.95	0.448
534.15	0.445
534.36	0.447
534.57	0.442
534.78	0.442
534.98	0.446
535.19	0.437
535.40	0.437
535.60	0.443
535.81	0.437
536.02	0.438
536.23	0.435
536.43	0.435
536.64	0.431
536.85	0.434
537.05	0.437
537.26	0.429
537.47	0.430
537.67	0.427
537.88	0.425
538.09	0.427
538.30	0.422
538.50	0.419
538.71	0.423
538.92	0.418
539.12	0.418
539.33	0.416
539.54	0.416
539.74	0.419
539.95	0.416
540.16	0.416
540.36	0.413
540.57	0.413
540.78	0.411
540.98	0.411
541.19	0.410
541.40	0.405
541.60	0.410
541.81	0.409
542.02	0.409
542.22	0.405
542.43	0.403
542.64	0.402
542.84	0.403
543.05	0.400
543.26	0.402
543.46	0.403
543.67	0.403
543.88	0.402
544.08	0.397
544.29	0.395
544.50	0.395
544.70	0.396
544.91	0.393
545.12	0.393
545.32	0.392
545.53	0.393
545.74	0.388
545.94	0.387
546.15	0.387
546.35	0.387
546.56	0.386
546.77	0.385
546.97	0.383
547.18	0.381
547.39	0.381
547.59	0.381
547.80	0.380
548.01	0.383
548.21	0.381
548.42	0.378
548.62	0.378
548.83	0.377
549.04	0.376
549.24	0.374
549.45	0.374
549.65	0.372
549.86	0.370
550.07	0.371
550.27	0.370
550.48	0.374
550.69	0.368
550.89	0.368
551.10	0.367
551.30	0.366
551.51	0.367
551.72	0.361
551.92	0.363
552.13	0.364
552.33	0.364
552.54	0.362
552.75	0.359
552.95	0.361
553.16	0.358
553.36	0.357
553.57	0.357
553.78	0.356
553.98	0.357
554.19	0.352
554.39	0.351
554.60	0.353
554.80	0.354
555.01	0.350
555.22	0.351
555.42	0.350
555.63	0.348
555.83	0.350
556.04	0.347
556.25	0.349
556.45	0.344
556.66	0.344
556.86	0.346
557.07	0.344
557.27	0.344
557.48	0.341
557.68	0.341
557.89	0.341
558.10	0.340
558.30	0.338
558.51	0.338
558.71	0.337
558.92	0.335
559.12	0.337
559.33	0.340
559.54	0.337
559.74	0.336
559.95	0.335
560.15	0.335
560.36	0.334
560.56	0.331
560.77	0.331
560.97	0.332
561.18	0.329
561.38	0.329
561.59	0.330
561.79	0.329
562.00	0.328
562.21	0.327
562.41	0.326
562.62	0.326
562.82	0.326
563.03	0.324
563.23	0.324
563.44	0.325
563.64	0.323
563.85	0.325
564.05	0.320
564.26	0.320
564.46	0.320
564.67	0.321
564.87	0.318
565.08	0.317
565.28	0.317
565.49	0.318
565.69	0.316
565.90	0.314
566.10	0.316
566.31	0.311
566.51	0.313
566.72	0.314
566.92	0.309
567.13	0.310
567.33	0.310
567.54	0.310
567.74	0.309
567.95	0.307
568.15	0.309
568.36	0.309
568.56	0.309
568.77	0.306
568.97	0.306
569.18	0.306
569.38	0.305
569.59	0.307
569.79	0.305
570.00	0.303
570.20	0.303
570.41	0.303
570.61	0.302
570.82	0.303
571.02	0.301
571.23	0.303
571.43	0.300
571.64	0.299
571.84	0.299
572.05	0.298
572.25	0.298
572.45	0.297
572.66	0.294
572.86	0.294
573.07	0.293
573.27	0.293
573.48	0.293
573.68	0.290
573.89	0.290
574.09	0.291
574.30	0.291
574.50	0.290
574.70	0.291
574.91	0.290
575.11	0.290
575.32	0.290
575.52	0.288
575.73	0.289
575.93	0.289
576.14	0.289
576.34	0.288
576.54	0.287
576.75	0.286
576.95	0.286
577.16	0.285
577.36	0.285
577.57	0.285
577.77	0.284
577.97	0.282
578.18	0.283
578.38	0.280
578.59	0.280
578.79	0.279
579.00	0.280
579.20	0.279
579.40	0.278
579.61	0.278
579.81	0.277
580.02	0.275
580.22	0.276
580.42	0.275
580.63	0.276
580.83	0.275
581.04	0.273
581.24	0.273
581.45	0.272
581.65	0.272
581.85	0.272
582.06	0.271
582.26	0.271
582.47	0.270
582.67	0.270
582.87	0.270
583.08	0.269
583.28	0.270
583.48	0.269
583.69	0.267
583.89	0.267
584.10	0.268
584.30	0.267
584.50	0.266
584.71	0.266
584.91	0.265
585.12	0.264
585.32	0.265
585.52	0.263
585.73	0.262
585.93	0.262
586.13	0.262
586.34	0.262
586.54	0.262
586.75	0.261
586.95	0.260
587.15	0.261
587.36	0.260
587.56	0.259
587.76	0.259
587.97	0.259
588.17	0.257
588.37	0.258
588.58	0.258
588.78	0.255
588.98	0.256
589.19	0.255
589.39	0.254
589.60	0.256
589.80	0.254
590.00	0.253
590.21	0.254
590.41	0.253
590.61	0.252
590.82	0.252
591.02	0.252
591.22	0.251
591.43	0.252
591.63	0.251
591.83	0.252
592.04	0.250
592.24	0.251
592.44	0.249
592.65	0.248
592.85	0.249
593.05	0.250
593.26	0.248
593.46	0.248
593.66	0.248
593.86	0.247
594.07	0.245
594.27	0.246
594.47	0.245
594.68	0.245
594.88	0.246
595.08	0.245
595.29	0.246
595.49	0.244
595.69	0.244
595.90	0.243
596.10	0.244
596.30	0.244
596.50	0.243
596.71	0.243
596.91	0.242
597.11	0.242
597.32	0.242
597.52	0.241
597.72	0.241
597.93	0.241
598.13	0.240
598.33	0.241
598.53	0.240
598.74	0.240
598.94	0.239
599.14	0.239
599.35	0.239
599.55	0.239
599.75	0.238
599.95	0.238
600.16	0.238
600.36	0.236
600.56	0.237
600.76	0.237
600.97	0.235
601.17	0.235
601.37	0.236
601.58	0.235
601.78	0.236
601.98	0.235
602.18	0.233
602.39	0.234
602.59	0.234
602.79	0.233
602.99	0.233
603.20	0.232
603.40	0.232
603.60	0.232
603.80	0.231
604.01	0.231
604.21	0.231
604.41	0.230
604.61	0.229
604.82	0.229
605.02	0.229
605.22	0.229
605.42	0.229
605.62	0.229
605.83	0.228
606.03	0.227
606.23	0.228
606.43	0.227
606.64	0.228
606.84	0.227
607.04	0.227
607.24	0.227
607.45	0.227
607.65	0.225
607.85	0.226
608.05	0.225
608.25	0.225
608.46	0.225
608.66	0.225
608.86	0.224
609.06	0.223
609.26	0.222
609.47	0.223
609.67	0.222
609.87	0.223
610.07	0.223
610.28	0.221
610.48	0.221
610.68	0.222
610.88	0.221
611.08	0.222
611.29	0.221
611.49	0.221
611.69	0.221
611.89	0.220
612.09	0.219
612.29	0.219
612.50	0.218
612.70	0.218
612.90	0.218
613.10	0.218
613.30	0.217
613.51	0.217
613.71	0.216
613.91	0.221
614.11	0.216
614.31	0.215
614.51	0.215
614.72	0.215
614.92	0.215
615.12	0.214
615.32	0.215
615.52	0.214
615.72	0.215
615.93	0.215
616.13	0.214
616.33	0.214
616.53	0.213
616.73	0.214
616.93	0.213
617.14	0.213
617.34	0.213
617.54	0.213
617.74	0.213
617.94	0.212
618.14	0.211
618.34	0.211
618.55	0.211
618.75	0.212
618.95	0.212
619.15	0.212
619.35	0.211
619.55	0.210
619.75	0.211
619.96	0.210
620.16	0.211
620.36	0.210
620.56	0.209
620.76	0.209
620.96	0.209
621.16	0.208
621.36	0.207
621.57	0.208
621.77	0.208
621.97	0.207
622.17	0.207
622.37	0.207
622.57	0.207
622.77	0.206
622.97	0.205
623.18	0.205
623.38	0.206
623.58	0.206
623.78	0.206
623.98	0.206
624.18	0.205
624.38	0.204
624.58	0.205
624.78	0.205
624.98	0.205
625.19	0.205
625.39	0.205
625.59	0.204
625.79	0.204
625.99	0.203
626.19	0.203
626.39	0.203
626.59	0.202
626.79	0.202
626.99	0.202
627.19	0.201
627.40	0.202
627.60	0.201
627.80	0.201
628.00	0.202
628.20	0.201
628.40	0.201
628.60	0.200
628.80	0.199
629.00	0.200
629.20	0.199
629.40	0.200
629.60	0.198
629.80	0.198
630.00	0.198
630.20	0.198
630.41	0.197
630.61	0.197
630.81	0.197
631.01	0.198
631.21	0.197
631.41	0.197
631.61	0.197
631.81	0.197
632.01	0.196
632.21	0.196
632.41	0.195
632.61	0.195
632.81	0.195
633.01	0.196
633.21	0.195
633.41	0.196
633.61	0.194
633.81	0.194
634.01	0.194
634.21	0.194
634.41	0.193
634.61	0.194
634.81	0.193
635.01	0.193
635.22	0.193
635.42	0.193
635.62	0.193
635.82	0.193
636.02	0.192
636.22	0.191
636.42	0.191
636.62	0.191
636.82	0.190
637.02	0.190
637.22	0.190
637.42	0.189
637.62	0.189
637.82	0.189
638.02	0.188
638.22	0.188
638.42	0.187
638.62	0.187
638.82	0.187
639.02	0.187
639.22	0.187
639.42	0.186
639.62	0.186
639.82	0.185
640.02	0.186
640.22	0.186
640.42	0.186
640.62	0.186
640.82	0.186
641.02	0.185
641.22	0.186
641.42	0.185
641.61	0.185
641.81	0.185
642.01	0.185
642.21	0.185
642.41	0.185
642.61	0.185
642.81	0.184
643.01	0.183
643.21	0.183
643.41	0.183
643.61	0.183
643.81	0.182
644.01	0.181
644.21	0.181
644.41	0.181
644.61	0.181
644.81	0.181
645.01	0.180
645.21	0.180
645.41	0.180
645.61	0.179
645.81	0.179
646.01	0.178
646.21	0.179
646.40	0.179
646.60	0.179
646.80	0.180
647.00	0.178
647.20	0.178
647.40	0.178
647.60	0.178
647.80	0.177
648.00	0.177
648.20	0.177
648.40	0.176
648.60	0.176
648.80	0.175
649.00	0.175
649.20	0.176
649.39	0.175
649.59	0.175
649.79	0.174
649.99	0.175
650.19	0.174
650.39	0.174
650.59	0.174
650.79	0.173
650.99	0.173
651.19	0.172
651.39	0.172
651.58	0.172
651.78	0.171
651.98	0.171
652.18	0.171
652.38	0.170
652.58	0.171
652.78	0.170
652.98	0.170
653.18	0.171
653.38	0.171
653.57	0.170
653.77	0.170
653.97	0.170
654.17	0.170
654.37	0.169
654.57	0.169
654.77	0.169
654.97	0.168
655.16	0.168
655.36	0.168
655.56	0.167
655.76	0.166
655.96	0.167
656.16	0.166
656.36	0.166
656.56	0.166
656.75	0.166
656.95	0.165
657.15	0.165
657.35	0.165
657.55	0.164
657.75	0.165
657.95	0.165
658.14	0.164
658.34	0.164
658.54	0.164
658.74	0.163
658.94	0.163
659.14	0.163
659.34	0.163
659.53	0.162
659.73	0.162
659.93	0.161
660.13	0.161
660.33	0.161
660.53	0.161
660.72	0.161
660.92	0.160
661.12	0.159
661.32	0.159
661.52	0.159
661.72	0.159
661.91	0.158
662.11	0.159
662.31	0.158
662.51	0.158
662.71	0.158
662.90	0.157
663.10	0.157
663.30	0.157
663.50	0.157
663.70	0.156
663.90	0.156
664.09	0.156
664.29	0.155
664.49	0.155
664.69	0.154
664.89	0.154
665.08	0.154
665.28	0.154
665.48	0.153
665.68	0.153
665.88	0.153
666.07	0.152
666.27	0.153
666.47	0.152
666.67	0.153
666.87	0.153
667.06	0.152
667.26	0.152
667.46	0.152
667.66	0.152
667.85	0.152
668.05	0.152
668.25	0.151
668.45	0.151
668.65	0.151
668.84	0.151
669.04	0.151
669.24	0.150
669.44	0.149
669.63	0.149
669.83	0.149
670.03	0.148
670.23	0.147
670.42	0.147
670.62	0.146
670.82	0.146
671.02	0.146
671.22	0.145
671.41	0.145
671.61	0.145
671.81	0.145
672.01	0.145
672.20	0.144
672.40	0.144
672.60	0.144
672.80	0.144
672.99	0.143
673.19	0.143
673.39	0.143
673.58	0.142
673.78	0.142
673.98	0.142
674.18	0.142
674.37	0.141
674.57	0.141
674.77	0.142
674.97	0.142
675.16	0.142
675.36	0.141
675.56	0.141
675.75	0.140
675.95	0.140
676.15	0.140
676.35	0.140
676.54	0.140
676.74	0.139
676.94	0.139
677.13	0.138
677.33	0.137
677.53	0.138
677.73	0.137
677.92	0.137
678.12	0.137
678.32	0.136
678.51	0.136
678.71	0.136
678.91	0.136
679.11	0.136
679.30	0.136
679.50	0.136
679.70	0.136
679.89	0.136
680.09	0.136
680.29	0.135
680.48	0.135
680.68	0.135
680.88	0.134
681.07	0.134
681.27	0.134
681.47	0.133
681.66	0.133
681.86	0.133
682.06	0.132
682.25	0.132
682.45	0.132
682.65	0.132
682.84	0.131
683.04	0.130
683.24	0.130
683.43	0.130
683.63	0.129
683.83	0.129
684.02	0.129
684.22	0.129
684.42	0.128
684.61	0.128
684.81	0.128
685.01	0.128
685.20	0.128
685.40	0.128
685.60	0.128
685.79	0.128
685.99	0.128
686.19	0.128
686.38	0.128
686.58	0.128
686.77	0.128
686.97	0.127
687.17	0.128
687.36	0.127
687.56	0.126
687.76	0.126
687.95	0.126
688.15	0.126
688.34	0.125
688.54	0.124
688.74	0.124
688.93	0.124
689.13	0.123
689.33	0.124
689.52	0.123
689.72	0.124
689.91	0.123
690.11	0.123
690.31	0.122
690.50	0.122
690.70	0.123
690.89	0.122
691.09	0.122
691.29	0.122
691.48	0.121
691.68	0.121
691.87	0.121
692.07	0.121
692.27	0.120
692.46	0.121
692.66	0.120
692.85	0.120
693.05	0.120
693.25	0.120
693.44	0.119
693.64	0.119
693.83	0.119
694.03	0.119
694.22	0.118
694.42	0.118
694.62	0.118
694.81	0.118
695.01	0.118
695.20	0.118
695.40	0.117
695.59	0.117
695.79	0.117
695.99	0.117
696.18	0.117
696.38	0.117
696.57	0.117
696.77	0.116
696.96	0.116
697.16	0.116
697.36	0.116
697.55	0.115
697.75	0.115
697.94	0.115
698.14	0.115
698.33	0.115
698.53	0.115
698.72	0.115
698.92	0.115
699.11	0.115
699.31	0.115
699.51	0.114
699.70	0.114
699.90	0.114
700.09	0.114
700.29	0.113
700.48	0.113
700.68	0.113
700.87	0.112
701.07	0.111
701.26	0.111
701.46	0.111
701.65	0.111
701.85	0.111
702.04	0.111
702.24	0.110
702.43	0.110
702.63	0.110
702.82	0.110
703.02	0.109
703.21	0.110
703.41	0.110
703.60	0.110
703.80	0.109
703.99	0.109
704.19	0.109
704.38	0.109
704.58	0.108
704.77	0.108
704.97	0.108
705.16	0.109
705.36	0.109
705.55	0.108
705.75	0.108
705.94	0.108
706.14	0.108
706.33	0.108
706.53	0.108
706.72	0.108
706.92	0.108
707.11	0.107
707.31	0.107
707.50	0.107
707.70	0.107
707.89	0.107
708.09	0.106
708.28	0.106
708.48	0.107
708.67	0.106
708.86	0.107
709.06	0.106
709.25	0.106
709.45	0.107
709.64	0.106
709.84	0.106
710.03	0.106
710.23	0.105
710.42	0.105
710.62	0.105
710.81	0.104
711.00	0.104
711.20	0.104
711.39	0.103
711.59	0.103
711.78	0.103
711.98	0.103
712.17	0.103
712.37	0.103
712.56	0.103
712.75	0.103
712.95	0.103
713.14	0.103
713.34	0.103
713.53	0.104
713.73	0.104
713.92	0.104
714.11	0.103
714.31	0.104
714.50	0.103
714.70	0.103
714.89	0.103
715.08	0.102
715.28	0.102
715.47	0.102
715.67	0.102
715.86	0.102
716.06	0.102
716.25	0.102
716.44	0.102
716.64	0.102
716.83	0.101
717.03	0.101
717.22	0.101
717.41	0.101
717.61	0.101
717.80	0.101
717.99	0.101
718.19	0.101
718.38	0.101
718.58	0.100
718.77	0.100
718.96	0.100
719.16	0.099
719.35	0.099
719.55	0.099
719.74	0.098
719.93	0.098
720.13	0.098
720.32	0.098
720.51	0.098
720.71	0.098
720.90	0.098
721.10	0.098
721.29	0.098
721.48	0.098
721.68	0.098
721.87	0.098
722.06	0.098
722.26	0.099
722.45	0.099
722.64	0.099
722.84	0.099
723.03	0.099
723.22	0.099
723.42	0.099
723.61	0.098
723.80	0.098
724.00	0.098
724.19	0.098
724.38	0.098
724.58	0.097
724.77	0.097
724.96	0.097
725.16	0.097
725.35	0.097
725.54	0.097
725.74	0.097
725.93	0.097
726.12	0.097
726.32	0.097
726.51	0.097
726.70	0.097
726.90	0.097
727.09	0.097
727.28	0.097
727.48	0.096
727.67	0.096
727.86	0.096
728.06	0.096
728.25	0.096
728.44	0.096
728.64	0.096
728.83	0.096
729.02	0.096
729.21	0.096
729.41	0.096
729.60	0.096
729.79	0.096
729.99	0.096
730.18	0.096
730.37	0.096
730.56	0.096
730.76	0.096
730.95	0.096
731.14	0.096
731.34	0.096
731.53	0.096
731.72	0.096
731.91	0.096
732.11	0.096
732.30	0.096
732.49	0.096
732.69	0.096
732.88	0.096
733.07	0.096
733.26	0.096
733.46	0.096
733.65	0.096
733.84	0.096
734.03	0.096
734.23	0.096
734.42	0.096
734.61	0.096
734.80	0.096
735.00	0.096
735.19	0.095
735.38	0.096
735.57	0.095
735.77	0.096
735.96	0.095
736.15	0.095
736.34	0.095
736.54	0.096
736.73	0.095
736.92	0.095
737.11	0.095
737.31	0.095
737.50	0.095
737.69	0.095
737.88	0.095
738.07	0.096
738.27	0.095
738.46	0.095
738.65	0.094
738.84	0.094
739.04	0.094
739.23	0.094
739.42	0.094
739.61	0.094
739.80	0.094
740.00	0.094
740.19	0.093
740.38	0.093
740.57	0.093
740.76	0.093
740.96	0.093
741.15	0.093
741.34	0.093
741.53	0.093
741.72	0.093
741.92	0.093
742.11	0.093
742.30	0.093
742.49	0.093
742.68	0.093
742.88	0.093
743.07	0.093
743.26	0.093
743.45	0.093
743.64	0.092
743.84	0.092
744.03	0.092
744.22	0.092
744.41	0.092
744.60	0.091
744.79	0.091
744.99	0.091
745.18	0.091
745.37	0.091
745.56	0.091
745.75	0.091
745.94	0.090
746.14	0.090
746.33	0.090
746.52	0.091
746.71	0.090
746.90	0.090
747.09	0.090
747.28	0.089
747.48	0.090
747.67	0.090
747.86	0.090
748.05	0.090
748.24	0.090
748.43	0.090
748.62	0.089
748.82	0.089
749.01	0.090
749.20	0.089
749.39	0.089
749.58	0.090
749.77	0.089
749.96	0.089
750.16	0.089
750.35	0.089
750.54	0.089
750.73	0.089
750.92	0.089
751.11	0.088
751.30	0.088
751.49	0.088
751.68	0.088
751.88	0.088
752.07	0.087
752.26	0.087
752.45	0.087
752.64	0.087
752.83	0.087
753.02	0.087
753.21	0.087
753.40	0.087
753.60	0.087
753.79	0.087
753.98	0.087
754.17	0.087
754.36	0.087
754.55	0.087
754.74	0.087
754.93	0.086
755.12	0.086
755.31	0.086
755.50	0.086
755.70	0.086
755.89	0.086
756.08	0.086
756.27	0.086
756.46	0.086
756.65	0.085
756.84	0.085
757.03	0.086
757.22	0.085
757.41	0.086
757.60	0.085
757.79	0.086
757.98	0.086
758.17	0.085
758.36	0.085
758.56	0.085
758.75	0.085
758.94	0.085
759.13	0.084
759.32	0.084
759.51	0.084
759.70	0.084
759.89	0.084
760.08	0.084
760.27	0.084
760.46	0.084
760.65	0.084
760.84	0.084
761.03	0.084
761.22	0.084
761.41	0.085
761.60	0.084
761.79	0.084
761.98	0.084
762.17	0.084
762.36	0.084
762.55	0.084
762.74	0.084
762.93	0.083
763.12	0.083
763.31	0.083
763.50	0.083
763.69	0.083
763.88	0.083
764.07	0.082
764.26	0.082
764.45	0.082
764.64	0.083
764.83	0.082
765.02	0.083
765.21	0.082
765.40	0.082
765.59	0.082
765.78	0.082
765.97	0.082
766.16	0.082
766.35	0.082
766.54	0.082
766.73	0.082
766.92	0.082
767.11	0.082
767.30	0.082
767.49	0.082
767.68	0.082
767.87	0.081
768.06	0.082
768.25	0.081
768.44	0.081
768.63	0.081
768.82	0.081
769.01	0.080
769.20	0.080
769.39	0.081
769.58	0.081
769.77	0.081
769.96	0.081
770.15	0.081
770.34	0.081
770.53	0.081
770.72	0.081
770.91	0.081
771.10	0.081
771.29	0.081
771.47	0.080
771.66	0.081
771.85	0.081
772.04	0.080
772.23	0.081
772.42	0.080
772.61	0.080
772.80	0.080
772.99	0.080
773.18	0.080
773.37	0.080
773.56	0.080
773.75	0.080
773.94	0.080
774.13	0.080
774.31	0.080
774.50	0.080
774.69	0.080
774.88	0.080
775.07	0.080
775.26	0.080
775.45	0.079
775.64	0.079
775.83	0.079
776.02	0.078
776.21	0.078
776.40	0.078
776.58	0.078
776.77	0.078
776.96	0.078
777.15	0.078
777.34	0.078
777.53	0.078
777.72	0.079
777.91	0.079
778.10	0.079
778.28	0.078
778.47	0.079
778.66	0.079
778.85	0.078
779.04	0.078
779.23	0.078
779.42	0.078
779.61	0.078
779.79	0.077
779.98	0.077
780.17	0.077
780.36	0.077
780.55	0.076
780.74	0.076
780.93	0.076
781.12	0.076
781.30	0.076
781.49	0.076
781.68	0.076
781.87	0.076
782.06	0.076
782.25	0.076
782.44	0.076
782.62	0.076
782.81	0.076
783.00	0.076
783.19	0.076
783.38	0.076
783.57	0.076
783.75	0.075
783.94	0.076
784.13	0.076
784.32	0.076
784.51	0.075
784.70	0.076
784.88	0.075
785.07	0.075
785.26	0.075
785.45	0.075
785.64	0.075
785.83	0.075
786.01	0.075
786.20	0.075
786.39	0.075
786.58	0.075
786.77	0.075
786.95	0.075
787.14	0.075
787.33	0.075
787.52	0.075
787.71	0.076
787.90	0.075
788.08	0.075
788.27	0.075
788.46	0.075
788.65	0.075
788.84	0.075
789.02	0.075
789.21	0.075
789.40	0.075
789.59	0.075
789.77	0.075
789.96	0.075
790.15	0.075
790.34	0.075
790.53	0.075
790.71	0.075
790.90	0.075
791.09	0.074
791.28	0.075
791.46	0.075
791.65	0.074
791.84	0.074
792.03	0.074
792.22	0.074
792.40	0.074
792.59	0.074
792.78	0.074
792.97	0.074
793.15	0.074
793.34	0.074
793.53	0.073
793.72	0.073
793.90	0.073
794.09	0.074
794.28	0.073
794.47	0.074
794.65	0.073
794.84	0.073
795.03	0.073
795.22	0.073
795.40	0.074
795.59	0.074
795.78	0.074
795.97	0.074
796.15	0.074
796.34	0.074
796.53	0.074
796.71	0.074
796.90	0.074
797.09	0.074
797.28	0.074
797.46	0.074
797.65	0.073
797.84	0.073
798.02	0.073
798.21	0.072
798.40	0.072
798.59	0.072
798.77	0.072
798.96	0.072
799.15	0.071
799.33	0.072
799.52	0.071
799.71	0.071
799.90	0.072
800.08	0.072
800.27	0.072
800.46	0.071
800.64	0.072
800.83	0.072
801.02	0.071
801.20	0.072
801.39	0.072
801.58	0.072
801.76	0.071
801.95	0.072
802.14	0.071
802.32	0.071
802.51	0.072
802.70	0.071
802.88	0.071
803.07	0.071
803.26	0.071
803.44	0.071
803.63	0.071
803.82	0.071
804.00	0.071
804.19	0.071
804.38	0.072
804.56	0.072
804.75	0.071
804.94	0.071
805.12	0.071
805.31	0.071
805.50	0.072
805.68	0.071
805.87	0.071
806.06	0.071
806.24	0.071
806.43	0.071
806.62	0.071
806.80	0.070
806.99	0.070
807.17	0.070
807.36	0.071
807.55	0.070
807.73	0.070
807.92	0.071
808.11	0.071
808.29	0.071
808.48	0.070
808.66	0.071
808.85	0.071
809.04	0.071
809.22	0.071
809.41	0.070
809.59	0.070
809.78	0.070
809.97	0.070
810.15	0.070
810.34	0.070
810.53	0.070
810.71	0.069
810.90	0.070
811.08	0.069
811.27	0.069
811.45	0.069
811.64	0.070
811.83	0.070
812.01	0.069
812.20	0.069
812.38	0.069
812.57	0.069
812.76	0.070
812.94	0.070
813.13	0.070
813.31	0.070
813.50	0.070
813.68	0.070
813.87	0.070
814.06	0.070
814.24	0.070
814.43	0.070
814.61	0.070
814.80	0.070
814.98	0.070
815.17	0.069
815.36	0.069
815.54	0.069
815.73	0.069
815.91	0.069
816.10	0.069
816.28	0.069
816.47	0.069
816.65	0.069
816.84	0.069
817.03	0.070
817.21	0.070
817.40	0.070
817.58	0.070
817.77	0.070
817.95	0.070
818.14	0.070
818.32	0.070
818.51	0.070
818.69	0.070
818.88	0.070
819.06	0.070
819.25	0.070
819.43	0.069
819.62	0.069
819.80	0.069
819.99	0.070
820.18	0.070
820.36	0.069
820.55	0.070
820.73	0.070
820.92	0.070
821.10	0.070
821.29	0.070
821.47	0.070
821.66	0.070
821.84	0.070
822.03	0.070
822.21	0.070
822.40	0.070
822.58	0.070
822.77	0.070
822.95	0.070
823.14	0.070
823.32	0.070
823.50	0.070
823.69	0.070
823.87	0.070
824.06	0.070
824.24	0.071
824.43	0.071
824.61	0.071
824.80	0.071
824.98	0.071
825.17	0.071
825.35	0.072
825.54	0.072
825.72	0.071
825.91	0.071
826.09	0.071
826.28	0.071
826.46	0.072
826.64	0.072
826.83	0.072
827.01	0.071
827.20	0.071
827.38	0.071
827.57	0.072
827.75	0.071
827.94	0.072
828.12	0.072
828.31	0.072
828.49	0.072
828.67	0.072
828.86	0.072
829.04	0.072
829.23	0.072
829.41	0.073
829.60	0.073
829.78	0.073
829.96	0.074
830.15	0.074
830.33	0.074
830.52	0.074
830.70	0.074
830.88	0.074
831.07	0.074
831.25	0.074
831.44	0.074
831.62	0.074
831.81	0.074
831.99	0.074
832.17	0.074
832.36	0.074
832.54	0.074
832.73	0.074
832.91	0.074
833.09	0.074
833.28	0.074
833.46	0.074
833.65	0.075
833.83	0.075
834.01	0.075
834.20	0.075
834.38	0.075
834.56	0.075
834.75	0.075
834.93	0.075
835.12	0.075
835.30	0.075
835.48	0.075
835.67	0.075
835.85	0.075
836.03	0.075
836.22	0.075
836.40	0.075
836.59	0.075
836.77	0.075
836.95	0.075
837.14	0.075
837.32	0.075
837.50	0.075
837.69	0.075
837.87	0.075
838.05	0.075
838.24	0.075
838.42	0.075
838.60	0.076
838.79	0.076
838.97	0.076
839.15	0.076
839.34	0.076
839.52	0.076
839.70	0.077
839.89	0.077
840.07	0.077
840.25	0.077
840.44	0.077
840.62	0.077
840.80	0.076
840.99	0.076
841.17	0.076
841.35	0.076
841.54	0.076
841.72	0.076
841.90	0.076
842.09	0.077
842.27	0.077
842.45	0.077
842.64	0.077
842.82	0.077
843.00	0.077
843.19	0.077
843.37	0.076
843.55	0.076
843.73	0.076
843.92	0.076
844.10	0.076
844.28	0.077
844.47	0.077
844.65	0.077
844.83	0.077
845.01	0.077
845.20	0.077
845.38	0.078
845.56	0.078
845.75	0.078
845.93	0.078
846.11	0.078
846.29	0.078
846.48	0.078
846.66	0.078
846.84	0.077
847.02	0.077
847.21	0.077
847.39	0.077
847.57	0.077
847.76	0.078
847.94	0.077
848.12	0.077
848.30	0.077
848.49	0.078
848.67	0.078
848.85	0.078
849.03	0.078
849.22	0.078
849.40	0.078
849.58	0.078
849.76	0.078
849.95	0.078
850.13	0.078
850.31	0.078
850.49	0.078
850.67	0.078
850.86	0.078
851.04	0.078
851.22	0.078
851.40	0.078
851.59	0.078
851.77	0.077
851.95	0.077
852.13	0.077
852.31	0.077
852.50	0.077
852.68	0.078
852.86	0.078
853.04	0.077
853.23	0.077
853.41	0.077
853.59	0.077
853.77	0.077
853.95	0.077
854.14	0.077
854.32	0.077
854.50	0.077
854.68	0.077
854.86	0.077
855.04	0.077
855.23	0.077
855.41	0.077
855.59	0.078
855.77	0.078
855.95	0.078
856.14	0.078
856.32	0.078
856.50	0.078
856.68	0.078
856.86	0.078
857.04	0.078
857.23	0.078
857.41	0.078
857.59	0.078
857.77	0.077
857.95	0.077
858.13	0.077
858.32	0.078
858.50	0.078
858.68	0.077
858.86	0.077
859.04	0.078
859.22	0.078
859.41	0.078
859.59	0.078
859.77	0.078
859.95	0.078
860.13	0.079
860.31	0.079
860.49	0.078
860.68	0.079
860.86	0.079
861.04	0.078
861.22	0.078
861.40	0.078
861.58	0.079
861.76	0.078
861.94	0.079
862.13	0.078
862.31	0.078
862.49	0.079
862.67	0.079
862.85	0.079
863.03	0.079
863.21	0.079
863.39	0.079
863.57	0.079
863.76	0.079
863.94	0.079
864.12	0.079
864.30	0.079
864.48	0.079
864.66	0.079
864.84	0.079
865.02	0.079
865.20	0.078
865.38	0.079
865.57	0.079
865.75	0.079
865.93	0.079
866.11	0.079
866.29	0.079
866.47	0.079
866.65	0.079
866.83	0.079
867.01	0.079
867.19	0.079
867.37	0.079
867.55	0.079
867.73	0.079
867.92	0.079
868.10	0.079
868.28	0.079
868.46	0.079
868.64	0.079
868.82	0.079
869.00	0.079
869.18	0.079
869.36	0.079
869.54	0.079
869.72	0.080
869.90	0.079
870.08	0.080
870.26	0.080
870.44	0.080
870.62	0.079
870.80	0.079
870.98	0.080
871.16	0.079
871.34	0.079
871.53	0.080
871.71	0.080
871.89	0.080
872.07	0.080
872.25	0.080
872.43	0.080
872.61	0.080
872.79	0.081
872.97	0.081
873.15	0.081
873.33	0.082
873.51	0.081
873.69	0.081
873.87	0.081
874.05	0.082
874.23	0.081
874.41	0.081
874.59	0.082
874.77	0.081
874.95	0.081
875.13	0.081
875.31	0.081
875.49	0.081
875.67	0.081
875.85	0.081
876.03	0.081
876.21	0.082
876.39	0.082
876.57	0.082
876.75	0.082
876.93	0.082
877.11	0.082
877.29	0.081
877.47	0.081
877.65	0.082
877.82	0.082
878.00	0.082
878.18	0.082
878.36	0.081
878.54	0.081
878.72	0.081
878.90	0.081
879.08	0.081
879.26	0.081
879.44	0.082
879.62	0.082
879.80	0.082
879.98	0.082
880.16	0.082
880.34	0.081
880.52	0.082
880.70	0.082
880.88	0.082
881.06	0.082
881.24	0.082
881.42	0.082
881.59	0.081
881.77	0.081
881.95	0.082
882.13	0.082
882.31	0.082
882.49	0.082
882.67	0.083
882.85	0.082
883.03	0.082
883.21	0.082
883.39	0.082
883.57	0.083
883.75	0.083
883.92	0.083
884.10	0.083
884.28	0.083
884.46	0.083
884.64	0.083
884.82	0.083
885.00	0.083
885.18	0.083
885.36	0.083
885.54	0.083
885.71	0.084
885.89	0.083
886.07	0.083
886.25	0.084
886.43	0.084
886.61	0.083
886.79	0.083
886.97	0.084
887.15	0.084
887.32	0.083
887.50	0.084
887.68	0.083
887.86	0.084
888.04	0.083
888.22	0.084
888.40	0.083
888.57	0.084
888.75	0.084
888.93	0.084
889.11	0.084
889.29	0.084
889.47	0.084
889.65	0.084
889.82	0.084
890.00	0.085
890.18	0.085
890.36	0.085
890.54	0.085
890.72	0.085
890.90	0.085
891.07	0.085
891.25	0.085
891.43	0.084
891.61	0.085
891.79	0.085
891.97	0.084
892.14	0.085
892.32	0.085
892.50	0.084
892.68	0.085
892.86	0.085
893.03	0.085
893.21	0.085
893.39	0.085
893.57	0.085
893.75	0.085
893.93	0.085
894.10	0.086
894.28	0.086
894.46	0.085
894.64	0.086
894.82	0.085
894.99	0.085
895.17	0.085
895.35	0.085
895.53	0.085
895.71	0.085
895.88	0.085
896.06	0.085
896.24	0.085
896.42	0.085
896.59	0.085
896.77	0.086
896.95	0.086
897.13	0.086
897.31	0.086
897.48	0.086
897.66	0.086
897.84	0.086
898.02	0.086
898.19	0.086
898.37	0.087
898.55	0.087
898.73	0.087
898.91	0.087
899.08	0.087
899.26	0.087
899.44	0.087
899.62	0.087
899.79	0.087
899.97	0.088
900.15	0.087
900.33	0.087
900.50	0.087
900.68	0.087
900.86	0.087
901.04	0.087
901.21	0.087
901.39	0.087
901.57	0.087
901.74	0.086
901.92	0.086
902.10	0.087
902.28	0.087
902.45	0.087
902.63	0.087
902.81	0.087
902.99	0.087
903.16	0.087
903.34	0.088
903.52	0.088
903.69	0.088
903.87	0.088
904.05	0.088
904.22	0.088
904.40	0.088
904.58	0.088
904.76	0.088
904.93	0.088
905.11	0.088
905.29	0.088
905.46	0.088
905.64	0.088
905.82	0.088
905.99	0.088
906.17	0.089
906.35	0.089
906.53	0.089
906.70	0.089
906.88	0.089
907.06	0.089
907.23	0.089
907.41	0.089
907.59	0.089
907.76	0.090
907.94	0.090
908.12	0.090
908.29	0.090
908.47	0.090
908.65	0.090
908.82	0.090
909.00	0.090
909.18	0.091
909.35	0.091
909.53	0.090
909.71	0.090
909.88	0.090
910.06	0.090
910.23	0.090
910.41	0.090
910.59	0.090
910.76	0.090
910.94	0.090
911.12	0.090
911.29	0.090
911.47	0.090
911.65	0.090
911.82	0.090
912.00	0.091
912.17	0.091
912.35	0.091
912.53	0.091
912.70	0.091
912.88	0.092
913.06	0.092
913.23	0.092
913.41	0.092
913.58	0.093
913.76	0.093
913.94	0.092
914.11	0.093
914.29	0.092
914.46	0.093
914.64	0.093
914.82	0.093
914.99	0.093
915.17	0.093
915.34	0.093
915.52	0.093
915.70	0.093
915.87	0.093
916.05	0.093
916.22	0.093
916.40	0.093
916.57	0.094
916.75	0.094
916.93	0.094
917.10	0.093
917.28	0.093
917.45	0.093
917.63	0.093
917.80	0.094
917.98	0.094
918.16	0.094
918.33	0.094
918.51	0.094
918.68	0.094
918.86	0.095
919.03	0.095
919.21	0.096
919.39	0.096
919.56	0.096
919.74	0.097
919.91	0.097
920.09	0.097
920.26	0.097
920.44	0.097
920.61	0.097
920.79	0.097
920.96	0.097
921.14	0.098
921.31	0.098
921.49	0.099
921.67	0.099
921.84	0.099
922.02	0.099
922.19	0.099
922.37	0.100
922.54	0.100
922.72	0.100
922.89	0.100
923.07	0.100
923.24	0.100
923.42	0.100
923.59	0.100
923.77	0.100
923.94	0.101
924.12	0.101
924.29	0.102
924.47	0.102
924.64	0.102
924.82	0.102
924.99	0.102
925.17	0.103
925.34	0.103
925.52	0.103
925.69	0.104
925.87	0.104
926.04	0.104
926.22	0.105
926.39	0.105
926.57	0.106
926.74	0.106
926.91	0.106
927.09	0.106
927.26	0.106
927.44	0.107
927.61	0.107
927.79	0.107
927.96	0.108
928.14	0.109
928.31	0.109
928.49	0.109
928.66	0.110
928.84	0.111
929.01	0.111
929.18	0.112
929.36	0.112
929.53	0.113
929.71	0.113
929.88	0.113
930.06	0.113
930.23	0.114
930.41	0.114
930.58	0.115
930.75	0.115
930.93	0.116
931.10	0.116
931.28	0.117
931.45	0.117
931.63	0.118
931.80	0.118
931.97	0.118
932.15	0.119
932.32	0.119
932.50	0.119
932.67	0.120
932.84	0.120
933.02	0.121
933.19	0.121
933.37	0.121
933.54	0.121
933.71	0.122
933.89	0.123
934.06	0.123
934.24	0.124
934.41	0.124
934.58	0.124
934.76	0.125
934.93	0.125
935.11	0.125
935.28	0.126
935.45	0.126
935.63	0.126
935.80	0.126
935.98	0.127
936.15	0.127
936.32	0.128
936.50	0.128
936.67	0.129
936.84	0.129
937.02	0.130
937.19	0.131
937.36	0.132
937.54	0.132
937.71	0.133
937.89	0.134
938.06	0.134
938.23	0.134
938.41	0.135
938.58	0.136
938.75	0.136
938.93	0.137
939.10	0.136
939.27	0.137
939.45	0.138
939.62	0.138
939.79	0.139
939.97	0.139
940.14	0.140
940.31	0.141
940.49	0.141
940.66	0.142
940.83	0.142
941.01	0.143
941.18	0.144
941.35	0.145
941.53	0.145
941.70	0.146
941.87	0.147
942.05	0.147
942.22	0.148
942.39	0.149
942.57	0.149
942.74	0.150
942.91	0.151
943.08	0.151
943.26	0.152
943.43	0.152
943.60	0.153
943.78	0.153
943.95	0.154
944.12	0.155
944.29	0.156
944.47	0.156
944.64	0.157
944.81	0.158
944.99	0.158
945.16	0.159
945.33	0.159
945.50	0.161
945.68	0.161
945.85	0.162
946.02	0.163
946.20	0.164
946.37	0.165
946.54	0.165
946.71	0.166
946.89	0.167
947.06	0.167
947.23	0.169
947.40	0.170
947.58	0.170
947.75	0.172
947.92	0.172
948.09	0.173
948.27	0.174
948.44	0.175
948.61	0.176
948.78	0.177
948.96	0.180
949.13	0.180
949.30	0.181
949.47	0.182
949.65	0.183
949.82	0.185
949.99	0.185
950.16	0.187
950.33	0.188
950.51	0.189
950.68	0.190
950.85	0.191
951.02	0.192
951.20	0.193
951.37	0.194
951.54	0.195
951.71	0.196
951.88	0.198
952.06	0.199
952.23	0.199
952.40	0.200
952.57	0.202
952.74	0.203
952.92	0.204
953.09	0.206
953.26	0.207
953.43	0.208
953.60	0.210
953.77	0.210
953.95	0.211
954.12	0.214
954.29	0.214
954.46	0.217
954.63	0.218
954.81	0.218
954.98	0.219
955.15	0.221
955.32	0.222
955.49	0.222
955.66	0.224
955.84	0.225
956.01	0.225
956.18	0.227
956.35	0.228
956.52	0.228
956.69	0.230
956.87	0.231
957.04	0.231
957.21	0.233
957.38	0.233
957.55	0.235
957.72	0.236
957.89	0.237
958.07	0.237
958.24	0.240
958.41	0.241
958.58	0.241
958.75	0.242
958.92	0.243
959.09	0.243
959.26	0.245
959.44	0.245
959.61	0.246
959.78	0.247
959.95	0.248
960.12	0.249
960.29	0.251
960.46	0.250
960.63	0.251
960.81	0.252
960.98	0.252
961.15	0.253
961.32	0.254
961.49	0.253
961.66	0.254
961.83	0.254
962.00	0.254
962.17	0.255
962.34	0.254
962.52	0.255
962.69	0.256
962.86	0.255
963.03	0.256
963.20	0.257
963.37	0.256
963.54	0.257
963.71	0.257
963.88	0.257
964.05	0.258
964.22	0.259
964.39	0.258
964.56	0.259
964.74	0.260
964.91	0.259
965.08	0.260
965.25	0.260
965.42	0.260
965.59	0.261
965.76	0.261
965.93	0.262
966.10	0.260
966.27	0.261
966.44	0.260
966.61	0.262
966.78	0.261
966.95	0.261
967.12	0.262
967.29	0.264
967.46	0.263
967.63	0.262
967.80	0.263
967.97	0.263
968.14	0.263
968.32	0.264
968.49	0.264
968.66	0.262
968.83	0.263
969.00	0.263
969.17	0.263
969.34	0.264
969.51	0.265
969.68	0.263
969.85	0.264
970.02	0.264
970.19	0.263
970.36	0.264
970.53	0.265
970.70	0.264
970.87	0.264
971.04	0.263
971.21	0.264
971.38	0.264
971.55	0.264
971.72	0.264
971.89	0.266
972.06	0.265
972.23	0.265
972.40	0.264
972.57	0.263
972.74	0.264
972.91	0.265
973.07	0.264
973.24	0.264
973.41	0.265
973.58	0.263
973.75	0.275
973.92	0.264
974.09	0.263
974.26	0.264
974.43	0.263
974.60	0.264
974.77	0.265
974.94	0.264
975.11	0.265
975.28	0.266
975.45	0.264
975.62	0.264
975.79	0.266
975.96	0.264
976.13	0.263
976.30	0.264
976.47	0.262
976.64	0.262
976.80	0.263
976.97	0.263
977.14	0.262
977.31	0.262
977.48	0.263
977.65	0.262
977.82	0.262
977.99	0.264
978.16	0.264
978.33	0.263
978.50	0.262
978.67	0.262
978.83	0.262
979.00	0.262
979.17	0.262
979.34	0.261
979.51	0.261
979.68	0.262
979.85	0.260
980.02	0.261
980.19	0.259
980.36	0.260
980.52	0.261
980.69	0.260
980.86	0.260
981.03	0.260
981.20	0.258
981.37	0.259
981.54	0.259
981.71	0.258
981.88	0.259
982.04	0.259
982.21	0.259
982.38	0.260
982.55	0.258
982.72	0.257
982.89	0.259
983.06	0.257
983.22	0.257
983.39	0.257
983.56	0.256
983.73	0.255
983.90	0.255
984.07	0.256
984.24	0.254
984.40	0.255
984.57	0.253
984.74	0.256
984.91	0.257
985.08	0.255
985.25	0.253
985.41	0.255
985.58	0.255
985.75	0.256
985.92	0.255
986.09	0.254
986.26	0.253
986.42	0.252
986.59	0.250
986.76	0.252
986.93	0.252
987.10	0.252
987.27	0.250
987.43	0.248
987.60	0.250
987.77	0.250
987.94	0.248
988.11	0.249
988.27	0.249
988.44	0.249
988.61	0.247
988.78	0.245
988.95	0.246
989.11	0.247
989.28	0.246
989.45	0.245
989.62	0.245
989.79	0.246
989.95	0.245
990.12	0.246
990.29	0.245
990.46	0.244
990.62	0.243
990.79	0.243
990.96	0.243
991.13	0.243
991.30	0.241
991.46	0.241
991.63	0.239
991.80	0.238
991.97	0.238
992.13	0.239
992.30	0.240
992.47	0.238
992.64	0.238
992.80	0.238
992.97	0.238
993.14	0.236
993.31	0.234
993.47	0.237
993.64	0.235
993.81	0.235
993.98	0.236
994.14	0.234
994.31	0.234
994.48	0.234
994.64	0.235
994.81	0.234
994.98	0.234
995.15	0.232
995.31	0.232
995.48	0.231
995.65	0.233
995.82	0.230
995.98	0.230
996.15	0.231
996.32	0.233
996.48	0.230
996.65	0.230
996.82	0.228
996.99	0.228
997.15	0.227
997.32	0.229
997.49	0.227
997.65	0.228
997.82	0.227
997.99	0.225
998.15	0.226
998.32	0.226
998.49	0.225
998.65	0.225
998.82	0.225
998.99	0.222
999.15	0.223
999.32	0.222
999.49	0.221
999.65	0.222
999.82	0.219
999.99	0.219
1000.15	0.220
1000.32	0.220
1000.49	0.220
1000.65	0.218
1000.82	0.219
1000.99	0.219
1001.15	0.219
1001.32	0.218
1001.49	0.218
1001.65	0.218
1001.82	0.220
1001.99	0.217
1002.15	0.217
1002.32	0.217
1002.49	0.217
1002.65	0.216
1002.82	0.214
1002.99	0.214
1003.15	0.216
1003.32	0.215
1003.48	0.215
1003.65	0.214
1003.82	0.213
1003.98	0.211
1004.15	0.210
1004.32	0.211
1004.48	0.211
1004.65	0.212
1004.81	0.210
1004.98	0.209
1005.15	0.209
1005.31	0.209
1005.48	0.207
1005.64	0.207
1005.81	0.210
1005.98	0.206
1006.14	0.206
1006.31	0.206
1006.47	0.204
1006.64	0.202
1006.81	0.202
1006.97	0.203
1007.14	0.202
1007.30	0.203
1007.47	0.203
1007.63	0.201
1007.80	0.199
1007.97	0.199
1008.13	0.200
1008.30	0.200
1008.46	0.200
1008.63	0.198
1008.79	0.198
1008.96	0.198
1009.13	0.199
1009.29	0.197
1009.46	0.197
1009.62	0.197
1009.79	0.195
1009.95	0.194
1010.12	0.195
1010.28	0.196
1010.45	0.195
1010.62	0.195
1010.78	0.193
1010.95	0.192
1011.11	0.192
1011.28	0.192
1011.44	0.194
1011.61	0.192
1011.77	0.191
1011.94	0.191
1012.10	0.190
1012.27	0.190
1012.43	0.190
1012.60	0.189
1012.76	0.190
1012.93	0.189
1013.10	0.187
1013.26	0.185
1013.43	0.186
1013.59	0.194
1013.76	0.186
1013.92	0.185
1014.09	0.184
1014.25	0.185
1014.42	0.185
1014.58	0.184
1014.75	0.187
1014.91	0.185
1015.08	0.187
1015.24	0.184
1015.41	0.185
1015.57	0.185
1015.73	0.184
1015.90	0.182
1016.06	0.184
1016.23	0.183
1016.39	0.183
1016.56	0.184
1016.72	0.183
1016.89	0.183
1017.05	0.184
1017.22	0.181
1017.38	0.182
1017.55	0.180
1017.71	0.180
1017.88	0.180
1018.04	0.180
1018.21	0.177
1018.37	0.176
1018.53	0.176
1018.70	0.174
1018.86	0.173
1019.03	0.175
1019.19	0.174
1019.36	0.173
1019.52	0.175
1019.69	0.176
1019.85	0.175
1020.01	0.175
1020.18	0.174
1020.34	0.174
1020.51	0.173
1020.67	0.174
1020.84	0.171
1021.00	0.172
1021.16	0.170
1021.33	0.170
1021.49	0.168
1021.66	0.168
1021.82	0.166
1021.98	0.167
1022.15	0.167
1022.31	0.166
1022.48	0.166
1022.64	0.168
1022.80	0.166
1022.97	0.164
1023.13	0.163
1023.30	0.165
1023.46	0.166
1023.62	0.164
1023.79	0.166
1023.95	0.167
1024.12	0.166
1024.28	0.164
1024.44	0.165
1024.61	0.164
1024.77	0.164
1024.93	0.163
1025.10	0.164
1025.26	0.161
1025.43	0.161
1025.59	0.156
1025.75	0.159
1025.92	0.158
1026.08	0.158
1026.24	0.157
1026.41	0.157
1026.57	0.156
1026.73	0.154
1026.90	0.157
1027.06	0.155
1027.23	0.156
1027.39	0.155
1027.55	0.156
1027.72	0.154
1027.88	0.154
1028.04	0.155
1028.21	0.155
1028.37	0.149
1028.53	0.155
1028.70	0.153
1028.86	0.152
1029.02	0.152
1029.19	0.153
1029.35	0.150
1029.51	0.151
1029.67	0.150
1029.84	0.151
1030.00	0.146
1030.16	0.147
1030.33	0.149
1030.49	0.147
1030.65	0.145
1030.82	0.160
1030.98	0.147
1031.14	0.146
1031.31	0.146
1031.47	0.144
1031.63	0.147
1031.79	0.146
1031.96	0.147
1032.12	0.148
1032.28	0.145
1032.45	0.148
1032.61	0.146
1032.77	0.146
1032.93	0.143
1033.10	0.145
1033.26	0.147
1033.42	0.144
1033.58	0.145
1033.75	0.147
1033.91	0.145
1034.07	0.149
1034.24	0.147
1034.40	0.146
1034.56	0.146
1034.72	0.147
1034.89	0.147
1035.05	0.145
1035.21	0.145
1035.37	0.143
1035.54	0.146
1035.70	0.143
1035.86	0.142
1036.02	0.143
1036.19	0.141
1036.35	0.139
1036.51	0.143
1036.67	0.139
1036.83	0.137
1037.00	0.137
1037.16	0.137
1037.32	0.137
1037.48	0.137
1037.65	0.142
1037.81	0.138
1037.97	0.138
1038.13	0.138
1038.29	0.136
1038.46	0.134
1038.62	0.140
1038.78	0.137
1038.94	0.134
1039.10	0.139
1039.27	0.135
1039.43	0.135
1039.59	0.135
1039.75	0.134
1039.91	0.133
1040.08	0.132
1040.24	0.135
1040.40	0.137
1040.56	0.135
1040.72	0.130
1040.89	0.132
1041.05	0.134
1041.21	0.132
1041.37	0.130
1041.53	0.136
1041.69	0.133
1041.86	0.132
1042.02	0.129
1042.18	0.130
1042.34	0.130
1042.50	0.135
1042.66	0.130
1042.83	0.130
1042.99	0.133
1043.15	0.130
1043.31	0.129
1043.47	0.134
1043.63	0.131
1043.79	0.130
1043.96	0.130
1044.12	0.134
1044.28	0.131
1044.44	0.134
1044.60	0.128
1044.76	0.126
1044.92	0.128
1045.09	0.131
1045.25	0.127
1045.41	0.128
1045.57	0.123
1045.73	0.123
1045.89	0.124
1046.05	0.126
1046.21	0.129
1046.38	0.122
1046.54	0.126
1046.70	0.121
1046.86	0.133
>>>>>End Processed Spectral Data<<<<<
