SpectraSuite Data File
++++++++++++++++++++++++++++++++++++
Date: Mon May 20 12:13:10 CDT 2013
User: Students
Dark Spectrum Present: Yes
Reference Spectrum Present: Yes
Number of Sampled Component Spectra: 1
Spectrometers: USB4H00887
Integration Time (usec): 60000 (USB4H00887)
Spectra Averaged: 5 (USB4H00887)
Boxcar Smoothing: 5 (USB4H00887)
Correct for Electrical Dark: No (USB4H00887)
Strobe/Lamp Enabled: No (USB4H00887)
Correct for Detector Non-linearity: No (USB4H00887)
Correct for Stray Light: No (USB4H00887)
Number of Pixels in Processed Spectrum: 3648
>>>>>Begin Processed Spectral Data<<<<<
345.83	0.761
346.05	0.761
346.26	0.761
346.48	-0.000
346.70	-0.000
346.92	-0.009
347.14	0.038
347.35	0.054
347.57	0.369
347.79	-0.208
348.01	-0.193
348.23	-0.279
348.44	-0.000
348.66	0.246
348.88	-0.335
349.10	-0.137
349.32	0.102
349.53	-0.020
349.75	-0.015
349.97	-0.031
350.19	-0.023
350.41	0.000
350.62	0.002
350.84	0.007
351.06	0.011
351.28	-0.011
351.50	-0.173
351.71	-0.074
351.93	-0.055
352.15	-0.015
352.37	-0.068
352.58	-0.010
352.80	-0.004
353.02	0.011
353.24	0.017
353.46	0.088
353.67	-0.095
353.89	0.054
354.11	0.041
354.33	0.059
354.54	0.090
354.76	0.198
354.98	0.366
355.20	0.372
355.41	0.138
355.63	0.348
355.85	0.140
356.07	-0.000
356.28	0.122
356.50	0.254
356.72	0.085
356.94	0.250
357.15	0.365
357.37	-0.000
357.59	0.154
357.81	0.102
358.02	0.167
358.24	0.115
358.46	0.254
358.68	0.226
358.89	0.116
359.11	-0.000
359.33	0.111
359.55	-0.628
359.76	0.120
359.98	0.132
360.20	0.129
360.42	0.108
360.63	0.124
360.85	0.063
361.07	0.236
361.29	0.044
361.50	0.041
361.72	0.032
361.94	0.101
362.15	0.068
362.37	0.040
362.59	0.044
362.81	0.078
363.02	0.139
363.24	0.247
363.46	0.168
363.68	0.224
363.89	0.197
364.11	0.283
364.33	0.349
364.54	0.189
364.76	0.257
364.98	0.268
365.20	0.241
365.41	0.156
365.63	0.206
365.85	0.134
366.06	0.349
366.28	0.293
366.50	0.170
366.71	0.080
366.93	0.121
367.15	0.079
367.37	0.090
367.58	0.121
367.80	0.128
368.02	0.292
368.23	0.130
368.45	0.158
368.67	0.141
368.88	0.149
369.10	-0.000
369.32	0.148
369.53	0.114
369.75	0.192
369.97	0.649
370.19	0.304
370.40	0.102
370.62	0.305
370.84	0.109
371.05	0.663
371.27	0.170
371.49	0.221
371.70	0.237
371.92	0.377
372.14	0.148
372.35	0.160
372.57	0.176
372.79	0.677
373.00	0.132
373.22	0.220
373.44	0.213
373.65	0.147
373.87	0.165
374.09	0.866
374.30	0.131
374.52	0.145
374.74	0.110
374.95	0.566
375.17	0.136
375.39	-0.000
375.60	0.145
375.82	0.269
376.04	0.109
376.25	0.128
376.47	0.075
376.68	0.189
376.90	0.106
377.12	0.213
377.33	0.121
377.55	0.319
377.77	0.159
377.98	0.244
378.20	0.133
378.42	0.161
378.63	0.233
378.85	-0.000
379.07	0.171
379.28	0.692
379.50	0.378
379.71	0.191
379.93	0.127
380.15	0.172
380.36	0.265
380.58	0.197
380.80	0.639
381.01	0.179
381.23	0.144
381.44	0.159
381.66	0.195
381.88	0.262
382.09	-0.105
382.31	0.159
382.53	0.171
382.74	-0.000
382.96	0.237
383.17	0.190
383.39	0.241
383.61	0.312
383.82	0.206
384.04	0.239
384.25	0.275
384.47	0.262
384.69	0.277
384.90	0.237
385.12	0.437
385.33	0.314
385.55	0.224
385.77	0.356
385.98	0.190
386.20	0.258
386.41	0.215
386.63	0.237
386.85	0.194
387.06	0.257
387.28	0.410
387.49	0.286
387.71	0.193
387.93	0.175
388.14	0.522
388.36	0.211
388.57	0.198
388.79	0.222
389.01	-0.000
389.22	0.291
389.44	0.227
389.65	0.186
389.87	0.178
390.08	0.214
390.30	0.177
390.52	0.353
390.73	0.338
390.95	0.235
391.16	0.226
391.38	-0.000
391.59	0.254
391.81	0.227
392.03	0.216
392.24	0.243
392.46	0.208
392.67	0.182
392.89	0.251
393.10	0.420
393.32	0.265
393.53	0.318
393.75	0.205
393.97	0.228
394.18	0.311
394.40	0.272
394.61	0.293
394.83	0.260
395.04	0.314
395.26	0.215
395.47	0.322
395.69	0.283
395.91	0.306
396.12	0.381
396.34	0.399
396.55	0.246
396.77	0.395
396.98	-0.000
397.20	0.509
397.41	0.595
397.63	0.373
397.84	0.328
398.06	0.299
398.27	0.301
398.49	0.343
398.71	0.243
398.92	0.307
399.14	0.399
399.35	0.533
399.57	0.472
399.78	0.310
400.00	0.307
400.21	0.388
400.43	0.318
400.64	0.339
400.86	0.865
401.07	0.417
401.29	0.344
401.50	0.361
401.72	0.521
401.93	0.331
402.15	0.393
402.36	0.356
402.58	0.297
402.79	0.324
403.01	0.545
403.22	0.407
403.44	0.276
403.65	0.435
403.87	0.482
404.08	0.377
404.30	0.606
404.51	0.340
404.73	0.423
404.94	0.356
405.16	0.371
405.37	0.283
405.59	0.519
405.80	0.321
406.02	0.403
406.23	0.387
406.45	0.421
406.66	0.464
406.88	0.295
407.09	0.443
407.31	0.349
407.52	0.430
407.74	0.353
407.95	0.423
408.17	0.400
408.38	0.424
408.60	0.289
408.81	0.483
409.03	0.360
409.24	0.361
409.45	0.424
409.67	0.398
409.88	0.357
410.10	0.465
410.31	0.396
410.53	0.373
410.74	0.534
410.96	0.503
411.17	0.564
411.39	0.427
411.60	0.394
411.82	0.455
412.03	0.453
412.24	0.442
412.46	0.677
412.67	0.524
412.89	0.525
413.10	0.515
413.32	0.475
413.53	0.520
413.75	0.542
413.96	0.407
414.17	0.552
414.39	0.555
414.60	0.446
414.82	0.605
415.03	0.452
415.25	0.509
415.46	0.346
415.68	0.502
415.89	1.071
416.10	0.784
416.32	0.401
416.53	0.472
416.75	0.435
416.96	0.518
417.18	0.434
417.39	0.435
417.60	0.424
417.82	0.631
418.03	0.552
418.25	0.462
418.46	0.494
418.67	0.451
418.89	0.491
419.10	0.526
419.32	0.763
419.53	0.682
419.75	0.563
419.96	0.497
420.17	0.613
420.39	0.558
420.60	0.584
420.82	0.733
421.03	0.579
421.24	0.476
421.46	0.532
421.67	0.573
421.89	0.492
422.10	0.523
422.31	0.519
422.53	0.778
422.74	0.560
422.96	0.441
423.17	0.490
423.38	0.615
423.60	0.511
423.81	0.643
424.03	0.550
424.24	0.615
424.45	0.621
424.67	0.614
424.88	0.536
425.09	0.583
425.31	0.532
425.52	0.559
425.74	0.633
425.95	0.710
426.16	0.538
426.38	0.616
426.59	0.564
426.80	0.645
427.02	0.682
427.23	0.534
427.45	0.704
427.66	0.685
427.87	0.523
428.09	0.559
428.30	0.618
428.51	0.612
428.73	0.698
428.94	0.608
429.15	0.594
429.37	0.560
429.58	0.578
429.79	0.532
430.01	0.645
430.22	0.637
430.44	0.650
430.65	0.586
430.86	0.627
431.08	0.600
431.29	0.552
431.50	0.655
431.72	0.902
431.93	0.725
432.14	0.529
432.36	0.581
432.57	0.597
432.78	0.614
433.00	0.558
433.21	0.549
433.42	0.687
433.64	0.593
433.85	0.679
434.06	0.545
434.28	0.568
434.49	0.600
434.70	0.616
434.92	0.629
435.13	0.680
435.34	0.684
435.56	0.645
435.77	0.646
435.98	0.852
436.20	0.703
436.41	0.602
436.62	0.599
436.83	0.689
437.05	0.786
437.26	0.678
437.47	0.597
437.69	0.662
437.90	0.602
438.11	0.592
438.33	0.646
438.54	0.656
438.75	0.859
438.97	0.824
439.18	0.602
439.39	0.633
439.60	0.682
439.82	0.646
440.03	0.595
440.24	0.879
440.46	0.650
440.67	0.626
440.88	0.676
441.10	0.623
441.31	0.628
441.52	0.690
441.73	0.766
441.95	0.674
442.16	0.617
442.37	0.987
442.58	0.610
442.80	0.593
443.01	0.780
443.22	0.715
443.44	0.608
443.65	0.721
443.86	0.713
444.07	0.769
444.29	0.667
444.50	0.847
444.71	0.639
444.92	0.597
445.14	0.770
445.35	0.809
445.56	0.632
445.78	0.738
445.99	0.734
446.20	0.628
446.41	0.715
446.63	0.715
446.84	0.680
447.05	0.682
447.26	0.826
447.48	0.693
447.69	0.656
447.90	0.748
448.11	0.667
448.33	0.695
448.54	0.724
448.75	0.755
448.96	0.762
449.18	0.803
449.39	0.711
449.60	0.687
449.81	0.828
450.03	0.714
450.24	0.776
450.45	0.728
450.66	0.709
450.87	0.736
451.09	0.684
451.30	0.664
451.51	0.741
451.72	0.757
451.94	0.779
452.15	0.854
452.36	0.711
452.57	0.724
452.78	0.728
453.00	0.763
453.21	0.714
453.42	0.687
453.63	0.781
453.85	0.746
454.06	0.734
454.27	0.869
454.48	0.773
454.69	0.700
454.91	0.783
455.12	0.683
455.33	0.768
455.54	0.788
455.75	0.758
455.97	0.789
456.18	0.777
456.39	0.789
456.60	0.816
456.81	0.749
457.03	0.757
457.24	0.750
457.45	0.845
457.66	0.780
457.87	0.734
458.09	0.758
458.30	0.673
458.51	0.797
458.72	0.817
458.93	0.826
459.15	0.730
459.36	0.795
459.57	0.818
459.78	0.858
459.99	0.775
460.20	0.735
460.42	0.815
460.63	0.769
460.84	0.750
461.05	0.771
461.26	0.829
461.47	0.742
461.69	0.793
461.90	0.833
462.11	0.791
462.32	0.847
462.53	0.787
462.74	0.893
462.96	0.771
463.17	0.766
463.38	0.804
463.59	0.927
463.80	0.768
464.01	0.796
464.23	0.881
464.44	0.840
464.65	0.848
464.86	0.881
465.07	0.886
465.28	0.848
465.49	0.872
465.71	0.822
465.92	0.859
466.13	0.911
466.34	0.839
466.55	0.910
466.76	0.868
466.97	0.893
467.19	0.874
467.40	0.913
467.61	0.917
467.82	0.830
468.03	0.816
468.24	0.895
468.45	0.933
468.66	0.914
468.88	0.916
469.09	0.917
469.30	0.974
469.51	0.892
469.72	0.936
469.93	0.906
470.14	0.876
470.35	0.978
470.57	0.917
470.78	0.847
470.99	0.992
471.20	0.920
471.41	0.874
471.62	0.923
471.83	0.890
472.04	0.924
472.25	0.963
472.47	0.879
472.68	0.885
472.89	0.889
473.10	0.937
473.31	0.885
473.52	0.953
473.73	0.979
473.94	0.894
474.15	0.922
474.36	0.925
474.57	0.957
474.79	0.928
475.00	0.928
475.21	0.916
475.42	1.020
475.63	0.908
475.84	0.940
476.05	0.944
476.26	0.913
476.47	0.951
476.68	1.004
476.89	0.920
477.10	0.972
477.32	0.956
477.53	1.013
477.74	0.921
477.95	0.962
478.16	0.911
478.37	0.959
478.58	0.964
478.79	0.981
479.00	0.980
479.21	0.936
479.42	0.979
479.63	0.982
479.84	0.940
480.05	0.941
480.26	0.971
480.47	0.991
480.69	0.993
480.90	0.957
481.11	0.951
481.32	1.015
481.53	0.951
481.74	1.008
481.95	0.978
482.16	0.997
482.37	1.006
482.58	0.970
482.79	0.988
483.00	1.019
483.21	0.954
483.42	0.924
483.63	1.006
483.84	1.035
484.05	1.023
484.26	0.988
484.47	0.988
484.68	0.946
484.89	0.954
485.10	1.007
485.31	0.983
485.52	0.991
485.73	0.994
485.94	1.038
486.15	0.982
486.37	1.002
486.58	0.964
486.79	0.978
487.00	1.033
487.21	1.023
487.42	1.015
487.63	1.019
487.84	1.042
488.05	1.034
488.26	0.994
488.47	0.998
488.68	1.029
488.89	1.005
489.10	1.000
489.31	1.014
489.52	1.051
489.73	1.015
489.94	1.056
490.15	1.007
490.36	1.054
490.57	0.997
490.78	0.981
490.99	1.021
491.20	1.107
491.41	1.055
491.62	0.993
491.83	1.024
492.04	1.022
492.25	1.034
492.45	1.033
492.66	1.060
492.87	1.049
493.08	1.035
493.29	1.016
493.50	1.003
493.71	1.011
493.92	1.006
494.13	1.022
494.34	1.044
494.55	1.047
494.76	1.079
494.97	1.071
495.18	1.031
495.39	1.048
495.60	0.996
495.81	0.998
496.02	1.021
496.23	1.015
496.44	1.049
496.65	1.038
496.86	1.042
497.07	1.071
497.28	1.068
497.49	1.012
497.70	1.013
497.91	1.036
498.12	1.017
498.32	1.061
498.53	1.045
498.74	1.035
498.95	1.062
499.16	1.017
499.37	1.023
499.58	1.029
499.79	1.065
500.00	1.061
500.21	1.098
500.42	1.038
500.63	1.039
500.84	1.059
501.05	1.036
501.26	1.064
501.46	1.106
501.67	1.064
501.88	1.066
502.09	1.036
502.30	1.044
502.51	1.093
502.72	1.041
502.93	1.059
503.14	1.080
503.35	1.048
503.56	1.043
503.77	1.076
503.97	1.048
504.18	1.045
504.39	1.083
504.60	1.051
504.81	1.080
505.02	1.068
505.23	1.069
505.44	1.052
505.65	1.060
505.86	1.041
506.07	1.114
506.27	1.068
506.48	1.078
506.69	1.061
506.90	1.084
507.11	1.079
507.32	1.054
507.53	1.068
507.74	1.059
507.95	1.071
508.15	1.077
508.36	1.080
508.57	1.095
508.78	1.076
508.99	1.074
509.20	1.047
509.41	1.074
509.62	1.060
509.82	1.056
510.03	1.066
510.24	1.069
510.45	1.094
510.66	1.085
510.87	1.080
511.08	1.036
511.29	1.083
511.49	1.058
511.70	1.109
511.91	1.039
512.12	1.035
512.33	1.070
512.54	1.088
512.75	1.069
512.95	1.098
513.16	1.089
513.37	1.064
513.58	1.103
513.79	1.063
514.00	1.068
514.20	1.087
514.41	1.076
514.62	1.040
514.83	1.085
515.04	1.074
515.25	1.051
515.46	1.062
515.66	1.065
515.87	1.079
516.08	1.045
516.29	1.068
516.50	1.047
516.71	1.039
516.91	1.049
517.12	1.066
517.33	1.051
517.54	1.037
517.75	1.043
517.95	1.054
518.16	1.065
518.37	1.033
518.58	1.040
518.79	1.012
519.00	1.047
519.20	1.057
519.41	1.029
519.62	1.051
519.83	1.062
520.04	1.021
520.24	1.020
520.45	1.031
520.66	1.054
520.87	1.015
521.08	1.014
521.28	1.017
521.49	1.037
521.70	1.004
521.91	1.019
522.12	0.998
522.32	1.022
522.53	1.002
522.74	0.991
522.95	1.001
523.16	1.002
523.36	1.014
523.57	0.994
523.78	0.987
523.99	0.992
524.20	0.984
524.40	0.998
524.61	1.008
524.82	0.981
525.03	0.986
525.23	0.986
525.44	0.970
525.65	0.969
525.86	0.991
526.06	0.962
526.27	0.962
526.48	0.973
526.69	0.951
526.90	0.954
527.10	0.991
527.31	0.943
527.52	0.938
527.73	0.931
527.93	0.941
528.14	0.948
528.35	0.939
528.56	0.940
528.76	0.932
528.97	0.924
529.18	0.914
529.39	0.915
529.59	0.920
529.80	0.952
530.01	0.922
530.22	0.920
530.42	0.888
530.63	0.906
530.84	0.881
531.05	0.896
531.25	0.899
531.46	0.891
531.67	0.868
531.88	0.886
532.08	0.879
532.29	0.874
532.50	0.868
532.70	0.860
532.91	0.849
533.12	0.853
533.33	0.879
533.53	0.849
533.74	0.847
533.95	0.854
534.15	0.842
534.36	0.844
534.57	0.825
534.78	0.827
534.98	0.838
535.19	0.807
535.40	0.808
535.60	0.828
535.81	0.805
536.02	0.809
536.23	0.799
536.43	0.802
536.64	0.787
536.85	0.795
537.05	0.803
537.26	0.781
537.47	0.785
537.67	0.775
537.88	0.770
538.09	0.778
538.30	0.767
538.50	0.758
538.71	0.770
538.92	0.757
539.12	0.753
539.33	0.749
539.54	0.748
539.74	0.752
539.95	0.742
540.16	0.738
540.36	0.728
540.57	0.727
540.78	0.720
540.98	0.719
541.19	0.717
541.40	0.705
541.60	0.715
541.81	0.710
542.02	0.710
542.22	0.699
542.43	0.694
542.64	0.690
542.84	0.690
543.05	0.682
543.26	0.683
543.46	0.685
543.67	0.684
543.88	0.680
544.08	0.669
544.29	0.664
544.50	0.664
544.70	0.664
544.91	0.655
545.12	0.657
545.32	0.651
545.53	0.655
545.74	0.643
545.94	0.639
546.15	0.636
546.35	0.632
546.56	0.628
546.77	0.625
546.97	0.622
547.18	0.614
547.39	0.615
547.59	0.613
547.80	0.608
548.01	0.612
548.21	0.608
548.42	0.600
548.62	0.599
548.83	0.596
549.04	0.593
549.24	0.585
549.45	0.584
549.65	0.579
549.86	0.575
550.07	0.574
550.27	0.572
550.48	0.580
550.69	0.565
550.89	0.566
551.10	0.562
551.30	0.560
551.51	0.560
551.72	0.549
551.92	0.552
552.13	0.551
552.33	0.552
552.54	0.546
552.75	0.539
552.95	0.542
553.16	0.535
553.36	0.534
553.57	0.531
553.78	0.530
553.98	0.529
554.19	0.520
554.39	0.517
554.60	0.519
554.80	0.519
555.01	0.511
555.22	0.512
555.42	0.509
555.63	0.502
555.83	0.505
556.04	0.499
556.25	0.502
556.45	0.492
556.66	0.490
556.86	0.493
557.07	0.490
557.27	0.490
557.48	0.484
557.68	0.481
557.89	0.483
558.10	0.479
558.30	0.476
558.51	0.474
558.71	0.471
558.92	0.467
559.12	0.469
559.33	0.472
559.54	0.466
559.74	0.461
559.95	0.459
560.15	0.458
560.36	0.456
560.56	0.450
560.77	0.451
560.97	0.450
561.18	0.444
561.38	0.444
561.59	0.446
561.79	0.441
562.00	0.439
562.21	0.436
562.41	0.435
562.62	0.433
562.82	0.431
563.03	0.427
563.23	0.427
563.44	0.427
563.64	0.423
563.85	0.425
564.05	0.419
564.26	0.419
564.46	0.418
564.67	0.418
564.87	0.414
565.08	0.411
565.28	0.411
565.49	0.411
565.69	0.408
565.90	0.404
566.10	0.406
566.31	0.400
566.51	0.401
566.72	0.402
566.92	0.396
567.13	0.395
567.33	0.394
567.54	0.392
567.74	0.391
567.95	0.387
568.15	0.387
568.36	0.386
568.56	0.385
568.77	0.380
568.97	0.378
569.18	0.378
569.38	0.376
569.59	0.376
569.79	0.373
570.00	0.371
570.20	0.370
570.41	0.368
570.61	0.367
570.82	0.367
571.02	0.363
571.23	0.365
571.43	0.360
571.64	0.359
571.84	0.358
572.05	0.357
572.25	0.356
572.45	0.354
572.66	0.352
572.86	0.350
573.07	0.349
573.27	0.350
573.48	0.349
573.68	0.345
573.89	0.344
574.09	0.345
574.30	0.343
574.50	0.341
574.70	0.341
574.91	0.339
575.11	0.339
575.32	0.338
575.52	0.334
575.73	0.333
575.93	0.333
576.14	0.332
576.34	0.330
576.54	0.329
576.75	0.327
576.95	0.326
577.16	0.324
577.36	0.323
577.57	0.322
577.77	0.321
577.97	0.318
578.18	0.319
578.38	0.316
578.59	0.314
578.79	0.313
579.00	0.314
579.20	0.313
579.40	0.311
579.61	0.310
579.81	0.309
580.02	0.307
580.22	0.307
580.42	0.305
580.63	0.306
580.83	0.305
581.04	0.302
581.24	0.301
581.45	0.300
581.65	0.300
581.85	0.299
582.06	0.298
582.26	0.297
582.47	0.295
582.67	0.295
582.87	0.294
583.08	0.291
583.28	0.291
583.48	0.290
583.69	0.287
583.89	0.287
584.10	0.287
584.30	0.285
584.50	0.284
584.71	0.283
584.91	0.282
585.12	0.280
585.32	0.281
585.52	0.279
585.73	0.278
585.93	0.277
586.13	0.276
586.34	0.275
586.54	0.274
586.75	0.272
586.95	0.271
587.15	0.271
587.36	0.270
587.56	0.269
587.76	0.267
587.97	0.266
588.17	0.265
588.37	0.265
588.58	0.266
588.78	0.263
588.98	0.263
589.19	0.261
589.39	0.259
589.60	0.261
589.80	0.259
590.00	0.258
590.21	0.258
590.41	0.256
590.61	0.255
590.82	0.254
591.02	0.253
591.22	0.252
591.43	0.253
591.63	0.251
591.83	0.251
592.04	0.249
592.24	0.250
592.44	0.248
592.65	0.246
592.85	0.247
593.05	0.247
593.26	0.246
593.46	0.245
593.66	0.245
593.86	0.244
594.07	0.242
594.27	0.242
594.47	0.241
594.68	0.240
594.88	0.241
595.08	0.240
595.29	0.240
595.49	0.238
595.69	0.237
595.90	0.236
596.10	0.236
596.30	0.236
596.50	0.234
596.71	0.233
596.91	0.233
597.11	0.232
597.32	0.231
597.52	0.230
597.72	0.230
597.93	0.230
598.13	0.228
598.33	0.228
598.53	0.226
598.74	0.226
598.94	0.225
599.14	0.225
599.35	0.225
599.55	0.225
599.75	0.223
599.95	0.222
600.16	0.222
600.36	0.221
600.56	0.221
600.76	0.220
600.97	0.219
601.17	0.218
601.37	0.219
601.58	0.218
601.78	0.218
601.98	0.217
602.18	0.216
602.39	0.216
602.59	0.216
602.79	0.215
602.99	0.214
603.20	0.213
603.40	0.213
603.60	0.213
603.80	0.212
604.01	0.212
604.21	0.210
604.41	0.210
604.61	0.209
604.82	0.209
605.02	0.209
605.22	0.208
605.42	0.207
605.62	0.207
605.83	0.206
606.03	0.205
606.23	0.205
606.43	0.205
606.64	0.205
606.84	0.204
607.04	0.203
607.24	0.203
607.45	0.203
607.65	0.202
607.85	0.203
608.05	0.201
608.25	0.201
608.46	0.200
608.66	0.200
608.86	0.199
609.06	0.198
609.26	0.197
609.47	0.197
609.67	0.196
609.87	0.197
610.07	0.196
610.28	0.194
610.48	0.194
610.68	0.195
610.88	0.194
611.08	0.194
611.29	0.193
611.49	0.193
611.69	0.193
611.89	0.192
612.09	0.192
612.29	0.191
612.50	0.191
612.70	0.191
612.90	0.190
613.10	0.189
613.30	0.189
613.51	0.189
613.71	0.189
613.91	0.193
614.11	0.188
614.31	0.188
614.51	0.187
614.72	0.186
614.92	0.186
615.12	0.186
615.32	0.186
615.52	0.185
615.72	0.186
615.93	0.185
616.13	0.184
616.33	0.184
616.53	0.184
616.73	0.184
616.93	0.183
617.14	0.184
617.34	0.183
617.54	0.183
617.74	0.183
617.94	0.182
618.14	0.181
618.34	0.180
618.55	0.180
618.75	0.180
618.95	0.180
619.15	0.180
619.35	0.179
619.55	0.178
619.75	0.179
619.96	0.178
620.16	0.179
620.36	0.178
620.56	0.177
620.76	0.177
620.96	0.177
621.16	0.177
621.36	0.177
621.57	0.177
621.77	0.177
621.97	0.176
622.17	0.175
622.37	0.175
622.57	0.176
622.77	0.174
622.97	0.173
623.18	0.173
623.38	0.173
623.58	0.173
623.78	0.172
623.98	0.172
624.18	0.172
624.38	0.172
624.58	0.172
624.78	0.173
624.98	0.173
625.19	0.172
625.39	0.172
625.59	0.171
625.79	0.171
625.99	0.170
626.19	0.170
626.39	0.169
626.59	0.169
626.79	0.169
626.99	0.168
627.19	0.168
627.40	0.169
627.60	0.168
627.80	0.168
628.00	0.168
628.20	0.167
628.40	0.167
628.60	0.167
628.80	0.165
629.00	0.166
629.20	0.165
629.40	0.165
629.60	0.164
629.80	0.164
630.00	0.164
630.20	0.164
630.41	0.163
630.61	0.163
630.81	0.163
631.01	0.164
631.21	0.163
631.41	0.162
631.61	0.163
631.81	0.162
632.01	0.162
632.21	0.162
632.41	0.161
632.61	0.161
632.81	0.161
633.01	0.161
633.21	0.161
633.41	0.161
633.61	0.161
633.81	0.161
634.01	0.160
634.21	0.160
634.41	0.159
634.61	0.160
634.81	0.159
635.01	0.159
635.22	0.159
635.42	0.158
635.62	0.158
635.82	0.158
636.02	0.157
636.22	0.157
636.42	0.156
636.62	0.157
636.82	0.156
637.02	0.156
637.22	0.156
637.42	0.156
637.62	0.155
637.82	0.156
638.02	0.155
638.22	0.155
638.42	0.155
638.62	0.154
638.82	0.154
639.02	0.154
639.22	0.154
639.42	0.153
639.62	0.153
639.82	0.153
640.02	0.153
640.22	0.153
640.42	0.152
640.62	0.153
640.82	0.152
641.02	0.151
641.22	0.152
641.42	0.151
641.61	0.151
641.81	0.151
642.01	0.151
642.21	0.151
642.41	0.151
642.61	0.150
642.81	0.149
643.01	0.149
643.21	0.149
643.41	0.150
643.61	0.149
643.81	0.149
644.01	0.148
644.21	0.147
644.41	0.148
644.61	0.147
644.81	0.147
645.01	0.147
645.21	0.147
645.41	0.147
645.61	0.146
645.81	0.146
646.01	0.145
646.21	0.146
646.40	0.146
646.60	0.146
646.80	0.146
647.00	0.146
647.20	0.145
647.40	0.145
647.60	0.145
647.80	0.144
648.00	0.145
648.20	0.145
648.40	0.144
648.60	0.144
648.80	0.144
649.00	0.143
649.20	0.144
649.39	0.144
649.59	0.143
649.79	0.143
649.99	0.143
650.19	0.142
650.39	0.142
650.59	0.142
650.79	0.141
650.99	0.141
651.19	0.140
651.39	0.140
651.58	0.140
651.78	0.139
651.98	0.139
652.18	0.139
652.38	0.139
652.58	0.139
652.78	0.139
652.98	0.139
653.18	0.140
653.38	0.139
653.57	0.139
653.77	0.139
653.97	0.138
654.17	0.138
654.37	0.138
654.57	0.138
654.77	0.138
654.97	0.138
655.16	0.137
655.36	0.137
655.56	0.136
655.76	0.136
655.96	0.137
656.16	0.136
656.36	0.136
656.56	0.135
656.75	0.135
656.95	0.135
657.15	0.134
657.35	0.134
657.55	0.133
657.75	0.133
657.95	0.133
658.14	0.133
658.34	0.133
658.54	0.132
658.74	0.132
658.94	0.132
659.14	0.132
659.34	0.132
659.53	0.131
659.73	0.131
659.93	0.131
660.13	0.131
660.33	0.131
660.53	0.130
660.72	0.131
660.92	0.131
661.12	0.130
661.32	0.130
661.52	0.129
661.72	0.130
661.91	0.129
662.11	0.129
662.31	0.129
662.51	0.129
662.71	0.129
662.90	0.128
663.10	0.128
663.30	0.128
663.50	0.128
663.70	0.128
663.90	0.127
664.09	0.127
664.29	0.127
664.49	0.127
664.69	0.127
664.89	0.126
665.08	0.126
665.28	0.126
665.48	0.126
665.68	0.125
665.88	0.125
666.07	0.125
666.27	0.125
666.47	0.125
666.67	0.125
666.87	0.125
667.06	0.124
667.26	0.124
667.46	0.124
667.66	0.124
667.85	0.124
668.05	0.124
668.25	0.124
668.45	0.124
668.65	0.123
668.84	0.123
669.04	0.122
669.24	0.122
669.44	0.121
669.63	0.121
669.83	0.121
670.03	0.120
670.23	0.119
670.42	0.119
670.62	0.118
670.82	0.118
671.02	0.118
671.22	0.118
671.41	0.118
671.61	0.118
671.81	0.118
672.01	0.118
672.20	0.118
672.40	0.118
672.60	0.118
672.80	0.118
672.99	0.118
673.19	0.117
673.39	0.117
673.58	0.117
673.78	0.117
673.98	0.117
674.18	0.116
674.37	0.116
674.57	0.116
674.77	0.116
674.97	0.116
675.16	0.116
675.36	0.116
675.56	0.116
675.75	0.116
675.95	0.115
676.15	0.116
676.35	0.115
676.54	0.115
676.74	0.114
676.94	0.115
677.13	0.114
677.33	0.113
677.53	0.114
677.73	0.114
677.92	0.113
678.12	0.113
678.32	0.113
678.51	0.112
678.71	0.112
678.91	0.112
679.11	0.112
679.30	0.112
679.50	0.112
679.70	0.111
679.89	0.111
680.09	0.111
680.29	0.111
680.48	0.110
680.68	0.110
680.88	0.110
681.07	0.110
681.27	0.109
681.47	0.109
681.66	0.109
681.86	0.109
682.06	0.109
682.25	0.109
682.45	0.108
682.65	0.108
682.84	0.108
683.04	0.108
683.24	0.108
683.43	0.108
683.63	0.107
683.83	0.108
684.02	0.107
684.22	0.107
684.42	0.107
684.61	0.107
684.81	0.107
685.01	0.107
685.20	0.106
685.40	0.106
685.60	0.106
685.79	0.106
685.99	0.106
686.19	0.105
686.38	0.105
686.58	0.105
686.77	0.105
686.97	0.105
687.17	0.105
687.36	0.105
687.56	0.104
687.76	0.104
687.95	0.104
688.15	0.103
688.34	0.103
688.54	0.103
688.74	0.102
688.93	0.102
689.13	0.102
689.33	0.102
689.52	0.102
689.72	0.103
689.91	0.102
690.11	0.102
690.31	0.102
690.50	0.102
690.70	0.103
690.89	0.102
691.09	0.102
691.29	0.102
691.48	0.101
691.68	0.101
691.87	0.101
692.07	0.101
692.27	0.101
692.46	0.101
692.66	0.100
692.85	0.100
693.05	0.100
693.25	0.100
693.44	0.100
693.64	0.100
693.83	0.099
694.03	0.099
694.22	0.098
694.42	0.098
694.62	0.098
694.81	0.098
695.01	0.099
695.20	0.098
695.40	0.097
695.59	0.097
695.79	0.097
695.99	0.097
696.18	0.097
696.38	0.097
696.57	0.097
696.77	0.096
696.96	0.097
697.16	0.096
697.36	0.096
697.55	0.096
697.75	0.096
697.94	0.096
698.14	0.096
698.33	0.096
698.53	0.095
698.72	0.095
698.92	0.095
699.11	0.095
699.31	0.095
699.51	0.095
699.70	0.095
699.90	0.095
700.09	0.095
700.29	0.094
700.48	0.095
700.68	0.094
700.87	0.094
701.07	0.094
701.26	0.094
701.46	0.093
701.65	0.093
701.85	0.094
702.04	0.093
702.24	0.093
702.43	0.093
702.63	0.093
702.82	0.093
703.02	0.093
703.21	0.093
703.41	0.093
703.60	0.093
703.80	0.093
703.99	0.092
704.19	0.093
704.38	0.093
704.58	0.092
704.77	0.092
704.97	0.092
705.16	0.092
705.36	0.092
705.55	0.092
705.75	0.092
705.94	0.092
706.14	0.091
706.33	0.091
706.53	0.091
706.72	0.091
706.92	0.091
707.11	0.091
707.31	0.091
707.50	0.091
707.70	0.091
707.89	0.091
708.09	0.091
708.28	0.091
708.48	0.091
708.67	0.090
708.86	0.091
709.06	0.090
709.25	0.090
709.45	0.090
709.64	0.090
709.84	0.090
710.03	0.090
710.23	0.090
710.42	0.090
710.62	0.090
710.81	0.089
711.00	0.089
711.20	0.089
711.39	0.089
711.59	0.089
711.78	0.089
711.98	0.089
712.17	0.089
712.37	0.089
712.56	0.089
712.75	0.089
712.95	0.089
713.14	0.090
713.34	0.090
713.53	0.090
713.73	0.090
713.92	0.090
714.11	0.089
714.31	0.090
714.50	0.089
714.70	0.089
714.89	0.089
715.08	0.089
715.28	0.089
715.47	0.089
715.67	0.089
715.86	0.088
716.06	0.089
716.25	0.089
716.44	0.089
716.64	0.089
716.83	0.088
717.03	0.088
717.22	0.088
717.41	0.088
717.61	0.088
717.80	0.088
717.99	0.088
718.19	0.088
718.38	0.088
718.58	0.087
718.77	0.087
718.96	0.087
719.16	0.087
719.35	0.087
719.55	0.087
719.74	0.086
719.93	0.086
720.13	0.086
720.32	0.086
720.51	0.086
720.71	0.085
720.90	0.085
721.10	0.085
721.29	0.085
721.48	0.085
721.68	0.085
721.87	0.085
722.06	0.086
722.26	0.086
722.45	0.086
722.64	0.086
722.84	0.086
723.03	0.087
723.22	0.087
723.42	0.087
723.61	0.087
723.80	0.087
724.00	0.087
724.19	0.087
724.38	0.086
724.58	0.086
724.77	0.086
724.96	0.086
725.16	0.086
725.35	0.086
725.54	0.086
725.74	0.086
725.93	0.086
726.12	0.086
726.32	0.086
726.51	0.086
726.70	0.086
726.90	0.087
727.09	0.086
727.28	0.086
727.48	0.086
727.67	0.086
727.86	0.086
728.06	0.086
728.25	0.086
728.44	0.086
728.64	0.086
728.83	0.086
729.02	0.085
729.21	0.086
729.41	0.086
729.60	0.085
729.79	0.086
729.99	0.085
730.18	0.085
730.37	0.085
730.56	0.085
730.76	0.085
730.95	0.085
731.14	0.085
731.34	0.085
731.53	0.085
731.72	0.085
731.91	0.085
732.11	0.085
732.30	0.086
732.49	0.086
732.69	0.086
732.88	0.086
733.07	0.086
733.26	0.086
733.46	0.086
733.65	0.086
733.84	0.086
734.03	0.086
734.23	0.086
734.42	0.086
734.61	0.086
734.80	0.085
735.00	0.085
735.19	0.085
735.38	0.086
735.57	0.086
735.77	0.086
735.96	0.085
736.15	0.085
736.34	0.085
736.54	0.085
736.73	0.086
736.92	0.086
737.11	0.086
737.31	0.086
737.50	0.086
737.69	0.086
737.88	0.086
738.07	0.086
738.27	0.086
738.46	0.086
738.65	0.086
738.84	0.086
739.04	0.086
739.23	0.086
739.42	0.086
739.61	0.086
739.80	0.086
740.00	0.086
740.19	0.086
740.38	0.086
740.57	0.086
740.76	0.086
740.96	0.086
741.15	0.085
741.34	0.085
741.53	0.085
741.72	0.085
741.92	0.085
742.11	0.084
742.30	0.084
742.49	0.084
742.68	0.084
742.88	0.084
743.07	0.084
743.26	0.084
743.45	0.085
743.64	0.084
743.84	0.084
744.03	0.084
744.22	0.084
744.41	0.084
744.60	0.083
744.79	0.084
744.99	0.083
745.18	0.083
745.37	0.083
745.56	0.083
745.75	0.083
745.94	0.083
746.14	0.083
746.33	0.083
746.52	0.083
746.71	0.083
746.90	0.083
747.09	0.083
747.28	0.083
747.48	0.083
747.67	0.083
747.86	0.083
748.05	0.083
748.24	0.083
748.43	0.083
748.62	0.083
748.82	0.083
749.01	0.083
749.20	0.082
749.39	0.082
749.58	0.082
749.77	0.082
749.96	0.082
750.16	0.082
750.35	0.082
750.54	0.082
750.73	0.082
750.92	0.083
751.11	0.082
751.30	0.083
751.49	0.083
751.68	0.082
751.88	0.082
752.07	0.082
752.26	0.082
752.45	0.082
752.64	0.082
752.83	0.082
753.02	0.081
753.21	0.081
753.40	0.081
753.60	0.081
753.79	0.081
753.98	0.081
754.17	0.081
754.36	0.081
754.55	0.081
754.74	0.081
754.93	0.081
755.12	0.081
755.31	0.081
755.50	0.081
755.70	0.081
755.89	0.080
756.08	0.081
756.27	0.081
756.46	0.081
756.65	0.080
756.84	0.080
757.03	0.081
757.22	0.080
757.41	0.081
757.60	0.080
757.79	0.080
757.98	0.080
758.17	0.080
758.36	0.080
758.56	0.080
758.75	0.079
758.94	0.079
759.13	0.079
759.32	0.079
759.51	0.079
759.70	0.079
759.89	0.079
760.08	0.079
760.27	0.079
760.46	0.079
760.65	0.079
760.84	0.079
761.03	0.080
761.22	0.079
761.41	0.080
761.60	0.080
761.79	0.079
761.98	0.080
762.17	0.079
762.36	0.079
762.55	0.079
762.74	0.079
762.93	0.079
763.12	0.078
763.31	0.078
763.50	0.077
763.69	0.078
763.88	0.077
764.07	0.077
764.26	0.077
764.45	0.077
764.64	0.078
764.83	0.077
765.02	0.077
765.21	0.078
765.40	0.078
765.59	0.078
765.78	0.078
765.97	0.078
766.16	0.079
766.35	0.079
766.54	0.079
766.73	0.079
766.92	0.079
767.11	0.079
767.30	0.079
767.49	0.079
767.68	0.079
767.87	0.078
768.06	0.078
768.25	0.078
768.44	0.078
768.63	0.078
768.82	0.078
769.01	0.078
769.20	0.078
769.39	0.078
769.58	0.078
769.77	0.078
769.96	0.078
770.15	0.078
770.34	0.078
770.53	0.078
770.72	0.078
770.91	0.077
771.10	0.077
771.29	0.077
771.47	0.077
771.66	0.076
771.85	0.077
772.04	0.077
772.23	0.076
772.42	0.076
772.61	0.076
772.80	0.076
772.99	0.076
773.18	0.076
773.37	0.076
773.56	0.076
773.75	0.077
773.94	0.077
774.13	0.076
774.31	0.077
774.50	0.077
774.69	0.077
774.88	0.077
775.07	0.077
775.26	0.077
775.45	0.076
775.64	0.076
775.83	0.076
776.02	0.076
776.21	0.076
776.40	0.076
776.58	0.075
776.77	0.075
776.96	0.075
777.15	0.075
777.34	0.075
777.53	0.075
777.72	0.075
777.91	0.075
778.10	0.075
778.28	0.075
778.47	0.075
778.66	0.075
778.85	0.075
779.04	0.075
779.23	0.075
779.42	0.075
779.61	0.074
779.79	0.074
779.98	0.074
780.17	0.075
780.36	0.075
780.55	0.074
780.74	0.074
780.93	0.074
781.12	0.074
781.30	0.074
781.49	0.074
781.68	0.074
781.87	0.074
782.06	0.074
782.25	0.074
782.44	0.075
782.62	0.075
782.81	0.075
783.00	0.075
783.19	0.075
783.38	0.075
783.57	0.075
783.75	0.074
783.94	0.074
784.13	0.074
784.32	0.074
784.51	0.074
784.70	0.074
784.88	0.074
785.07	0.073
785.26	0.073
785.45	0.074
785.64	0.074
785.83	0.074
786.01	0.074
786.20	0.074
786.39	0.074
786.58	0.074
786.77	0.073
786.95	0.074
787.14	0.074
787.33	0.074
787.52	0.074
787.71	0.074
787.90	0.073
788.08	0.073
788.27	0.073
788.46	0.073
788.65	0.073
788.84	0.073
789.02	0.073
789.21	0.073
789.40	0.072
789.59	0.072
789.77	0.073
789.96	0.072
790.15	0.073
790.34	0.072
790.53	0.072
790.71	0.072
790.90	0.072
791.09	0.072
791.28	0.073
791.46	0.073
791.65	0.073
791.84	0.073
792.03	0.072
792.22	0.073
792.40	0.072
792.59	0.073
792.78	0.073
792.97	0.073
793.15	0.073
793.34	0.073
793.53	0.073
793.72	0.073
793.90	0.073
794.09	0.073
794.28	0.073
794.47	0.073
794.65	0.072
794.84	0.072
795.03	0.072
795.22	0.072
795.40	0.072
795.59	0.072
795.78	0.072
795.97	0.072
796.15	0.072
796.34	0.072
796.53	0.072
796.71	0.072
796.90	0.072
797.09	0.072
797.28	0.072
797.46	0.072
797.65	0.072
797.84	0.071
798.02	0.071
798.21	0.071
798.40	0.071
798.59	0.071
798.77	0.071
798.96	0.071
799.15	0.070
799.33	0.071
799.52	0.071
799.71	0.071
799.90	0.071
800.08	0.071
800.27	0.071
800.46	0.071
800.64	0.071
800.83	0.071
801.02	0.071
801.20	0.071
801.39	0.071
801.58	0.071
801.76	0.070
801.95	0.070
802.14	0.070
802.32	0.070
802.51	0.070
802.70	0.070
802.88	0.070
803.07	0.070
803.26	0.070
803.44	0.069
803.63	0.070
803.82	0.070
804.00	0.070
804.19	0.070
804.38	0.070
804.56	0.070
804.75	0.071
804.94	0.071
805.12	0.071
805.31	0.071
805.50	0.071
805.68	0.071
805.87	0.071
806.06	0.071
806.24	0.071
806.43	0.071
806.62	0.071
806.80	0.071
806.99	0.071
807.17	0.070
807.36	0.070
807.55	0.070
807.73	0.070
807.92	0.071
808.11	0.070
808.29	0.070
808.48	0.070
808.66	0.070
808.85	0.069
809.04	0.069
809.22	0.069
809.41	0.069
809.59	0.069
809.78	0.069
809.97	0.069
810.15	0.069
810.34	0.069
810.53	0.069
810.71	0.069
810.90	0.069
811.08	0.069
811.27	0.069
811.45	0.069
811.64	0.069
811.83	0.069
812.01	0.069
812.20	0.069
812.38	0.069
812.57	0.069
812.76	0.069
812.94	0.069
813.13	0.069
813.31	0.069
813.50	0.069
813.68	0.069
813.87	0.069
814.06	0.069
814.24	0.069
814.43	0.069
814.61	0.069
814.80	0.069
814.98	0.069
815.17	0.069
815.36	0.069
815.54	0.069
815.73	0.069
815.91	0.069
816.10	0.069
816.28	0.069
816.47	0.069
816.65	0.069
816.84	0.069
817.03	0.070
817.21	0.070
817.40	0.070
817.58	0.070
817.77	0.070
817.95	0.070
818.14	0.070
818.32	0.070
818.51	0.070
818.69	0.070
818.88	0.070
819.06	0.070
819.25	0.070
819.43	0.070
819.62	0.070
819.80	0.070
819.99	0.070
820.18	0.070
820.36	0.070
820.55	0.070
820.73	0.070
820.92	0.070
821.10	0.070
821.29	0.070
821.47	0.070
821.66	0.070
821.84	0.070
822.03	0.070
822.21	0.070
822.40	0.070
822.58	0.070
822.77	0.070
822.95	0.070
823.14	0.070
823.32	0.070
823.50	0.070
823.69	0.070
823.87	0.070
824.06	0.070
824.24	0.070
824.43	0.070
824.61	0.070
824.80	0.070
824.98	0.071
825.17	0.071
825.35	0.071
825.54	0.072
825.72	0.071
825.91	0.071
826.09	0.071
826.28	0.071
826.46	0.072
826.64	0.072
826.83	0.072
827.01	0.072
827.20	0.072
827.38	0.072
827.57	0.072
827.75	0.072
827.94	0.072
828.12	0.073
828.31	0.073
828.49	0.073
828.67	0.072
828.86	0.072
829.04	0.072
829.23	0.072
829.41	0.073
829.60	0.073
829.78	0.073
829.96	0.074
830.15	0.074
830.33	0.074
830.52	0.074
830.70	0.074
830.88	0.074
831.07	0.074
831.25	0.075
831.44	0.074
831.62	0.074
831.81	0.074
831.99	0.074
832.17	0.075
832.36	0.075
832.54	0.075
832.73	0.075
832.91	0.075
833.09	0.075
833.28	0.075
833.46	0.075
833.65	0.075
833.83	0.076
834.01	0.076
834.20	0.076
834.38	0.076
834.56	0.076
834.75	0.076
834.93	0.075
835.12	0.075
835.30	0.075
835.48	0.076
835.67	0.076
835.85	0.076
836.03	0.075
836.22	0.075
836.40	0.075
836.59	0.076
836.77	0.075
836.95	0.076
837.14	0.076
837.32	0.075
837.50	0.076
837.69	0.075
837.87	0.076
838.05	0.076
838.24	0.076
838.42	0.076
838.60	0.076
838.79	0.077
838.97	0.076
839.15	0.077
839.34	0.077
839.52	0.077
839.70	0.077
839.89	0.077
840.07	0.077
840.25	0.077
840.44	0.077
840.62	0.077
840.80	0.077
840.99	0.077
841.17	0.077
841.35	0.077
841.54	0.077
841.72	0.077
841.90	0.077
842.09	0.077
842.27	0.077
842.45	0.077
842.64	0.078
842.82	0.078
843.00	0.077
843.19	0.077
843.37	0.077
843.55	0.077
843.73	0.077
843.92	0.077
844.10	0.077
844.28	0.077
844.47	0.077
844.65	0.077
844.83	0.077
845.01	0.077
845.20	0.078
845.38	0.078
845.56	0.078
845.75	0.078
845.93	0.078
846.11	0.077
846.29	0.078
846.48	0.078
846.66	0.078
846.84	0.078
847.02	0.077
847.21	0.077
847.39	0.078
847.57	0.077
847.76	0.078
847.94	0.078
848.12	0.078
848.30	0.078
848.49	0.078
848.67	0.077
848.85	0.078
849.03	0.078
849.22	0.078
849.40	0.078
849.58	0.078
849.76	0.078
849.95	0.078
850.13	0.078
850.31	0.078
850.49	0.079
850.67	0.079
850.86	0.079
851.04	0.078
851.22	0.078
851.40	0.078
851.59	0.078
851.77	0.078
851.95	0.078
852.13	0.078
852.31	0.077
852.50	0.078
852.68	0.078
852.86	0.078
853.04	0.078
853.23	0.078
853.41	0.078
853.59	0.078
853.77	0.078
853.95	0.078
854.14	0.078
854.32	0.078
854.50	0.078
854.68	0.078
854.86	0.078
855.04	0.079
855.23	0.079
855.41	0.079
855.59	0.079
855.77	0.079
855.95	0.079
856.14	0.079
856.32	0.079
856.50	0.079
856.68	0.079
856.86	0.079
857.04	0.079
857.23	0.079
857.41	0.079
857.59	0.078
857.77	0.078
857.95	0.078
858.13	0.078
858.32	0.078
858.50	0.079
858.68	0.078
858.86	0.078
859.04	0.079
859.22	0.079
859.41	0.079
859.59	0.079
859.77	0.079
859.95	0.079
860.13	0.079
860.31	0.079
860.49	0.079
860.68	0.079
860.86	0.080
861.04	0.079
861.22	0.079
861.40	0.079
861.58	0.079
861.76	0.079
861.94	0.078
862.13	0.078
862.31	0.078
862.49	0.079
862.67	0.079
862.85	0.079
863.03	0.079
863.21	0.080
863.39	0.079
863.57	0.079
863.76	0.079
863.94	0.080
864.12	0.080
864.30	0.080
864.48	0.079
864.66	0.079
864.84	0.079
865.02	0.079
865.20	0.079
865.38	0.079
865.57	0.080
865.75	0.080
865.93	0.080
866.11	0.080
866.29	0.080
866.47	0.080
866.65	0.080
866.83	0.081
867.01	0.080
867.19	0.080
867.37	0.080
867.55	0.080
867.73	0.080
867.92	0.080
868.10	0.080
868.28	0.080
868.46	0.080
868.64	0.080
868.82	0.080
869.00	0.081
869.18	0.081
869.36	0.080
869.54	0.081
869.72	0.081
869.90	0.081
870.08	0.081
870.26	0.081
870.44	0.081
870.62	0.081
870.80	0.081
870.98	0.081
871.16	0.081
871.34	0.081
871.53	0.081
871.71	0.081
871.89	0.081
872.07	0.081
872.25	0.081
872.43	0.081
872.61	0.081
872.79	0.081
872.97	0.081
873.15	0.081
873.33	0.081
873.51	0.081
873.69	0.082
873.87	0.082
874.05	0.082
874.23	0.082
874.41	0.082
874.59	0.082
874.77	0.082
874.95	0.082
875.13	0.082
875.31	0.082
875.49	0.082
875.67	0.082
875.85	0.082
876.03	0.082
876.21	0.082
876.39	0.082
876.57	0.082
876.75	0.082
876.93	0.083
877.11	0.083
877.29	0.083
877.47	0.083
877.65	0.083
877.82	0.084
878.00	0.084
878.18	0.084
878.36	0.083
878.54	0.083
878.72	0.083
878.90	0.083
879.08	0.083
879.26	0.083
879.44	0.084
879.62	0.083
879.80	0.083
879.98	0.083
880.16	0.083
880.34	0.083
880.52	0.083
880.70	0.083
880.88	0.083
881.06	0.083
881.24	0.083
881.42	0.083
881.59	0.083
881.77	0.082
881.95	0.083
882.13	0.083
882.31	0.083
882.49	0.083
882.67	0.083
882.85	0.083
883.03	0.083
883.21	0.083
883.39	0.083
883.57	0.084
883.75	0.084
883.92	0.084
884.10	0.084
884.28	0.084
884.46	0.084
884.64	0.084
884.82	0.083
885.00	0.083
885.18	0.083
885.36	0.084
885.54	0.083
885.71	0.084
885.89	0.084
886.07	0.084
886.25	0.084
886.43	0.084
886.61	0.084
886.79	0.084
886.97	0.085
887.15	0.084
887.32	0.084
887.50	0.085
887.68	0.085
887.86	0.085
888.04	0.085
888.22	0.085
888.40	0.085
888.57	0.085
888.75	0.085
888.93	0.085
889.11	0.085
889.29	0.085
889.47	0.086
889.65	0.085
889.82	0.085
890.00	0.086
890.18	0.086
890.36	0.086
890.54	0.086
890.72	0.086
890.90	0.086
891.07	0.086
891.25	0.086
891.43	0.085
891.61	0.086
891.79	0.086
891.97	0.086
892.14	0.086
892.32	0.086
892.50	0.086
892.68	0.085
892.86	0.085
893.03	0.085
893.21	0.086
893.39	0.086
893.57	0.086
893.75	0.086
893.93	0.086
894.10	0.086
894.28	0.086
894.46	0.086
894.64	0.086
894.82	0.086
894.99	0.086
895.17	0.086
895.35	0.086
895.53	0.086
895.71	0.086
895.88	0.086
896.06	0.086
896.24	0.086
896.42	0.086
896.59	0.086
896.77	0.086
896.95	0.086
897.13	0.086
897.31	0.086
897.48	0.086
897.66	0.087
897.84	0.087
898.02	0.087
898.19	0.087
898.37	0.087
898.55	0.087
898.73	0.087
898.91	0.087
899.08	0.087
899.26	0.087
899.44	0.087
899.62	0.087
899.79	0.087
899.97	0.087
900.15	0.087
900.33	0.088
900.50	0.088
900.68	0.087
900.86	0.087
901.04	0.088
901.21	0.088
901.39	0.088
901.57	0.088
901.74	0.088
901.92	0.088
902.10	0.088
902.28	0.088
902.45	0.088
902.63	0.088
902.81	0.088
902.99	0.088
903.16	0.088
903.34	0.088
903.52	0.088
903.69	0.088
903.87	0.088
904.05	0.088
904.22	0.089
904.40	0.089
904.58	0.089
904.76	0.089
904.93	0.089
905.11	0.089
905.29	0.089
905.46	0.089
905.64	0.090
905.82	0.090
905.99	0.090
906.17	0.090
906.35	0.090
906.53	0.090
906.70	0.090
906.88	0.090
907.06	0.090
907.23	0.090
907.41	0.091
907.59	0.090
907.76	0.090
907.94	0.090
908.12	0.090
908.29	0.091
908.47	0.091
908.65	0.091
908.82	0.091
909.00	0.091
909.18	0.091
909.35	0.091
909.53	0.091
909.71	0.091
909.88	0.091
910.06	0.091
910.23	0.091
910.41	0.092
910.59	0.091
910.76	0.091
910.94	0.091
911.12	0.091
911.29	0.091
911.47	0.091
911.65	0.091
911.82	0.091
912.00	0.092
912.17	0.092
912.35	0.092
912.53	0.092
912.70	0.093
912.88	0.093
913.06	0.094
913.23	0.094
913.41	0.094
913.58	0.094
913.76	0.094
913.94	0.094
914.11	0.094
914.29	0.093
914.46	0.094
914.64	0.094
914.82	0.094
914.99	0.094
915.17	0.094
915.34	0.094
915.52	0.094
915.70	0.094
915.87	0.094
916.05	0.094
916.22	0.094
916.40	0.095
916.57	0.095
916.75	0.095
916.93	0.095
917.10	0.095
917.28	0.095
917.45	0.095
917.63	0.095
917.80	0.095
917.98	0.095
918.16	0.095
918.33	0.096
918.51	0.096
918.68	0.096
918.86	0.096
919.03	0.096
919.21	0.097
919.39	0.097
919.56	0.098
919.74	0.098
919.91	0.098
920.09	0.098
920.26	0.098
920.44	0.098
920.61	0.098
920.79	0.098
920.96	0.098
921.14	0.099
921.31	0.099
921.49	0.099
921.67	0.099
921.84	0.099
922.02	0.099
922.19	0.100
922.37	0.100
922.54	0.100
922.72	0.101
922.89	0.101
923.07	0.101
923.24	0.101
923.42	0.102
923.59	0.102
923.77	0.102
923.94	0.102
924.12	0.102
924.29	0.103
924.47	0.103
924.64	0.103
924.82	0.103
924.99	0.104
925.17	0.105
925.34	0.105
925.52	0.105
925.69	0.106
925.87	0.106
926.04	0.106
926.22	0.107
926.39	0.107
926.57	0.108
926.74	0.108
926.91	0.108
927.09	0.108
927.26	0.108
927.44	0.109
927.61	0.109
927.79	0.109
927.96	0.110
928.14	0.110
928.31	0.110
928.49	0.110
928.66	0.110
928.84	0.111
929.01	0.111
929.18	0.112
929.36	0.112
929.53	0.113
929.71	0.113
929.88	0.113
930.06	0.114
930.23	0.114
930.41	0.114
930.58	0.115
930.75	0.116
930.93	0.116
931.10	0.116
931.28	0.117
931.45	0.117
931.63	0.118
931.80	0.118
931.97	0.118
932.15	0.119
932.32	0.120
932.50	0.120
932.67	0.120
932.84	0.121
933.02	0.122
933.19	0.122
933.37	0.123
933.54	0.124
933.71	0.124
933.89	0.125
934.06	0.125
934.24	0.125
934.41	0.126
934.58	0.126
934.76	0.127
934.93	0.127
935.11	0.127
935.28	0.127
935.45	0.127
935.63	0.128
935.80	0.128
935.98	0.129
936.15	0.129
936.32	0.130
936.50	0.130
936.67	0.131
936.84	0.131
937.02	0.132
937.19	0.133
937.36	0.133
937.54	0.134
937.71	0.135
937.89	0.135
938.06	0.135
938.23	0.136
938.41	0.137
938.58	0.137
938.75	0.137
938.93	0.138
939.10	0.138
939.27	0.138
939.45	0.139
939.62	0.140
939.79	0.141
939.97	0.141
940.14	0.142
940.31	0.142
940.49	0.143
940.66	0.144
940.83	0.144
941.01	0.145
941.18	0.146
941.35	0.146
941.53	0.147
941.70	0.148
941.87	0.148
942.05	0.149
942.22	0.149
942.39	0.150
942.57	0.150
942.74	0.151
942.91	0.152
943.08	0.152
943.26	0.153
943.43	0.153
943.60	0.154
943.78	0.155
943.95	0.156
944.12	0.156
944.29	0.157
944.47	0.158
944.64	0.158
944.81	0.160
944.99	0.160
945.16	0.161
945.33	0.161
945.50	0.162
945.68	0.163
945.85	0.163
946.02	0.165
946.20	0.166
946.37	0.167
946.54	0.168
946.71	0.169
946.89	0.169
947.06	0.170
947.23	0.171
947.40	0.172
947.58	0.172
947.75	0.173
947.92	0.174
948.09	0.174
948.27	0.175
948.44	0.177
948.61	0.177
948.78	0.178
948.96	0.180
949.13	0.180
949.30	0.181
949.47	0.182
949.65	0.183
949.82	0.185
949.99	0.185
950.16	0.187
950.33	0.187
950.51	0.189
950.68	0.190
950.85	0.191
951.02	0.193
951.20	0.194
951.37	0.195
951.54	0.196
951.71	0.197
951.88	0.198
952.06	0.200
952.23	0.200
952.40	0.202
952.57	0.203
952.74	0.204
952.92	0.205
953.09	0.206
953.26	0.207
953.43	0.208
953.60	0.209
953.77	0.210
953.95	0.211
954.12	0.213
954.29	0.214
954.46	0.216
954.63	0.218
954.81	0.219
954.98	0.219
955.15	0.222
955.32	0.223
955.49	0.223
955.66	0.224
955.84	0.226
956.01	0.226
956.18	0.228
956.35	0.230
956.52	0.230
956.69	0.232
956.87	0.232
957.04	0.233
957.21	0.235
957.38	0.234
957.55	0.236
957.72	0.237
957.89	0.238
958.07	0.238
958.24	0.241
958.41	0.242
958.58	0.242
958.75	0.243
958.92	0.244
959.09	0.244
959.26	0.245
959.44	0.246
959.61	0.247
959.78	0.247
959.95	0.249
960.12	0.249
960.29	0.250
960.46	0.250
960.63	0.251
960.81	0.251
960.98	0.252
961.15	0.252
961.32	0.253
961.49	0.252
961.66	0.254
961.83	0.254
962.00	0.254
962.17	0.255
962.34	0.254
962.52	0.256
962.69	0.256
962.86	0.256
963.03	0.257
963.20	0.257
963.37	0.257
963.54	0.258
963.71	0.258
963.88	0.258
964.05	0.259
964.22	0.260
964.39	0.259
964.56	0.260
964.74	0.261
964.91	0.260
965.08	0.261
965.25	0.261
965.42	0.261
965.59	0.262
965.76	0.262
965.93	0.263
966.10	0.262
966.27	0.263
966.44	0.263
966.61	0.264
966.78	0.263
966.95	0.262
967.12	0.264
967.29	0.265
967.46	0.264
967.63	0.264
967.80	0.265
967.97	0.264
968.14	0.264
968.32	0.265
968.49	0.265
968.66	0.264
968.83	0.265
969.00	0.265
969.17	0.265
969.34	0.265
969.51	0.266
969.68	0.264
969.85	0.266
970.02	0.265
970.19	0.265
970.36	0.266
970.53	0.266
970.70	0.264
970.87	0.265
971.04	0.264
971.21	0.265
971.38	0.265
971.55	0.265
971.72	0.265
971.89	0.266
972.06	0.265
972.23	0.266
972.40	0.266
972.57	0.265
972.74	0.265
972.91	0.266
973.07	0.266
973.24	0.266
973.41	0.266
973.58	0.265
973.75	0.278
973.92	0.266
974.09	0.264
974.26	0.264
974.43	0.263
974.60	0.264
974.77	0.265
974.94	0.264
975.11	0.265
975.28	0.265
975.45	0.264
975.62	0.264
975.79	0.265
975.96	0.265
976.13	0.264
976.30	0.266
976.47	0.264
976.64	0.264
976.80	0.265
976.97	0.265
977.14	0.264
977.31	0.264
977.48	0.265
977.65	0.264
977.82	0.263
977.99	0.264
978.16	0.263
978.33	0.263
978.50	0.262
978.67	0.262
978.83	0.262
979.00	0.263
979.17	0.262
979.34	0.262
979.51	0.261
979.68	0.262
979.85	0.261
980.02	0.262
980.19	0.259
980.36	0.261
980.52	0.262
980.69	0.261
980.86	0.261
981.03	0.261
981.20	0.259
981.37	0.260
981.54	0.261
981.71	0.260
981.88	0.261
982.04	0.261
982.21	0.261
982.38	0.262
982.55	0.260
982.72	0.259
982.89	0.261
983.06	0.259
983.22	0.259
983.39	0.259
983.56	0.259
983.73	0.258
983.90	0.257
984.07	0.258
984.24	0.257
984.40	0.257
984.57	0.256
984.74	0.258
984.91	0.258
985.08	0.256
985.25	0.254
985.41	0.256
985.58	0.256
985.75	0.257
985.92	0.256
986.09	0.255
986.26	0.255
986.42	0.254
986.59	0.253
986.76	0.254
986.93	0.255
987.10	0.255
987.27	0.251
987.43	0.250
987.60	0.252
987.77	0.251
987.94	0.249
988.11	0.250
988.27	0.250
988.44	0.249
988.61	0.247
988.78	0.246
988.95	0.247
989.11	0.249
989.28	0.247
989.45	0.246
989.62	0.245
989.79	0.246
989.95	0.245
990.12	0.247
990.29	0.247
990.46	0.245
990.62	0.243
990.79	0.244
990.96	0.244
991.13	0.244
991.30	0.243
991.46	0.243
991.63	0.241
991.80	0.240
991.97	0.240
992.13	0.242
992.30	0.242
992.47	0.240
992.64	0.240
992.80	0.240
992.97	0.241
993.14	0.239
993.31	0.236
993.47	0.239
993.64	0.237
993.81	0.236
993.98	0.236
994.14	0.235
994.31	0.234
994.48	0.235
994.64	0.235
994.81	0.233
994.98	0.233
995.15	0.231
995.31	0.231
995.48	0.230
995.65	0.232
995.82	0.230
995.98	0.230
996.15	0.231
996.32	0.232
996.48	0.230
996.65	0.230
996.82	0.228
996.99	0.228
997.15	0.227
997.32	0.228
997.49	0.226
997.65	0.228
997.82	0.226
997.99	0.224
998.15	0.225
998.32	0.227
998.49	0.226
998.65	0.226
998.82	0.226
998.99	0.224
999.15	0.225
999.32	0.224
999.49	0.223
999.65	0.224
999.82	0.221
999.99	0.222
1000.15	0.221
1000.32	0.221
1000.49	0.221
1000.65	0.219
1000.82	0.218
1000.99	0.219
1001.15	0.220
1001.32	0.219
1001.49	0.219
1001.65	0.219
1001.82	0.221
1001.99	0.217
1002.15	0.217
1002.32	0.217
1002.49	0.218
1002.65	0.218
1002.82	0.215
1002.99	0.214
1003.15	0.217
1003.32	0.216
1003.48	0.216
1003.65	0.216
1003.82	0.214
1003.98	0.211
1004.15	0.211
1004.32	0.211
1004.48	0.211
1004.65	0.212
1004.81	0.209
1004.98	0.207
1005.15	0.208
1005.31	0.207
1005.48	0.205
1005.64	0.206
1005.81	0.208
1005.98	0.204
1006.14	0.204
1006.31	0.204
1006.47	0.203
1006.64	0.203
1006.81	0.202
1006.97	0.202
1007.14	0.202
1007.30	0.203
1007.47	0.202
1007.63	0.200
1007.80	0.199
1007.97	0.199
1008.13	0.199
1008.30	0.198
1008.46	0.198
1008.63	0.197
1008.79	0.198
1008.96	0.198
1009.13	0.199
1009.29	0.196
1009.46	0.196
1009.62	0.196
1009.79	0.194
1009.95	0.195
1010.12	0.196
1010.28	0.196
1010.45	0.196
1010.62	0.195
1010.78	0.194
1010.95	0.192
1011.11	0.193
1011.28	0.193
1011.44	0.195
1011.61	0.192
1011.77	0.191
1011.94	0.190
1012.10	0.190
1012.27	0.189
1012.43	0.189
1012.60	0.188
1012.76	0.188
1012.93	0.188
1013.10	0.186
1013.26	0.184
1013.43	0.185
1013.59	0.194
1013.76	0.186
1013.92	0.184
1014.09	0.183
1014.25	0.185
1014.42	0.185
1014.58	0.185
1014.75	0.188
1014.91	0.186
1015.08	0.189
1015.24	0.186
1015.41	0.187
1015.57	0.187
1015.73	0.185
1015.90	0.183
1016.06	0.186
1016.23	0.184
1016.39	0.183
1016.56	0.183
1016.72	0.183
1016.89	0.182
1017.05	0.183
1017.22	0.179
1017.38	0.180
1017.55	0.179
1017.71	0.180
1017.88	0.179
1018.04	0.179
1018.21	0.177
1018.37	0.176
1018.53	0.177
1018.70	0.175
1018.86	0.174
1019.03	0.176
1019.19	0.174
1019.36	0.173
1019.52	0.176
1019.69	0.177
1019.85	0.176
1020.01	0.177
1020.18	0.176
1020.34	0.176
1020.51	0.175
1020.67	0.176
1020.84	0.174
1021.00	0.175
1021.16	0.172
1021.33	0.172
1021.49	0.170
1021.66	0.170
1021.82	0.168
1021.98	0.167
1022.15	0.168
1022.31	0.168
1022.48	0.166
1022.64	0.168
1022.80	0.167
1022.97	0.165
1023.13	0.164
1023.30	0.165
1023.46	0.165
1023.62	0.162
1023.79	0.164
1023.95	0.164
1024.12	0.163
1024.28	0.163
1024.44	0.164
1024.61	0.162
1024.77	0.163
1024.93	0.162
1025.10	0.164
1025.26	0.162
1025.43	0.163
1025.59	0.159
1025.75	0.163
1025.92	0.161
1026.08	0.160
1026.24	0.159
1026.41	0.160
1026.57	0.158
1026.73	0.156
1026.90	0.158
1027.06	0.156
1027.23	0.158
1027.39	0.158
1027.55	0.158
1027.72	0.157
1027.88	0.158
1028.04	0.158
1028.21	0.158
1028.37	0.153
1028.53	0.158
1028.70	0.156
1028.86	0.154
1029.02	0.154
1029.19	0.154
1029.35	0.152
1029.51	0.152
1029.67	0.151
1029.84	0.153
1030.00	0.148
1030.16	0.148
1030.33	0.151
1030.49	0.148
1030.65	0.145
1030.82	0.160
1030.98	0.147
1031.14	0.147
1031.31	0.146
1031.47	0.143
1031.63	0.146
1031.79	0.145
1031.96	0.146
1032.12	0.147
1032.28	0.145
1032.45	0.150
1032.61	0.149
1032.77	0.148
1032.93	0.146
1033.10	0.146
1033.26	0.149
1033.42	0.145
1033.58	0.146
1033.75	0.148
1033.91	0.145
1034.07	0.148
1034.24	0.145
1034.40	0.143
1034.56	0.143
1034.72	0.144
1034.89	0.145
1035.05	0.143
1035.21	0.144
1035.37	0.142
1035.54	0.145
1035.70	0.143
1035.86	0.142
1036.02	0.144
1036.19	0.142
1036.35	0.141
1036.51	0.145
1036.67	0.143
1036.83	0.141
1037.00	0.140
1037.16	0.139
1037.32	0.140
1037.48	0.139
1037.65	0.142
1037.81	0.137
1037.97	0.137
1038.13	0.137
1038.29	0.134
1038.46	0.130
1038.62	0.135
1038.78	0.134
1038.94	0.132
1039.10	0.136
1039.27	0.132
1039.43	0.134
1039.59	0.135
1039.75	0.135
1039.91	0.134
1040.08	0.134
1040.24	0.138
1040.40	0.140
1040.56	0.136
1040.72	0.132
1040.89	0.134
1041.05	0.137
1041.21	0.136
1041.37	0.134
1041.53	0.139
1041.69	0.135
1041.86	0.135
1042.02	0.131
1042.18	0.132
1042.34	0.134
1042.50	0.137
1042.66	0.133
1042.83	0.131
1042.99	0.133
1043.15	0.128
1043.31	0.130
1043.47	0.134
1043.63	0.129
1043.79	0.129
1043.96	0.129
1044.12	0.133
1044.28	0.129
1044.44	0.132
1044.60	0.128
1044.76	0.127
1044.92	0.130
1045.09	0.131
1045.25	0.128
1045.41	0.130
1045.57	0.126
1045.73	0.126
1045.89	0.128
1046.05	0.129
1046.21	0.132
1046.38	0.127
1046.54	0.130
1046.70	0.138
1046.86	0.123
>>>>>End Processed Spectral Data<<<<<
