SpectraSuite Data File
++++++++++++++++++++++++++++++++++++
Date: Mon May 20 12:12:53 CDT 2013
User: Students
Dark Spectrum Present: Yes
Reference Spectrum Present: Yes
Number of Sampled Component Spectra: 1
Spectrometers: USB4H00887
Integration Time (usec): 60000 (USB4H00887)
Spectra Averaged: 5 (USB4H00887)
Boxcar Smoothing: 5 (USB4H00887)
Correct for Electrical Dark: No (USB4H00887)
Strobe/Lamp Enabled: No (USB4H00887)
Correct for Detector Non-linearity: No (USB4H00887)
Correct for Stray Light: No (USB4H00887)
Number of Pixels in Processed Spectrum: 3648
>>>>>Begin Processed Spectral Data<<<<<
345.83	0.167
346.05	0.167
346.26	0.167
346.48	0.062
346.70	0.405
346.92	-0.035
347.14	0.006
347.35	0.010
347.57	0.051
347.79	-0.090
348.01	-0.115
348.23	-0.262
348.44	-0.000
348.66	0.266
348.88	-0.402
349.10	-0.188
349.32	0.074
349.53	-0.017
349.75	-0.001
349.97	-0.019
350.19	-0.020
350.41	-0.003
350.62	-0.000
350.84	-0.007
351.06	0.008
351.28	0.012
351.50	-0.112
351.71	-0.038
351.93	0.046
352.15	-0.003
352.37	0.083
352.58	0.046
352.80	0.052
353.02	0.094
353.24	0.134
353.46	0.618
353.67	-0.177
353.89	0.060
354.11	0.049
354.33	0.049
354.54	0.104
354.76	0.155
354.98	0.212
355.20	0.189
355.41	0.087
355.63	0.179
355.85	0.086
356.07	2.642
356.28	0.123
356.50	0.245
356.72	0.089
356.94	0.215
357.15	0.246
357.37	-0.000
357.59	0.120
357.81	0.053
358.02	0.083
358.24	0.079
358.46	0.168
358.68	0.114
358.89	0.061
359.11	-0.000
359.33	0.055
359.55	-0.441
359.76	0.073
359.98	0.116
360.20	0.142
360.42	0.131
360.63	0.139
360.85	0.093
361.07	0.452
361.29	0.074
361.50	0.221
361.72	0.099
361.94	0.410
362.15	0.163
362.37	0.085
362.59	0.084
362.81	0.104
363.02	0.183
363.24	0.321
363.46	0.204
363.68	0.236
363.89	0.141
364.11	0.190
364.33	0.262
364.54	0.158
364.76	0.228
364.98	0.250
365.20	0.329
365.41	0.183
365.63	0.208
365.85	0.130
366.06	0.432
366.28	0.577
366.50	0.313
366.71	0.101
366.93	0.144
367.15	0.090
367.37	0.084
367.58	0.098
367.80	0.144
368.02	0.418
368.23	0.133
368.45	0.141
368.67	0.104
368.88	0.122
369.10	-0.000
369.32	0.100
369.53	0.075
369.75	0.134
369.97	0.442
370.19	0.202
370.40	0.088
370.62	0.331
370.84	0.109
371.05	0.702
371.27	0.141
371.49	0.150
371.70	0.185
371.92	0.284
372.14	0.121
372.35	0.136
372.57	0.161
372.79	0.421
373.00	0.099
373.22	0.178
373.44	0.170
373.65	0.134
373.87	0.190
374.09	1.197
374.30	0.156
374.52	0.182
374.74	0.105
374.95	0.481
375.17	0.122
375.39	-0.000
375.60	0.131
375.82	0.245
376.04	0.109
376.25	0.143
376.47	0.092
376.68	0.204
376.90	0.110
377.12	0.260
377.33	0.138
377.55	0.360
377.77	0.161
377.98	0.252
378.20	0.147
378.42	0.174
378.63	0.240
378.85	-0.000
379.07	0.151
379.28	0.617
379.50	0.353
379.71	0.167
379.93	0.114
380.15	0.175
380.36	0.267
380.58	0.164
380.80	0.441
381.01	0.121
381.23	0.101
381.44	0.114
381.66	0.135
381.88	0.174
382.09	-0.080
382.31	0.125
382.53	0.119
382.74	0.518
382.96	0.173
383.17	0.152
383.39	0.204
383.61	0.277
383.82	0.201
384.04	0.231
384.25	0.278
384.47	0.267
384.69	0.260
384.90	0.242
385.12	0.613
385.33	0.350
385.55	0.254
385.77	0.421
385.98	0.217
386.20	0.304
386.41	0.248
386.63	0.277
386.85	0.237
387.06	0.293
387.28	0.468
387.49	0.291
387.71	0.212
387.93	0.180
388.14	0.502
388.36	0.190
388.57	0.162
388.79	0.191
389.01	1.053
389.22	0.245
389.44	0.207
389.65	0.184
389.87	0.182
390.08	0.239
390.30	0.194
390.52	0.405
390.73	0.414
390.95	0.286
391.16	0.271
391.38	-0.000
391.59	0.313
391.81	0.271
392.03	0.248
392.24	0.289
392.46	0.212
392.67	0.185
392.89	0.249
393.10	0.371
393.32	0.262
393.53	0.304
393.75	0.199
393.97	0.218
394.18	0.291
394.40	0.256
394.61	0.263
394.83	0.237
395.04	0.291
395.26	0.201
395.47	0.324
395.69	0.277
395.91	0.297
396.12	0.343
396.34	0.362
396.55	0.238
396.77	0.378
396.98	-0.000
397.20	0.479
397.41	0.559
397.63	0.363
397.84	0.309
398.06	0.275
398.27	0.285
398.49	0.343
398.71	0.242
398.92	0.284
399.14	0.333
399.35	0.429
399.57	0.400
399.78	0.274
400.00	0.278
400.21	0.361
400.43	0.293
400.64	0.307
400.86	0.709
401.07	0.387
401.29	0.344
401.50	0.376
401.72	0.558
401.93	0.346
402.15	0.430
402.36	0.389
402.58	0.306
402.79	0.348
403.01	0.577
403.22	0.426
403.44	0.281
403.65	0.428
403.87	0.485
404.08	0.372
404.30	0.642
404.51	0.339
404.73	0.410
404.94	0.364
405.16	0.377
405.37	0.308
405.59	0.590
405.80	0.343
406.02	0.431
406.23	0.427
406.45	0.475
406.66	0.499
406.88	0.320
407.09	0.501
407.31	0.388
407.52	0.483
407.74	0.393
407.95	0.472
408.17	0.459
408.38	0.497
408.60	0.318
408.81	0.566
409.03	0.405
409.24	0.406
409.45	0.483
409.67	0.459
409.88	0.410
410.10	0.524
410.31	0.427
410.53	0.400
410.74	0.570
410.96	0.574
411.17	0.589
411.39	0.436
411.60	0.395
411.82	0.445
412.03	0.428
412.24	0.414
412.46	0.603
412.67	0.497
412.89	0.494
413.10	0.498
413.32	0.442
413.53	0.524
413.75	0.557
413.96	0.410
414.17	0.566
414.39	0.583
414.60	0.457
414.82	0.615
415.03	0.464
415.25	0.517
415.46	0.344
415.68	0.492
415.89	0.923
416.10	0.717
416.32	0.389
416.53	0.445
416.75	0.420
416.96	0.513
417.18	0.452
417.39	0.435
417.60	0.428
417.82	0.636
418.03	0.544
418.25	0.450
418.46	0.466
418.67	0.436
418.89	0.481
419.10	0.509
419.32	0.715
419.53	0.625
419.75	0.515
419.96	0.452
420.17	0.547
420.39	0.516
420.60	0.538
420.82	0.681
421.03	0.533
421.24	0.446
421.46	0.492
421.67	0.531
421.89	0.464
422.10	0.504
422.31	0.509
422.53	0.759
422.74	0.545
422.96	0.433
423.17	0.476
423.38	0.597
423.60	0.501
423.81	0.648
424.03	0.550
424.24	0.627
424.45	0.616
424.67	0.609
424.88	0.543
425.09	0.590
425.31	0.533
425.52	0.568
425.74	0.631
425.95	0.696
426.16	0.514
426.38	0.595
426.59	0.536
426.80	0.620
427.02	0.664
427.23	0.513
427.45	0.682
427.66	0.675
427.87	0.516
428.09	0.556
428.30	0.606
428.51	0.602
428.73	0.668
428.94	0.590
429.15	0.570
429.37	0.530
429.58	0.560
429.79	0.515
430.01	0.629
430.22	0.618
430.44	0.636
430.65	0.570
430.86	0.614
431.08	0.589
431.29	0.537
431.50	0.649
431.72	0.897
431.93	0.707
432.14	0.521
432.36	0.567
432.57	0.586
432.78	0.605
433.00	0.556
433.21	0.543
433.42	0.698
433.64	0.611
433.85	0.701
434.06	0.568
434.28	0.597
434.49	0.620
434.70	0.633
434.92	0.649
435.13	0.697
435.34	0.705
435.56	0.663
435.77	0.650
435.98	0.837
436.20	0.692
436.41	0.586
436.62	0.578
436.83	0.664
437.05	0.767
437.26	0.664
437.47	0.589
437.69	0.652
437.90	0.595
438.11	0.586
438.33	0.644
438.54	0.654
438.75	0.849
438.97	0.824
439.18	0.607
439.39	0.627
439.60	0.674
439.82	0.634
440.03	0.584
440.24	0.868
440.46	0.647
440.67	0.623
440.88	0.678
441.10	0.632
441.31	0.632
441.52	0.687
441.73	0.776
441.95	0.683
442.16	0.625
442.37	1.007
442.58	0.611
442.80	0.593
443.01	0.772
443.22	0.700
443.44	0.598
443.65	0.707
443.86	0.712
444.07	0.773
444.29	0.664
444.50	0.870
444.71	0.651
444.92	0.605
445.14	0.771
445.35	0.825
445.56	0.636
445.78	0.749
445.99	0.747
446.20	0.633
446.41	0.711
446.63	0.713
446.84	0.664
447.05	0.663
447.26	0.799
447.48	0.683
447.69	0.646
447.90	0.741
448.11	0.659
448.33	0.684
448.54	0.706
448.75	0.737
448.96	0.748
449.18	0.785
449.39	0.700
449.60	0.678
449.81	0.824
450.03	0.709
450.24	0.772
450.45	0.728
450.66	0.717
450.87	0.750
451.09	0.701
451.30	0.677
451.51	0.759
451.72	0.774
451.94	0.801
452.15	0.870
452.36	0.725
452.57	0.743
452.78	0.740
453.00	0.769
453.21	0.721
453.42	0.697
453.63	0.799
453.85	0.763
454.06	0.751
454.27	0.887
454.48	0.782
454.69	0.702
454.91	0.780
455.12	0.681
455.33	0.769
455.54	0.788
455.75	0.748
455.97	0.782
456.18	0.773
456.39	0.782
456.60	0.808
456.81	0.751
457.03	0.767
457.24	0.760
457.45	0.847
457.66	0.786
457.87	0.741
458.09	0.772
458.30	0.678
458.51	0.811
458.72	0.833
458.93	0.844
459.15	0.732
459.36	0.798
459.57	0.820
459.78	0.879
459.99	0.782
460.20	0.740
460.42	0.823
460.63	0.776
460.84	0.755
461.05	0.781
461.26	0.847
461.47	0.768
461.69	0.822
461.90	0.867
462.11	0.814
462.32	0.879
462.53	0.807
462.74	0.911
462.96	0.786
463.17	0.782
463.38	0.829
463.59	0.953
463.80	0.778
464.01	0.800
464.23	0.892
464.44	0.850
464.65	0.851
464.86	0.882
465.07	0.890
465.28	0.846
465.49	0.862
465.71	0.810
465.92	0.850
466.13	0.901
466.34	0.829
466.55	0.891
466.76	0.854
466.97	0.887
467.19	0.878
467.40	0.917
467.61	0.917
467.82	0.829
468.03	0.814
468.24	0.885
468.45	0.922
468.66	0.903
468.88	0.908
469.09	0.908
469.30	0.961
469.51	0.877
469.72	0.921
469.93	0.894
470.14	0.869
470.35	0.968
470.57	0.917
470.78	0.855
470.99	1.013
471.20	0.941
471.41	0.891
471.62	0.946
471.83	0.913
472.04	0.946
472.25	0.990
472.47	0.900
472.68	0.903
472.89	0.905
473.10	0.946
473.31	0.887
473.52	0.946
473.73	0.970
473.94	0.884
474.15	0.911
474.36	0.912
474.57	0.942
474.79	0.912
475.00	0.916
475.21	0.904
475.42	1.002
475.63	0.900
475.84	0.937
476.05	0.944
476.26	0.911
476.47	0.942
476.68	0.992
476.89	0.913
477.10	0.965
477.32	0.948
477.53	1.001
477.74	0.916
477.95	0.956
478.16	0.902
478.37	0.945
478.58	0.950
478.79	0.969
479.00	0.969
479.21	0.930
479.42	0.977
479.63	0.983
479.84	0.947
480.05	0.946
480.26	0.979
480.47	1.004
480.69	1.009
480.90	0.975
481.11	0.970
481.32	1.041
481.53	0.969
481.74	1.025
481.95	0.985
482.16	1.000
482.37	1.008
482.58	0.969
482.79	0.983
483.00	1.009
483.21	0.948
483.42	0.921
483.63	1.002
483.84	1.030
484.05	1.017
484.26	0.987
484.47	0.986
484.68	0.947
484.89	0.955
485.10	1.008
485.31	0.985
485.52	0.990
485.73	0.993
485.94	1.038
486.15	0.984
486.37	1.007
486.58	0.968
486.79	0.980
487.00	1.035
487.21	1.025
487.42	1.020
487.63	1.027
487.84	1.053
488.05	1.046
488.26	0.999
488.47	1.003
488.68	1.029
488.89	1.002
489.10	0.997
489.31	1.010
489.52	1.044
489.73	1.008
489.94	1.050
490.15	0.999
490.36	1.043
490.57	0.991
490.78	0.975
490.99	1.013
491.20	1.102
491.41	1.056
491.62	0.992
491.83	1.022
492.04	1.019
492.25	1.025
492.45	1.024
492.66	1.051
492.87	1.039
493.08	1.026
493.29	1.014
493.50	1.001
493.71	1.008
493.92	1.007
494.13	1.027
494.34	1.046
494.55	1.056
494.76	1.090
494.97	1.079
495.18	1.041
495.39	1.060
495.60	1.004
495.81	1.007
496.02	1.027
496.23	1.018
496.44	1.051
496.65	1.043
496.86	1.048
497.07	1.079
497.28	1.075
497.49	1.018
497.70	1.019
497.91	1.042
498.12	1.022
498.32	1.070
498.53	1.053
498.74	1.041
498.95	1.068
499.16	1.017
499.37	1.021
499.58	1.030
499.79	1.063
500.00	1.055
500.21	1.086
500.42	1.024
500.63	1.027
500.84	1.048
501.05	1.027
501.26	1.054
501.46	1.098
501.67	1.055
501.88	1.057
502.09	1.032
502.30	1.044
502.51	1.098
502.72	1.051
502.93	1.069
503.14	1.091
503.35	1.058
503.56	1.050
503.77	1.084
503.97	1.061
504.18	1.060
504.39	1.098
504.60	1.061
504.81	1.091
505.02	1.078
505.23	1.078
505.44	1.056
505.65	1.064
505.86	1.046
506.07	1.116
506.27	1.071
506.48	1.077
506.69	1.058
506.90	1.080
507.11	1.077
507.32	1.050
507.53	1.060
507.74	1.054
507.95	1.068
508.15	1.075
508.36	1.081
508.57	1.091
508.78	1.072
508.99	1.073
509.20	1.047
509.41	1.073
509.62	1.060
509.82	1.057
510.03	1.068
510.24	1.067
510.45	1.090
510.66	1.083
510.87	1.077
511.08	1.036
511.29	1.078
511.49	1.053
511.70	1.104
511.91	1.034
512.12	1.028
512.33	1.064
512.54	1.081
512.75	1.064
512.95	1.091
513.16	1.083
513.37	1.058
513.58	1.098
513.79	1.058
514.00	1.066
514.20	1.084
514.41	1.075
514.62	1.039
514.83	1.082
515.04	1.074
515.25	1.051
515.46	1.062
515.66	1.064
515.87	1.076
516.08	1.042
516.29	1.066
516.50	1.046
516.71	1.038
516.91	1.046
517.12	1.064
517.33	1.048
517.54	1.034
517.75	1.037
517.95	1.051
518.16	1.067
518.37	1.032
518.58	1.039
518.79	1.011
519.00	1.044
519.20	1.057
519.41	1.029
519.62	1.049
519.83	1.060
520.04	1.023
520.24	1.020
520.45	1.028
520.66	1.055
520.87	1.012
521.08	1.011
521.28	1.015
521.49	1.033
521.70	1.001
521.91	1.015
522.12	0.997
522.32	1.020
522.53	1.001
522.74	0.990
522.95	0.999
523.16	1.003
523.36	1.012
523.57	0.991
523.78	0.985
523.99	0.991
524.20	0.984
524.40	0.996
524.61	1.002
524.82	0.976
525.03	0.981
525.23	0.980
525.44	0.963
525.65	0.962
525.86	0.987
526.06	0.955
526.27	0.955
526.48	0.966
526.69	0.947
526.90	0.952
527.10	0.988
527.31	0.940
527.52	0.936
527.73	0.928
527.93	0.939
528.14	0.947
528.35	0.938
528.56	0.939
528.76	0.932
528.97	0.922
529.18	0.913
529.39	0.913
529.59	0.917
529.80	0.948
530.01	0.919
530.22	0.917
530.42	0.883
530.63	0.901
530.84	0.879
531.05	0.892
531.25	0.895
531.46	0.887
531.67	0.864
531.88	0.884
532.08	0.878
532.29	0.874
532.50	0.866
532.70	0.859
532.91	0.849
533.12	0.851
533.33	0.877
533.53	0.846
533.74	0.845
533.95	0.850
534.15	0.839
534.36	0.839
534.57	0.820
534.78	0.822
534.98	0.832
535.19	0.801
535.40	0.803
535.60	0.820
535.81	0.799
536.02	0.801
536.23	0.794
536.43	0.796
536.64	0.783
536.85	0.791
537.05	0.801
537.26	0.777
537.47	0.781
537.67	0.771
537.88	0.767
538.09	0.774
538.30	0.764
538.50	0.755
538.71	0.766
538.92	0.754
539.12	0.750
539.33	0.745
539.54	0.746
539.74	0.751
539.95	0.740
540.16	0.737
540.36	0.728
540.57	0.728
540.78	0.720
540.98	0.719
541.19	0.716
541.40	0.703
541.60	0.714
541.81	0.708
542.02	0.708
542.22	0.698
542.43	0.693
542.64	0.687
542.84	0.687
543.05	0.679
543.26	0.680
543.46	0.683
543.67	0.681
543.88	0.676
544.08	0.665
544.29	0.659
544.50	0.660
544.70	0.660
544.91	0.652
545.12	0.654
545.32	0.648
545.53	0.651
545.74	0.639
545.94	0.636
546.15	0.634
546.35	0.631
546.56	0.628
546.77	0.624
546.97	0.621
547.18	0.613
547.39	0.613
547.59	0.610
547.80	0.605
548.01	0.610
548.21	0.605
548.42	0.597
548.62	0.596
548.83	0.593
549.04	0.589
549.24	0.582
549.45	0.580
549.65	0.577
549.86	0.572
550.07	0.572
550.27	0.570
550.48	0.578
550.69	0.564
550.89	0.565
551.10	0.560
551.30	0.559
551.51	0.559
551.72	0.549
551.92	0.550
552.13	0.550
552.33	0.551
552.54	0.545
552.75	0.537
552.95	0.539
553.16	0.534
553.36	0.531
553.57	0.529
553.78	0.527
553.98	0.526
554.19	0.518
554.39	0.515
554.60	0.517
554.80	0.516
555.01	0.509
555.22	0.510
555.42	0.507
555.63	0.501
555.83	0.504
556.04	0.498
556.25	0.501
556.45	0.492
556.66	0.489
556.86	0.492
557.07	0.490
557.27	0.488
557.48	0.482
557.68	0.479
557.89	0.480
558.10	0.475
558.30	0.472
558.51	0.470
558.71	0.467
558.92	0.463
559.12	0.465
559.33	0.468
559.54	0.463
559.74	0.459
559.95	0.457
560.15	0.456
560.36	0.454
560.56	0.449
560.77	0.449
560.97	0.449
561.18	0.443
561.38	0.442
561.59	0.444
561.79	0.440
562.00	0.437
562.21	0.434
562.41	0.432
562.62	0.432
562.82	0.429
563.03	0.426
563.23	0.425
563.44	0.425
563.64	0.422
563.85	0.424
564.05	0.417
564.26	0.416
564.46	0.416
564.67	0.416
564.87	0.412
565.08	0.409
565.28	0.408
565.49	0.409
565.69	0.406
565.90	0.403
566.10	0.405
566.31	0.399
566.51	0.401
566.72	0.401
566.92	0.395
567.13	0.394
567.33	0.392
567.54	0.392
567.74	0.390
567.95	0.386
568.15	0.387
568.36	0.386
568.56	0.384
568.77	0.380
568.97	0.378
569.18	0.377
569.38	0.375
569.59	0.376
569.79	0.373
570.00	0.371
570.20	0.369
570.41	0.367
570.61	0.365
570.82	0.366
571.02	0.362
571.23	0.364
571.43	0.360
571.64	0.359
571.84	0.358
572.05	0.356
572.25	0.355
572.45	0.353
572.66	0.351
572.86	0.350
573.07	0.348
573.27	0.348
573.48	0.347
573.68	0.343
573.89	0.342
574.09	0.343
574.30	0.342
574.50	0.340
574.70	0.340
574.91	0.338
575.11	0.338
575.32	0.337
575.52	0.333
575.73	0.333
575.93	0.333
576.14	0.331
576.34	0.329
576.54	0.328
576.75	0.326
576.95	0.325
577.16	0.324
577.36	0.322
577.57	0.321
577.77	0.319
577.97	0.316
578.18	0.318
578.38	0.315
578.59	0.313
578.79	0.312
579.00	0.313
579.20	0.311
579.40	0.310
579.61	0.309
579.81	0.308
580.02	0.306
580.22	0.306
580.42	0.304
580.63	0.304
580.83	0.303
581.04	0.301
581.24	0.300
581.45	0.298
581.65	0.298
581.85	0.297
582.06	0.295
582.26	0.295
582.47	0.294
582.67	0.294
582.87	0.293
583.08	0.290
583.28	0.290
583.48	0.288
583.69	0.286
583.89	0.286
584.10	0.286
584.30	0.283
584.50	0.282
584.71	0.281
584.91	0.281
585.12	0.279
585.32	0.280
585.52	0.278
585.73	0.277
585.93	0.276
586.13	0.275
586.34	0.274
586.54	0.273
586.75	0.272
586.95	0.271
587.15	0.271
587.36	0.269
587.56	0.268
587.76	0.267
587.97	0.266
588.17	0.265
588.37	0.265
588.58	0.265
588.78	0.261
588.98	0.262
589.19	0.261
589.39	0.258
589.60	0.260
589.80	0.257
590.00	0.257
590.21	0.257
590.41	0.255
590.61	0.254
590.82	0.254
591.02	0.253
591.22	0.252
591.43	0.252
591.63	0.251
591.83	0.250
592.04	0.248
592.24	0.249
592.44	0.246
592.65	0.245
592.85	0.246
593.05	0.246
593.26	0.245
593.46	0.244
593.66	0.244
593.86	0.243
594.07	0.241
594.27	0.241
594.47	0.240
594.68	0.239
594.88	0.240
595.08	0.239
595.29	0.239
595.49	0.236
595.69	0.236
595.90	0.234
596.10	0.235
596.30	0.235
596.50	0.233
596.71	0.233
596.91	0.232
597.11	0.231
597.32	0.231
597.52	0.229
597.72	0.229
597.93	0.228
598.13	0.227
598.33	0.227
598.53	0.226
598.74	0.225
598.94	0.224
599.14	0.224
599.35	0.224
599.55	0.224
599.75	0.223
599.95	0.222
600.16	0.223
600.36	0.222
600.56	0.222
600.76	0.221
600.97	0.219
601.17	0.219
601.37	0.219
601.58	0.218
601.78	0.217
601.98	0.216
602.18	0.215
602.39	0.215
602.59	0.215
602.79	0.214
602.99	0.214
603.20	0.212
603.40	0.212
603.60	0.212
603.80	0.211
604.01	0.211
604.21	0.209
604.41	0.209
604.61	0.207
604.82	0.207
605.02	0.207
605.22	0.206
605.42	0.206
605.62	0.206
605.83	0.205
606.03	0.205
606.23	0.206
606.43	0.205
606.64	0.206
606.84	0.205
607.04	0.204
607.24	0.204
607.45	0.204
607.65	0.202
607.85	0.203
608.05	0.201
608.25	0.200
608.46	0.200
608.66	0.200
608.86	0.199
609.06	0.198
609.26	0.197
609.47	0.198
609.67	0.197
609.87	0.198
610.07	0.197
610.28	0.195
610.48	0.195
610.68	0.195
610.88	0.194
611.08	0.194
611.29	0.193
611.49	0.192
611.69	0.193
611.89	0.191
612.09	0.190
612.29	0.190
612.50	0.190
612.70	0.190
612.90	0.189
613.10	0.188
613.30	0.187
613.51	0.188
613.71	0.187
613.91	0.190
614.11	0.186
614.31	0.185
614.51	0.185
614.72	0.184
614.92	0.184
615.12	0.184
615.32	0.184
615.52	0.184
615.72	0.185
615.93	0.185
616.13	0.184
616.33	0.184
616.53	0.184
616.73	0.183
616.93	0.182
617.14	0.183
617.34	0.182
617.54	0.182
617.74	0.182
617.94	0.181
618.14	0.181
618.34	0.180
618.55	0.180
618.75	0.180
618.95	0.180
619.15	0.180
619.35	0.179
619.55	0.178
619.75	0.178
619.96	0.177
620.16	0.177
620.36	0.177
620.56	0.177
620.76	0.177
620.96	0.176
621.16	0.176
621.36	0.176
621.57	0.176
621.77	0.177
621.97	0.176
622.17	0.176
622.37	0.176
622.57	0.176
622.77	0.175
622.97	0.173
623.18	0.174
623.38	0.174
623.58	0.173
623.78	0.172
623.98	0.172
624.18	0.171
624.38	0.171
624.58	0.170
624.78	0.171
624.98	0.171
625.19	0.170
625.39	0.170
625.59	0.169
625.79	0.170
625.99	0.169
626.19	0.170
626.39	0.169
626.59	0.169
626.79	0.169
626.99	0.168
627.19	0.168
627.40	0.169
627.60	0.168
627.80	0.168
628.00	0.168
628.20	0.167
628.40	0.167
628.60	0.167
628.80	0.166
629.00	0.166
629.20	0.165
629.40	0.165
629.60	0.164
629.80	0.164
630.00	0.164
630.20	0.163
630.41	0.162
630.61	0.162
630.81	0.162
631.01	0.162
631.21	0.161
631.41	0.161
631.61	0.161
631.81	0.161
632.01	0.161
632.21	0.161
632.41	0.160
632.61	0.161
632.81	0.161
633.01	0.161
633.21	0.161
633.41	0.162
633.61	0.161
633.81	0.161
634.01	0.160
634.21	0.160
634.41	0.159
634.61	0.159
634.81	0.158
635.01	0.158
635.22	0.158
635.42	0.158
635.62	0.158
635.82	0.158
636.02	0.157
636.22	0.157
636.42	0.156
636.62	0.157
636.82	0.157
637.02	0.156
637.22	0.157
637.42	0.156
637.62	0.155
637.82	0.155
638.02	0.155
638.22	0.155
638.42	0.155
638.62	0.155
638.82	0.154
639.02	0.154
639.22	0.154
639.42	0.153
639.62	0.153
639.82	0.152
640.02	0.153
640.22	0.152
640.42	0.152
640.62	0.152
640.82	0.152
641.02	0.151
641.22	0.152
641.42	0.151
641.61	0.151
641.81	0.151
642.01	0.151
642.21	0.151
642.41	0.151
642.61	0.150
642.81	0.150
643.01	0.150
643.21	0.150
643.41	0.149
643.61	0.149
643.81	0.149
644.01	0.147
644.21	0.147
644.41	0.147
644.61	0.147
644.81	0.147
645.01	0.147
645.21	0.147
645.41	0.146
645.61	0.146
645.81	0.146
646.01	0.146
646.21	0.146
646.40	0.146
646.60	0.146
646.80	0.146
647.00	0.146
647.20	0.145
647.40	0.145
647.60	0.145
647.80	0.144
648.00	0.145
648.20	0.144
648.40	0.144
648.60	0.144
648.80	0.144
649.00	0.143
649.20	0.144
649.39	0.143
649.59	0.142
649.79	0.142
649.99	0.142
650.19	0.141
650.39	0.141
650.59	0.141
650.79	0.141
650.99	0.141
651.19	0.140
651.39	0.140
651.58	0.140
651.78	0.139
651.98	0.139
652.18	0.139
652.38	0.139
652.58	0.139
652.78	0.139
652.98	0.138
653.18	0.138
653.38	0.138
653.57	0.138
653.77	0.138
653.97	0.138
654.17	0.137
654.37	0.137
654.57	0.137
654.77	0.137
654.97	0.137
655.16	0.136
655.36	0.136
655.56	0.136
655.76	0.135
655.96	0.135
656.16	0.135
656.36	0.135
656.56	0.134
656.75	0.134
656.95	0.134
657.15	0.134
657.35	0.134
657.55	0.133
657.75	0.133
657.95	0.134
658.14	0.133
658.34	0.133
658.54	0.133
658.74	0.133
658.94	0.132
659.14	0.133
659.34	0.132
659.53	0.132
659.73	0.132
659.93	0.131
660.13	0.131
660.33	0.131
660.53	0.131
660.72	0.131
660.92	0.131
661.12	0.130
661.32	0.130
661.52	0.130
661.72	0.130
661.91	0.129
662.11	0.129
662.31	0.129
662.51	0.129
662.71	0.128
662.90	0.127
663.10	0.127
663.30	0.127
663.50	0.127
663.70	0.127
663.90	0.127
664.09	0.127
664.29	0.126
664.49	0.125
664.69	0.125
664.89	0.125
665.08	0.125
665.28	0.125
665.48	0.125
665.68	0.124
665.88	0.124
666.07	0.124
666.27	0.124
666.47	0.124
666.67	0.124
666.87	0.124
667.06	0.124
667.26	0.123
667.46	0.123
667.66	0.123
667.85	0.123
668.05	0.123
668.25	0.123
668.45	0.123
668.65	0.122
668.84	0.123
669.04	0.123
669.24	0.123
669.44	0.122
669.63	0.122
669.83	0.122
670.03	0.121
670.23	0.120
670.42	0.120
670.62	0.120
670.82	0.119
671.02	0.119
671.22	0.118
671.41	0.117
671.61	0.118
671.81	0.118
672.01	0.118
672.20	0.117
672.40	0.117
672.60	0.117
672.80	0.117
672.99	0.117
673.19	0.117
673.39	0.117
673.58	0.117
673.78	0.116
673.98	0.116
674.18	0.116
674.37	0.116
674.57	0.115
674.77	0.116
674.97	0.116
675.16	0.116
675.36	0.115
675.56	0.115
675.75	0.115
675.95	0.114
676.15	0.114
676.35	0.114
676.54	0.114
676.74	0.114
676.94	0.114
677.13	0.113
677.33	0.113
677.53	0.113
677.73	0.113
677.92	0.112
678.12	0.113
678.32	0.112
678.51	0.112
678.71	0.112
678.91	0.112
679.11	0.111
679.30	0.112
679.50	0.112
679.70	0.111
679.89	0.111
680.09	0.111
680.29	0.110
680.48	0.110
680.68	0.109
680.88	0.109
681.07	0.109
681.27	0.109
681.47	0.108
681.66	0.108
681.86	0.108
682.06	0.108
682.25	0.108
682.45	0.108
682.65	0.108
682.84	0.107
683.04	0.107
683.24	0.107
683.43	0.107
683.63	0.107
683.83	0.107
684.02	0.107
684.22	0.107
684.42	0.106
684.61	0.106
684.81	0.106
685.01	0.106
685.20	0.105
685.40	0.106
685.60	0.105
685.79	0.105
685.99	0.105
686.19	0.105
686.38	0.105
686.58	0.105
686.77	0.105
686.97	0.104
687.17	0.104
687.36	0.104
687.56	0.104
687.76	0.104
687.95	0.103
688.15	0.103
688.34	0.103
688.54	0.103
688.74	0.103
688.93	0.102
689.13	0.102
689.33	0.102
689.52	0.102
689.72	0.102
689.91	0.102
690.11	0.102
690.31	0.101
690.50	0.101
690.70	0.101
690.89	0.101
691.09	0.100
691.29	0.100
691.48	0.100
691.68	0.100
691.87	0.100
692.07	0.100
692.27	0.100
692.46	0.100
692.66	0.099
692.85	0.099
693.05	0.099
693.25	0.100
693.44	0.099
693.64	0.099
693.83	0.099
694.03	0.099
694.22	0.099
694.42	0.099
694.62	0.099
694.81	0.099
695.01	0.099
695.20	0.098
695.40	0.097
695.59	0.097
695.79	0.097
695.99	0.097
696.18	0.098
696.38	0.097
696.57	0.097
696.77	0.097
696.96	0.098
697.16	0.097
697.36	0.097
697.55	0.097
697.75	0.097
697.94	0.097
698.14	0.097
698.33	0.097
698.53	0.096
698.72	0.096
698.92	0.096
699.11	0.096
699.31	0.096
699.51	0.096
699.70	0.095
699.90	0.095
700.09	0.095
700.29	0.095
700.48	0.095
700.68	0.094
700.87	0.094
701.07	0.094
701.26	0.094
701.46	0.093
701.65	0.093
701.85	0.093
702.04	0.093
702.24	0.093
702.43	0.093
702.63	0.092
702.82	0.092
703.02	0.092
703.21	0.092
703.41	0.092
703.60	0.091
703.80	0.091
703.99	0.091
704.19	0.091
704.38	0.091
704.58	0.090
704.77	0.091
704.97	0.091
705.16	0.091
705.36	0.092
705.55	0.091
705.75	0.091
705.94	0.092
706.14	0.092
706.33	0.091
706.53	0.092
706.72	0.091
706.92	0.091
707.11	0.091
707.31	0.090
707.50	0.090
707.70	0.090
707.89	0.090
708.09	0.090
708.28	0.090
708.48	0.090
708.67	0.089
708.86	0.090
709.06	0.090
709.25	0.089
709.45	0.090
709.64	0.089
709.84	0.089
710.03	0.089
710.23	0.089
710.42	0.089
710.62	0.089
710.81	0.089
711.00	0.089
711.20	0.089
711.39	0.089
711.59	0.088
711.78	0.088
711.98	0.089
712.17	0.089
712.37	0.088
712.56	0.088
712.75	0.088
712.95	0.088
713.14	0.088
713.34	0.088
713.53	0.088
713.73	0.088
713.92	0.088
714.11	0.088
714.31	0.088
714.50	0.088
714.70	0.088
714.89	0.088
715.08	0.088
715.28	0.088
715.47	0.087
715.67	0.087
715.86	0.087
716.06	0.088
716.25	0.087
716.44	0.087
716.64	0.087
716.83	0.087
717.03	0.087
717.22	0.087
717.41	0.087
717.61	0.087
717.80	0.087
717.99	0.087
718.19	0.087
718.38	0.087
718.58	0.087
718.77	0.087
718.96	0.087
719.16	0.086
719.35	0.086
719.55	0.086
719.74	0.086
719.93	0.085
720.13	0.085
720.32	0.085
720.51	0.085
720.71	0.085
720.90	0.085
721.10	0.085
721.29	0.085
721.48	0.085
721.68	0.085
721.87	0.085
722.06	0.085
722.26	0.086
722.45	0.086
722.64	0.086
722.84	0.085
723.03	0.085
723.22	0.086
723.42	0.086
723.61	0.085
723.80	0.085
724.00	0.085
724.19	0.085
724.38	0.085
724.58	0.085
724.77	0.085
724.96	0.084
725.16	0.085
725.35	0.085
725.54	0.085
725.74	0.085
725.93	0.085
726.12	0.085
726.32	0.085
726.51	0.085
726.70	0.085
726.90	0.086
727.09	0.085
727.28	0.085
727.48	0.085
727.67	0.085
727.86	0.085
728.06	0.085
728.25	0.085
728.44	0.085
728.64	0.085
728.83	0.085
729.02	0.085
729.21	0.085
729.41	0.085
729.60	0.085
729.79	0.085
729.99	0.084
730.18	0.084
730.37	0.084
730.56	0.084
730.76	0.084
730.95	0.084
731.14	0.084
731.34	0.084
731.53	0.084
731.72	0.084
731.91	0.084
732.11	0.084
732.30	0.084
732.49	0.084
732.69	0.084
732.88	0.084
733.07	0.084
733.26	0.084
733.46	0.084
733.65	0.084
733.84	0.085
734.03	0.085
734.23	0.085
734.42	0.085
734.61	0.085
734.80	0.085
735.00	0.085
735.19	0.085
735.38	0.085
735.57	0.085
735.77	0.085
735.96	0.085
736.15	0.085
736.34	0.085
736.54	0.085
736.73	0.085
736.92	0.085
737.11	0.085
737.31	0.085
737.50	0.085
737.69	0.085
737.88	0.085
738.07	0.085
738.27	0.085
738.46	0.085
738.65	0.085
738.84	0.085
739.04	0.085
739.23	0.085
739.42	0.085
739.61	0.085
739.80	0.085
740.00	0.085
740.19	0.085
740.38	0.085
740.57	0.085
740.76	0.085
740.96	0.085
741.15	0.085
741.34	0.085
741.53	0.085
741.72	0.085
741.92	0.085
742.11	0.085
742.30	0.084
742.49	0.084
742.68	0.084
742.88	0.084
743.07	0.084
743.26	0.084
743.45	0.084
743.64	0.084
743.84	0.083
744.03	0.083
744.22	0.083
744.41	0.083
744.60	0.083
744.79	0.083
744.99	0.083
745.18	0.083
745.37	0.083
745.56	0.083
745.75	0.083
745.94	0.083
746.14	0.083
746.33	0.083
746.52	0.083
746.71	0.083
746.90	0.082
747.09	0.083
747.28	0.082
747.48	0.082
747.67	0.082
747.86	0.082
748.05	0.082
748.24	0.082
748.43	0.082
748.62	0.082
748.82	0.082
749.01	0.082
749.20	0.082
749.39	0.082
749.58	0.082
749.77	0.082
749.96	0.082
750.16	0.083
750.35	0.082
750.54	0.082
750.73	0.082
750.92	0.083
751.11	0.082
751.30	0.083
751.49	0.083
751.68	0.082
751.88	0.082
752.07	0.081
752.26	0.081
752.45	0.081
752.64	0.081
752.83	0.081
753.02	0.081
753.21	0.080
753.40	0.080
753.60	0.080
753.79	0.080
753.98	0.080
754.17	0.080
754.36	0.080
754.55	0.080
754.74	0.081
754.93	0.080
755.12	0.080
755.31	0.081
755.50	0.080
755.70	0.080
755.89	0.080
756.08	0.080
756.27	0.080
756.46	0.080
756.65	0.080
756.84	0.079
757.03	0.079
757.22	0.079
757.41	0.079
757.60	0.079
757.79	0.079
757.98	0.079
758.17	0.079
758.36	0.079
758.56	0.079
758.75	0.079
758.94	0.079
759.13	0.079
759.32	0.079
759.51	0.079
759.70	0.079
759.89	0.079
760.08	0.079
760.27	0.079
760.46	0.079
760.65	0.079
760.84	0.079
761.03	0.079
761.22	0.079
761.41	0.079
761.60	0.079
761.79	0.079
761.98	0.079
762.17	0.078
762.36	0.078
762.55	0.078
762.74	0.078
762.93	0.078
763.12	0.078
763.31	0.078
763.50	0.078
763.69	0.078
763.88	0.078
764.07	0.077
764.26	0.078
764.45	0.078
764.64	0.078
764.83	0.077
765.02	0.077
765.21	0.077
765.40	0.077
765.59	0.077
765.78	0.077
765.97	0.077
766.16	0.077
766.35	0.077
766.54	0.077
766.73	0.077
766.92	0.077
767.11	0.077
767.30	0.077
767.49	0.077
767.68	0.077
767.87	0.077
768.06	0.077
768.25	0.077
768.44	0.077
768.63	0.077
768.82	0.077
769.01	0.077
769.20	0.077
769.39	0.077
769.58	0.077
769.77	0.077
769.96	0.077
770.15	0.077
770.34	0.077
770.53	0.076
770.72	0.076
770.91	0.076
771.10	0.076
771.29	0.076
771.47	0.075
771.66	0.075
771.85	0.075
772.04	0.076
772.23	0.076
772.42	0.076
772.61	0.076
772.80	0.076
772.99	0.077
773.18	0.076
773.37	0.077
773.56	0.077
773.75	0.077
773.94	0.077
774.13	0.077
774.31	0.077
774.50	0.076
774.69	0.076
774.88	0.076
775.07	0.076
775.26	0.076
775.45	0.075
775.64	0.075
775.83	0.075
776.02	0.075
776.21	0.075
776.40	0.075
776.58	0.075
776.77	0.075
776.96	0.075
777.15	0.075
777.34	0.075
777.53	0.076
777.72	0.076
777.91	0.076
778.10	0.075
778.28	0.075
778.47	0.075
778.66	0.074
778.85	0.074
779.04	0.074
779.23	0.074
779.42	0.073
779.61	0.073
779.79	0.073
779.98	0.073
780.17	0.073
780.36	0.073
780.55	0.073
780.74	0.073
780.93	0.073
781.12	0.074
781.30	0.073
781.49	0.074
781.68	0.073
781.87	0.074
782.06	0.073
782.25	0.073
782.44	0.074
782.62	0.074
782.81	0.074
783.00	0.074
783.19	0.073
783.38	0.073
783.57	0.074
783.75	0.073
783.94	0.073
784.13	0.073
784.32	0.073
784.51	0.073
784.70	0.073
784.88	0.073
785.07	0.073
785.26	0.073
785.45	0.073
785.64	0.072
785.83	0.073
786.01	0.073
786.20	0.073
786.39	0.073
786.58	0.073
786.77	0.073
786.95	0.073
787.14	0.073
787.33	0.073
787.52	0.073
787.71	0.073
787.90	0.072
788.08	0.073
788.27	0.072
788.46	0.073
788.65	0.073
788.84	0.073
789.02	0.073
789.21	0.072
789.40	0.072
789.59	0.072
789.77	0.072
789.96	0.072
790.15	0.072
790.34	0.072
790.53	0.072
790.71	0.072
790.90	0.072
791.09	0.071
791.28	0.072
791.46	0.072
791.65	0.072
791.84	0.072
792.03	0.072
792.22	0.072
792.40	0.071
792.59	0.071
792.78	0.071
792.97	0.072
793.15	0.072
793.34	0.071
793.53	0.071
793.72	0.071
793.90	0.071
794.09	0.072
794.28	0.071
794.47	0.071
794.65	0.071
794.84	0.071
795.03	0.071
795.22	0.071
795.40	0.071
795.59	0.071
795.78	0.071
795.97	0.071
796.15	0.071
796.34	0.071
796.53	0.071
796.71	0.071
796.90	0.071
797.09	0.071
797.28	0.071
797.46	0.071
797.65	0.071
797.84	0.071
798.02	0.071
798.21	0.071
798.40	0.071
798.59	0.071
798.77	0.071
798.96	0.070
799.15	0.070
799.33	0.070
799.52	0.070
799.71	0.070
799.90	0.070
800.08	0.070
800.27	0.070
800.46	0.070
800.64	0.070
800.83	0.070
801.02	0.071
801.20	0.071
801.39	0.070
801.58	0.070
801.76	0.070
801.95	0.070
802.14	0.070
802.32	0.070
802.51	0.070
802.70	0.070
802.88	0.069
803.07	0.070
803.26	0.069
803.44	0.069
803.63	0.069
803.82	0.069
804.00	0.069
804.19	0.070
804.38	0.070
804.56	0.070
804.75	0.070
804.94	0.070
805.12	0.070
805.31	0.070
805.50	0.070
805.68	0.070
805.87	0.070
806.06	0.070
806.24	0.070
806.43	0.070
806.62	0.070
806.80	0.070
806.99	0.070
807.17	0.070
807.36	0.070
807.55	0.070
807.73	0.070
807.92	0.070
808.11	0.070
808.29	0.070
808.48	0.069
808.66	0.069
808.85	0.069
809.04	0.069
809.22	0.069
809.41	0.069
809.59	0.068
809.78	0.069
809.97	0.068
810.15	0.069
810.34	0.069
810.53	0.069
810.71	0.068
810.90	0.069
811.08	0.068
811.27	0.068
811.45	0.068
811.64	0.068
811.83	0.068
812.01	0.068
812.20	0.068
812.38	0.068
812.57	0.069
812.76	0.069
812.94	0.069
813.13	0.069
813.31	0.069
813.50	0.069
813.68	0.069
813.87	0.069
814.06	0.069
814.24	0.069
814.43	0.069
814.61	0.069
814.80	0.069
814.98	0.069
815.17	0.069
815.36	0.069
815.54	0.069
815.73	0.069
815.91	0.069
816.10	0.069
816.28	0.069
816.47	0.068
816.65	0.069
816.84	0.069
817.03	0.069
817.21	0.069
817.40	0.069
817.58	0.069
817.77	0.069
817.95	0.069
818.14	0.069
818.32	0.069
818.51	0.069
818.69	0.069
818.88	0.069
819.06	0.069
819.25	0.069
819.43	0.069
819.62	0.069
819.80	0.069
819.99	0.069
820.18	0.069
820.36	0.069
820.55	0.069
820.73	0.069
820.92	0.069
821.10	0.069
821.29	0.069
821.47	0.069
821.66	0.069
821.84	0.069
822.03	0.069
822.21	0.069
822.40	0.069
822.58	0.070
822.77	0.069
822.95	0.070
823.14	0.070
823.32	0.070
823.50	0.070
823.69	0.070
823.87	0.070
824.06	0.070
824.24	0.070
824.43	0.070
824.61	0.070
824.80	0.070
824.98	0.070
825.17	0.070
825.35	0.070
825.54	0.071
825.72	0.070
825.91	0.070
826.09	0.070
826.28	0.070
826.46	0.071
826.64	0.071
826.83	0.071
827.01	0.071
827.20	0.071
827.38	0.071
827.57	0.071
827.75	0.071
827.94	0.072
828.12	0.072
828.31	0.072
828.49	0.072
828.67	0.071
828.86	0.071
829.04	0.072
829.23	0.072
829.41	0.072
829.60	0.072
829.78	0.072
829.96	0.072
830.15	0.073
830.33	0.073
830.52	0.073
830.70	0.073
830.88	0.073
831.07	0.074
831.25	0.074
831.44	0.074
831.62	0.074
831.81	0.074
831.99	0.074
832.17	0.074
832.36	0.074
832.54	0.074
832.73	0.074
832.91	0.074
833.09	0.074
833.28	0.074
833.46	0.075
833.65	0.075
833.83	0.075
834.01	0.075
834.20	0.075
834.38	0.075
834.56	0.075
834.75	0.075
834.93	0.075
835.12	0.075
835.30	0.075
835.48	0.075
835.67	0.075
835.85	0.075
836.03	0.075
836.22	0.075
836.40	0.075
836.59	0.075
836.77	0.075
836.95	0.075
837.14	0.075
837.32	0.075
837.50	0.075
837.69	0.075
837.87	0.075
838.05	0.075
838.24	0.075
838.42	0.075
838.60	0.075
838.79	0.076
838.97	0.076
839.15	0.076
839.34	0.076
839.52	0.076
839.70	0.077
839.89	0.076
840.07	0.076
840.25	0.076
840.44	0.076
840.62	0.076
840.80	0.076
840.99	0.076
841.17	0.076
841.35	0.076
841.54	0.076
841.72	0.076
841.90	0.076
842.09	0.077
842.27	0.077
842.45	0.077
842.64	0.077
842.82	0.077
843.00	0.077
843.19	0.076
843.37	0.076
843.55	0.076
843.73	0.076
843.92	0.076
844.10	0.076
844.28	0.076
844.47	0.076
844.65	0.075
844.83	0.076
845.01	0.076
845.20	0.077
845.38	0.077
845.56	0.077
845.75	0.077
845.93	0.077
846.11	0.077
846.29	0.077
846.48	0.077
846.66	0.077
846.84	0.077
847.02	0.077
847.21	0.077
847.39	0.077
847.57	0.077
847.76	0.077
847.94	0.077
848.12	0.077
848.30	0.077
848.49	0.077
848.67	0.077
848.85	0.077
849.03	0.077
849.22	0.077
849.40	0.078
849.58	0.077
849.76	0.077
849.95	0.077
850.13	0.077
850.31	0.077
850.49	0.078
850.67	0.078
850.86	0.078
851.04	0.077
851.22	0.077
851.40	0.077
851.59	0.077
851.77	0.077
851.95	0.077
852.13	0.077
852.31	0.077
852.50	0.077
852.68	0.077
852.86	0.077
853.04	0.077
853.23	0.077
853.41	0.077
853.59	0.077
853.77	0.077
853.95	0.078
854.14	0.078
854.32	0.078
854.50	0.078
854.68	0.077
854.86	0.077
855.04	0.078
855.23	0.078
855.41	0.078
855.59	0.078
855.77	0.078
855.95	0.078
856.14	0.078
856.32	0.078
856.50	0.078
856.68	0.078
856.86	0.078
857.04	0.078
857.23	0.078
857.41	0.078
857.59	0.078
857.77	0.078
857.95	0.078
858.13	0.078
858.32	0.078
858.50	0.078
858.68	0.077
858.86	0.077
859.04	0.077
859.22	0.077
859.41	0.077
859.59	0.077
859.77	0.077
859.95	0.077
860.13	0.078
860.31	0.077
860.49	0.078
860.68	0.078
860.86	0.078
861.04	0.078
861.22	0.078
861.40	0.077
861.58	0.077
861.76	0.077
861.94	0.078
862.13	0.078
862.31	0.078
862.49	0.079
862.67	0.079
862.85	0.079
863.03	0.079
863.21	0.079
863.39	0.079
863.57	0.079
863.76	0.079
863.94	0.079
864.12	0.079
864.30	0.079
864.48	0.079
864.66	0.079
864.84	0.079
865.02	0.079
865.20	0.079
865.38	0.079
865.57	0.079
865.75	0.080
865.93	0.080
866.11	0.080
866.29	0.080
866.47	0.080
866.65	0.080
866.83	0.080
867.01	0.080
867.19	0.079
867.37	0.079
867.55	0.079
867.73	0.079
867.92	0.079
868.10	0.079
868.28	0.079
868.46	0.079
868.64	0.079
868.82	0.079
869.00	0.079
869.18	0.080
869.36	0.080
869.54	0.080
869.72	0.080
869.90	0.080
870.08	0.080
870.26	0.080
870.44	0.080
870.62	0.080
870.80	0.080
870.98	0.080
871.16	0.079
871.34	0.080
871.53	0.080
871.71	0.080
871.89	0.080
872.07	0.080
872.25	0.080
872.43	0.080
872.61	0.080
872.79	0.080
872.97	0.080
873.15	0.081
873.33	0.081
873.51	0.080
873.69	0.080
873.87	0.080
874.05	0.080
874.23	0.080
874.41	0.081
874.59	0.081
874.77	0.081
874.95	0.081
875.13	0.081
875.31	0.081
875.49	0.082
875.67	0.081
875.85	0.081
876.03	0.081
876.21	0.082
876.39	0.082
876.57	0.082
876.75	0.082
876.93	0.081
877.11	0.081
877.29	0.081
877.47	0.080
877.65	0.081
877.82	0.081
878.00	0.081
878.18	0.081
878.36	0.081
878.54	0.081
878.72	0.081
878.90	0.081
879.08	0.081
879.26	0.081
879.44	0.082
879.62	0.081
879.80	0.082
879.98	0.082
880.16	0.081
880.34	0.081
880.52	0.081
880.70	0.081
880.88	0.081
881.06	0.081
881.24	0.081
881.42	0.081
881.59	0.081
881.77	0.081
881.95	0.081
882.13	0.081
882.31	0.082
882.49	0.081
882.67	0.082
882.85	0.082
883.03	0.082
883.21	0.082
883.39	0.082
883.57	0.082
883.75	0.083
883.92	0.083
884.10	0.083
884.28	0.083
884.46	0.083
884.64	0.083
884.82	0.083
885.00	0.083
885.18	0.083
885.36	0.083
885.54	0.083
885.71	0.084
885.89	0.084
886.07	0.084
886.25	0.084
886.43	0.084
886.61	0.084
886.79	0.084
886.97	0.084
887.15	0.084
887.32	0.084
887.50	0.084
887.68	0.083
887.86	0.083
888.04	0.084
888.22	0.083
888.40	0.083
888.57	0.084
888.75	0.083
888.93	0.084
889.11	0.083
889.29	0.084
889.47	0.084
889.65	0.084
889.82	0.084
890.00	0.084
890.18	0.084
890.36	0.084
890.54	0.085
890.72	0.085
890.90	0.085
891.07	0.085
891.25	0.085
891.43	0.085
891.61	0.085
891.79	0.085
891.97	0.085
892.14	0.085
892.32	0.085
892.50	0.085
892.68	0.085
892.86	0.085
893.03	0.085
893.21	0.085
893.39	0.085
893.57	0.085
893.75	0.085
893.93	0.085
894.10	0.085
894.28	0.086
894.46	0.085
894.64	0.086
894.82	0.086
894.99	0.086
895.17	0.086
895.35	0.086
895.53	0.086
895.71	0.086
895.88	0.086
896.06	0.086
896.24	0.086
896.42	0.086
896.59	0.086
896.77	0.086
896.95	0.086
897.13	0.086
897.31	0.086
897.48	0.086
897.66	0.086
897.84	0.086
898.02	0.086
898.19	0.086
898.37	0.086
898.55	0.086
898.73	0.087
898.91	0.086
899.08	0.086
899.26	0.086
899.44	0.086
899.62	0.087
899.79	0.087
899.97	0.087
900.15	0.087
900.33	0.087
900.50	0.086
900.68	0.086
900.86	0.086
901.04	0.087
901.21	0.087
901.39	0.087
901.57	0.087
901.74	0.086
901.92	0.087
902.10	0.087
902.28	0.087
902.45	0.087
902.63	0.087
902.81	0.087
902.99	0.088
903.16	0.088
903.34	0.088
903.52	0.088
903.69	0.088
903.87	0.088
904.05	0.088
904.22	0.088
904.40	0.089
904.58	0.088
904.76	0.089
904.93	0.089
905.11	0.088
905.29	0.089
905.46	0.088
905.64	0.088
905.82	0.088
905.99	0.088
906.17	0.088
906.35	0.088
906.53	0.088
906.70	0.088
906.88	0.088
907.06	0.089
907.23	0.089
907.41	0.089
907.59	0.089
907.76	0.090
907.94	0.090
908.12	0.090
908.29	0.090
908.47	0.090
908.65	0.091
908.82	0.090
909.00	0.090
909.18	0.091
909.35	0.090
909.53	0.090
909.71	0.090
909.88	0.090
910.06	0.090
910.23	0.090
910.41	0.090
910.59	0.090
910.76	0.090
910.94	0.090
911.12	0.090
911.29	0.090
911.47	0.091
911.65	0.091
911.82	0.091
912.00	0.091
912.17	0.091
912.35	0.091
912.53	0.091
912.70	0.091
912.88	0.092
913.06	0.092
913.23	0.092
913.41	0.092
913.58	0.092
913.76	0.092
913.94	0.092
914.11	0.093
914.29	0.092
914.46	0.093
914.64	0.093
914.82	0.093
914.99	0.093
915.17	0.093
915.34	0.093
915.52	0.093
915.70	0.094
915.87	0.094
916.05	0.094
916.22	0.094
916.40	0.094
916.57	0.094
916.75	0.094
916.93	0.095
917.10	0.094
917.28	0.095
917.45	0.094
917.63	0.094
917.80	0.094
917.98	0.094
918.16	0.095
918.33	0.095
918.51	0.095
918.68	0.095
918.86	0.096
919.03	0.096
919.21	0.096
919.39	0.096
919.56	0.097
919.74	0.097
919.91	0.097
920.09	0.097
920.26	0.097
920.44	0.097
920.61	0.097
920.79	0.098
920.96	0.097
921.14	0.098
921.31	0.098
921.49	0.098
921.67	0.099
921.84	0.099
922.02	0.099
922.19	0.099
922.37	0.100
922.54	0.100
922.72	0.100
922.89	0.100
923.07	0.101
923.24	0.101
923.42	0.101
923.59	0.101
923.77	0.101
923.94	0.102
924.12	0.102
924.29	0.103
924.47	0.103
924.64	0.103
924.82	0.103
924.99	0.103
925.17	0.104
925.34	0.104
925.52	0.104
925.69	0.105
925.87	0.105
926.04	0.105
926.22	0.106
926.39	0.106
926.57	0.106
926.74	0.106
926.91	0.107
927.09	0.107
927.26	0.107
927.44	0.107
927.61	0.108
927.79	0.108
927.96	0.108
928.14	0.109
928.31	0.109
928.49	0.109
928.66	0.110
928.84	0.110
929.01	0.110
929.18	0.111
929.36	0.111
929.53	0.112
929.71	0.112
929.88	0.113
930.06	0.113
930.23	0.114
930.41	0.114
930.58	0.115
930.75	0.115
930.93	0.115
931.10	0.115
931.28	0.116
931.45	0.116
931.63	0.116
931.80	0.116
931.97	0.117
932.15	0.118
932.32	0.118
932.50	0.118
932.67	0.119
932.84	0.119
933.02	0.120
933.19	0.120
933.37	0.121
933.54	0.122
933.71	0.123
933.89	0.123
934.06	0.123
934.24	0.124
934.41	0.125
934.58	0.125
934.76	0.125
934.93	0.126
935.11	0.127
935.28	0.127
935.45	0.127
935.63	0.128
935.80	0.129
935.98	0.129
936.15	0.129
936.32	0.130
936.50	0.130
936.67	0.131
936.84	0.131
937.02	0.132
937.19	0.132
937.36	0.133
937.54	0.133
937.71	0.134
937.89	0.134
938.06	0.135
938.23	0.135
938.41	0.136
938.58	0.136
938.75	0.136
938.93	0.137
939.10	0.138
939.27	0.138
939.45	0.139
939.62	0.139
939.79	0.140
939.97	0.140
940.14	0.140
940.31	0.141
940.49	0.142
940.66	0.142
940.83	0.143
941.01	0.143
941.18	0.144
941.35	0.145
941.53	0.145
941.70	0.146
941.87	0.147
942.05	0.147
942.22	0.148
942.39	0.150
942.57	0.150
942.74	0.151
942.91	0.151
943.08	0.152
943.26	0.152
943.43	0.153
943.60	0.154
943.78	0.155
943.95	0.156
944.12	0.156
944.29	0.157
944.47	0.157
944.64	0.158
944.81	0.159
944.99	0.160
945.16	0.160
945.33	0.160
945.50	0.161
945.68	0.162
945.85	0.162
946.02	0.164
946.20	0.165
946.37	0.166
946.54	0.166
946.71	0.167
946.89	0.167
947.06	0.168
947.23	0.169
947.40	0.171
947.58	0.171
947.75	0.173
947.92	0.173
948.09	0.174
948.27	0.175
948.44	0.176
948.61	0.177
948.78	0.177
948.96	0.179
949.13	0.179
949.30	0.180
949.47	0.181
949.65	0.182
949.82	0.184
949.99	0.184
950.16	0.187
950.33	0.187
950.51	0.188
950.68	0.190
950.85	0.191
951.02	0.193
951.20	0.194
951.37	0.195
951.54	0.195
951.71	0.196
951.88	0.197
952.06	0.198
952.23	0.199
952.40	0.200
952.57	0.201
952.74	0.203
952.92	0.204
953.09	0.206
953.26	0.207
953.43	0.208
953.60	0.209
953.77	0.211
953.95	0.212
954.12	0.213
954.29	0.214
954.46	0.216
954.63	0.217
954.81	0.218
954.98	0.218
955.15	0.220
955.32	0.222
955.49	0.222
955.66	0.223
955.84	0.225
956.01	0.225
956.18	0.228
956.35	0.229
956.52	0.230
956.69	0.232
956.87	0.232
957.04	0.233
957.21	0.235
957.38	0.235
957.55	0.236
957.72	0.237
957.89	0.238
958.07	0.238
958.24	0.241
958.41	0.242
958.58	0.242
958.75	0.243
958.92	0.244
959.09	0.244
959.26	0.245
959.44	0.246
959.61	0.247
959.78	0.248
959.95	0.249
960.12	0.249
960.29	0.252
960.46	0.250
960.63	0.251
960.81	0.251
960.98	0.253
961.15	0.253
961.32	0.254
961.49	0.253
961.66	0.255
961.83	0.255
962.00	0.254
962.17	0.255
962.34	0.255
962.52	0.256
962.69	0.257
962.86	0.256
963.03	0.256
963.20	0.256
963.37	0.256
963.54	0.257
963.71	0.256
963.88	0.257
964.05	0.257
964.22	0.259
964.39	0.258
964.56	0.258
964.74	0.259
964.91	0.259
965.08	0.260
965.25	0.259
965.42	0.260
965.59	0.261
965.76	0.260
965.93	0.262
966.10	0.260
966.27	0.261
966.44	0.261
966.61	0.262
966.78	0.262
966.95	0.261
967.12	0.263
967.29	0.264
967.46	0.264
967.63	0.263
967.80	0.264
967.97	0.263
968.14	0.263
968.32	0.264
968.49	0.264
968.66	0.263
968.83	0.263
969.00	0.263
969.17	0.262
969.34	0.264
969.51	0.265
969.68	0.263
969.85	0.264
970.02	0.264
970.19	0.264
970.36	0.265
970.53	0.266
970.70	0.264
970.87	0.264
971.04	0.264
971.21	0.264
971.38	0.264
971.55	0.264
971.72	0.264
971.89	0.265
972.06	0.264
972.23	0.264
972.40	0.263
972.57	0.263
972.74	0.264
972.91	0.264
973.07	0.264
973.24	0.264
973.41	0.264
973.58	0.263
973.75	0.276
973.92	0.265
974.09	0.264
974.26	0.264
974.43	0.263
974.60	0.264
974.77	0.265
974.94	0.265
975.11	0.266
975.28	0.267
975.45	0.265
975.62	0.266
975.79	0.267
975.96	0.266
976.13	0.264
976.30	0.266
976.47	0.264
976.64	0.264
976.80	0.264
976.97	0.264
977.14	0.264
977.31	0.263
977.48	0.264
977.65	0.263
977.82	0.262
977.99	0.263
978.16	0.263
978.33	0.263
978.50	0.263
978.67	0.263
978.83	0.263
979.00	0.263
979.17	0.262
979.34	0.262
979.51	0.261
979.68	0.262
979.85	0.261
980.02	0.262
980.19	0.260
980.36	0.261
980.52	0.261
980.69	0.260
980.86	0.260
981.03	0.260
981.20	0.258
981.37	0.260
981.54	0.260
981.71	0.259
981.88	0.259
982.04	0.259
982.21	0.258
982.38	0.259
982.55	0.258
982.72	0.257
982.89	0.258
983.06	0.257
983.22	0.257
983.39	0.257
983.56	0.257
983.73	0.256
983.90	0.256
984.07	0.258
984.24	0.257
984.40	0.256
984.57	0.254
984.74	0.256
984.91	0.257
985.08	0.256
985.25	0.254
985.41	0.255
985.58	0.254
985.75	0.255
985.92	0.254
986.09	0.253
986.26	0.253
986.42	0.252
986.59	0.250
986.76	0.252
986.93	0.252
987.10	0.252
987.27	0.249
987.43	0.248
987.60	0.250
987.77	0.249
987.94	0.248
988.11	0.249
988.27	0.249
988.44	0.249
988.61	0.247
988.78	0.246
988.95	0.247
989.11	0.248
989.28	0.247
989.45	0.245
989.62	0.245
989.79	0.245
989.95	0.244
990.12	0.246
990.29	0.245
990.46	0.243
990.62	0.242
990.79	0.242
990.96	0.242
991.13	0.242
991.30	0.242
991.46	0.241
991.63	0.240
991.80	0.239
991.97	0.238
992.13	0.239
992.30	0.240
992.47	0.238
992.64	0.239
992.80	0.238
992.97	0.239
993.14	0.236
993.31	0.234
993.47	0.237
993.64	0.235
993.81	0.234
993.98	0.235
994.14	0.234
994.31	0.233
994.48	0.234
994.64	0.235
994.81	0.233
994.98	0.234
995.15	0.231
995.31	0.231
995.48	0.232
995.65	0.234
995.82	0.231
995.98	0.231
996.15	0.232
996.32	0.233
996.48	0.231
996.65	0.231
996.82	0.229
996.99	0.229
997.15	0.229
997.32	0.229
997.49	0.228
997.65	0.229
997.82	0.228
997.99	0.226
998.15	0.227
998.32	0.228
998.49	0.227
998.65	0.226
998.82	0.226
998.99	0.223
999.15	0.224
999.32	0.222
999.49	0.222
999.65	0.222
999.82	0.220
999.99	0.220
1000.15	0.220
1000.32	0.220
1000.49	0.221
1000.65	0.219
1000.82	0.219
1000.99	0.219
1001.15	0.219
1001.32	0.219
1001.49	0.219
1001.65	0.219
1001.82	0.221
1001.99	0.218
1002.15	0.217
1002.32	0.217
1002.49	0.218
1002.65	0.216
1002.82	0.215
1002.99	0.214
1003.15	0.216
1003.32	0.214
1003.48	0.214
1003.65	0.213
1003.82	0.212
1003.98	0.209
1004.15	0.209
1004.32	0.210
1004.48	0.210
1004.65	0.211
1004.81	0.209
1004.98	0.207
1005.15	0.208
1005.31	0.209
1005.48	0.207
1005.64	0.207
1005.81	0.209
1005.98	0.206
1006.14	0.205
1006.31	0.206
1006.47	0.205
1006.64	0.203
1006.81	0.203
1006.97	0.203
1007.14	0.202
1007.30	0.202
1007.47	0.203
1007.63	0.201
1007.80	0.199
1007.97	0.199
1008.13	0.199
1008.30	0.200
1008.46	0.200
1008.63	0.198
1008.79	0.198
1008.96	0.199
1009.13	0.200
1009.29	0.197
1009.46	0.197
1009.62	0.198
1009.79	0.196
1009.95	0.195
1010.12	0.195
1010.28	0.195
1010.45	0.195
1010.62	0.194
1010.78	0.193
1010.95	0.191
1011.11	0.192
1011.28	0.191
1011.44	0.193
1011.61	0.191
1011.77	0.190
1011.94	0.190
1012.10	0.190
1012.27	0.189
1012.43	0.189
1012.60	0.187
1012.76	0.188
1012.93	0.188
1013.10	0.186
1013.26	0.183
1013.43	0.185
1013.59	0.193
1013.76	0.185
1013.92	0.185
1014.09	0.183
1014.25	0.184
1014.42	0.184
1014.58	0.184
1014.75	0.186
1014.91	0.185
1015.08	0.187
1015.24	0.182
1015.41	0.184
1015.57	0.183
1015.73	0.181
1015.90	0.180
1016.06	0.182
1016.23	0.181
1016.39	0.180
1016.56	0.181
1016.72	0.179
1016.89	0.179
1017.05	0.181
1017.22	0.178
1017.38	0.179
1017.55	0.177
1017.71	0.178
1017.88	0.177
1018.04	0.178
1018.21	0.176
1018.37	0.176
1018.53	0.176
1018.70	0.175
1018.86	0.174
1019.03	0.177
1019.19	0.176
1019.36	0.176
1019.52	0.177
1019.69	0.177
1019.85	0.176
1020.01	0.176
1020.18	0.174
1020.34	0.174
1020.51	0.173
1020.67	0.174
1020.84	0.173
1021.00	0.173
1021.16	0.170
1021.33	0.172
1021.49	0.171
1021.66	0.172
1021.82	0.169
1021.98	0.169
1022.15	0.168
1022.31	0.168
1022.48	0.167
1022.64	0.167
1022.80	0.166
1022.97	0.165
1023.13	0.163
1023.30	0.164
1023.46	0.165
1023.62	0.163
1023.79	0.166
1023.95	0.167
1024.12	0.166
1024.28	0.165
1024.44	0.165
1024.61	0.164
1024.77	0.165
1024.93	0.164
1025.10	0.164
1025.26	0.161
1025.43	0.162
1025.59	0.157
1025.75	0.160
1025.92	0.159
1026.08	0.159
1026.24	0.158
1026.41	0.159
1026.57	0.157
1026.73	0.154
1026.90	0.157
1027.06	0.156
1027.23	0.156
1027.39	0.157
1027.55	0.157
1027.72	0.156
1027.88	0.155
1028.04	0.155
1028.21	0.155
1028.37	0.150
1028.53	0.156
1028.70	0.154
1028.86	0.152
1029.02	0.152
1029.19	0.153
1029.35	0.151
1029.51	0.151
1029.67	0.150
1029.84	0.153
1030.00	0.148
1030.16	0.149
1030.33	0.152
1030.49	0.148
1030.65	0.146
1030.82	0.161
1030.98	0.147
1031.14	0.147
1031.31	0.147
1031.47	0.144
1031.63	0.147
1031.79	0.145
1031.96	0.145
1032.12	0.146
1032.28	0.144
1032.45	0.148
1032.61	0.145
1032.77	0.145
1032.93	0.142
1033.10	0.143
1033.26	0.146
1033.42	0.143
1033.58	0.144
1033.75	0.146
1033.91	0.145
1034.07	0.147
1034.24	0.146
1034.40	0.145
1034.56	0.145
1034.72	0.146
1034.89	0.147
1035.05	0.144
1035.21	0.145
1035.37	0.143
1035.54	0.145
1035.70	0.142
1035.86	0.142
1036.02	0.143
1036.19	0.140
1036.35	0.137
1036.51	0.141
1036.67	0.139
1036.83	0.139
1037.00	0.138
1037.16	0.137
1037.32	0.138
1037.48	0.137
1037.65	0.142
1037.81	0.138
1037.97	0.139
1038.13	0.139
1038.29	0.137
1038.46	0.134
1038.62	0.138
1038.78	0.135
1038.94	0.132
1039.10	0.136
1039.27	0.132
1039.43	0.134
1039.59	0.132
1039.75	0.132
1039.91	0.130
1040.08	0.130
1040.24	0.132
1040.40	0.134
1040.56	0.132
1040.72	0.127
1040.89	0.130
1041.05	0.132
1041.21	0.130
1041.37	0.129
1041.53	0.134
1041.69	0.133
1041.86	0.132
1042.02	0.130
1042.18	0.131
1042.34	0.133
1042.50	0.136
1042.66	0.132
1042.83	0.130
1042.99	0.134
1043.15	0.130
1043.31	0.132
1043.47	0.135
1043.63	0.131
1043.79	0.129
1043.96	0.130
1044.12	0.134
1044.28	0.132
1044.44	0.135
1044.60	0.129
1044.76	0.128
1044.92	0.131
1045.09	0.132
1045.25	0.129
1045.41	0.130
1045.57	0.126
1045.73	0.126
1045.89	0.126
1046.05	0.126
1046.21	0.127
1046.38	0.131
1046.54	0.131
1046.70	0.118
1046.86	0.117
>>>>>End Processed Spectral Data<<<<<
