SpectraSuite Data File
++++++++++++++++++++++++++++++++++++
Date: Mon May 20 12:11:57 CDT 2013
User: Students
Dark Spectrum Present: Yes
Reference Spectrum Present: Yes
Number of Sampled Component Spectra: 1
Spectrometers: USB4H00887
Integration Time (usec): 60000 (USB4H00887)
Spectra Averaged: 5 (USB4H00887)
Boxcar Smoothing: 5 (USB4H00887)
Correct for Electrical Dark: No (USB4H00887)
Strobe/Lamp Enabled: No (USB4H00887)
Correct for Detector Non-linearity: No (USB4H00887)
Correct for Stray Light: No (USB4H00887)
Number of Pixels in Processed Spectrum: 3648
>>>>>Begin Processed Spectral Data<<<<<
345.83	0.062
346.05	0.062
346.26	0.062
346.48	-0.000
346.70	0.166
346.92	0.070
347.14	0.068
347.35	0.076
347.57	0.693
347.79	-0.287
348.01	-0.176
348.23	-0.271
348.44	-0.000
348.66	0.221
348.88	-0.362
349.10	-0.118
349.32	0.067
349.53	-0.015
349.75	-0.018
349.97	0.005
350.19	0.013
350.41	0.015
350.62	0.057
350.84	0.006
351.06	0.022
351.28	0.031
351.50	-0.002
351.71	0.128
351.93	0.166
352.15	0.019
352.37	0.086
352.58	0.028
352.80	0.028
353.02	0.061
353.24	0.059
353.46	0.098
353.67	-0.001
353.89	-0.019
354.11	-0.024
354.33	-0.019
354.54	0.004
354.76	0.027
354.98	0.062
355.20	0.026
355.41	0.036
355.63	0.074
355.85	0.033
356.07	0.270
356.28	0.055
356.50	0.100
356.72	0.047
356.94	0.150
357.15	0.239
357.37	-0.000
357.59	0.153
357.81	0.088
358.02	0.135
358.24	0.112
358.46	0.261
358.68	0.303
358.89	0.154
359.11	-0.000
359.33	0.103
359.55	-0.567
359.76	0.112
359.98	0.109
360.20	0.115
360.42	0.107
360.63	0.111
360.85	0.057
361.07	0.140
361.29	0.043
361.50	0.176
361.72	0.083
361.94	0.299
362.15	0.139
362.37	0.084
362.59	0.108
362.81	0.154
363.02	0.289
363.24	0.505
363.46	0.303
363.68	0.365
363.89	0.209
364.11	0.290
364.33	0.320
364.54	0.185
364.76	0.216
364.98	0.155
365.20	0.186
365.41	0.114
365.63	0.143
365.85	0.072
366.06	0.183
366.28	0.195
366.50	0.090
366.71	0.047
366.93	0.062
367.15	0.075
367.37	0.103
367.58	0.143
367.80	0.138
368.02	0.298
368.23	0.142
368.45	0.145
368.67	0.131
368.88	0.119
369.10	-0.000
369.32	0.138
369.53	0.083
369.75	0.136
369.97	0.334
370.19	0.208
370.40	0.089
370.62	0.205
370.84	0.071
371.05	0.286
371.27	0.114
371.49	0.124
371.70	0.147
371.92	0.205
372.14	0.075
372.35	0.079
372.57	0.088
372.79	0.155
373.00	0.058
373.22	0.113
373.44	0.100
373.65	0.081
373.87	0.109
374.09	0.396
374.30	0.093
374.52	0.118
374.74	0.082
374.95	0.399
375.17	0.105
375.39	-0.000
375.60	0.116
375.82	0.194
376.04	0.080
376.25	0.092
376.47	0.067
376.68	0.171
376.90	0.083
377.12	0.175
377.33	0.094
377.55	0.259
377.77	0.122
377.98	0.185
378.20	0.115
378.42	0.134
378.63	0.150
378.85	-0.000
379.07	0.104
379.28	0.355
379.50	0.242
379.71	0.134
379.93	0.100
380.15	0.143
380.36	0.220
380.58	0.165
380.80	0.467
381.01	0.164
381.23	0.124
381.44	0.143
381.66	0.175
381.88	0.196
382.09	-0.084
382.31	0.119
382.53	0.129
382.74	0.644
382.96	0.180
383.17	0.164
383.39	0.220
383.61	0.295
383.82	0.201
384.04	0.234
384.25	0.300
384.47	0.284
384.69	0.292
384.90	0.284
385.12	0.709
385.33	0.388
385.55	0.284
385.77	0.471
385.98	0.219
386.20	0.295
386.41	0.239
386.63	0.278
386.85	0.224
387.06	0.272
387.28	0.418
387.49	0.255
387.71	0.185
387.93	0.158
388.14	0.416
388.36	0.190
388.57	0.177
388.79	0.207
389.01	1.332
389.22	0.266
389.44	0.227
389.65	0.181
389.87	0.172
390.08	0.204
390.30	0.159
390.52	0.321
390.73	0.308
390.95	0.216
391.16	0.196
391.38	-0.000
391.59	0.222
391.81	0.202
392.03	0.185
392.24	0.238
392.46	0.208
392.67	0.194
392.89	0.270
393.10	0.431
393.32	0.296
393.53	0.368
393.75	0.239
393.97	0.280
394.18	0.386
394.40	0.325
394.61	0.328
394.83	0.274
395.04	0.314
395.26	0.215
395.47	0.332
395.69	0.276
395.91	0.307
396.12	0.372
396.34	0.358
396.55	0.226
396.77	0.359
396.98	-0.000
397.20	0.464
397.41	0.566
397.63	0.366
397.84	0.324
398.06	0.297
398.27	0.305
398.49	0.352
398.71	0.258
398.92	0.318
399.14	0.414
399.35	0.531
399.57	0.492
399.78	0.314
400.00	0.297
400.21	0.380
400.43	0.311
400.64	0.317
400.86	0.731
401.07	0.382
401.29	0.314
401.50	0.337
401.72	0.469
401.93	0.307
402.15	0.373
402.36	0.336
402.58	0.284
402.79	0.318
403.01	0.552
403.22	0.423
403.44	0.286
403.65	0.479
403.87	0.527
404.08	0.415
404.30	0.695
404.51	0.367
404.73	0.458
404.94	0.374
405.16	0.382
405.37	0.285
405.59	0.519
405.80	0.320
406.02	0.386
406.23	0.387
406.45	0.428
406.66	0.469
406.88	0.301
407.09	0.465
407.31	0.375
407.52	0.450
407.74	0.371
407.95	0.464
408.17	0.437
408.38	0.476
408.60	0.313
408.81	0.560
409.03	0.405
409.24	0.397
409.45	0.458
409.67	0.433
409.88	0.397
410.10	0.508
410.31	0.414
410.53	0.376
410.74	0.515
410.96	0.495
411.17	0.497
411.39	0.382
411.60	0.356
411.82	0.414
412.03	0.401
412.24	0.385
412.46	0.564
412.67	0.451
412.89	0.459
413.10	0.459
413.32	0.422
413.53	0.493
413.75	0.498
413.96	0.382
414.17	0.514
414.39	0.531
414.60	0.432
414.82	0.577
415.03	0.447
415.25	0.487
415.46	0.342
415.68	0.487
415.89	0.947
416.10	0.755
416.32	0.391
416.53	0.473
416.75	0.432
416.96	0.516
417.18	0.448
417.39	0.429
417.60	0.440
417.82	0.646
418.03	0.552
418.25	0.460
418.46	0.483
418.67	0.445
418.89	0.466
419.10	0.489
419.32	0.671
419.53	0.600
419.75	0.506
419.96	0.439
420.17	0.537
420.39	0.510
420.60	0.534
420.82	0.670
421.03	0.529
421.24	0.450
421.46	0.510
421.67	0.561
421.89	0.488
422.10	0.532
422.31	0.537
422.53	0.816
422.74	0.560
422.96	0.433
423.17	0.476
423.38	0.591
423.60	0.495
423.81	0.613
424.03	0.511
424.24	0.563
424.45	0.560
424.67	0.555
424.88	0.493
425.09	0.538
425.31	0.501
425.52	0.526
425.74	0.602
425.95	0.654
426.16	0.501
426.38	0.598
426.59	0.542
426.80	0.622
427.02	0.667
427.23	0.514
427.45	0.687
427.66	0.671
427.87	0.521
428.09	0.556
428.30	0.616
428.51	0.607
428.73	0.657
428.94	0.588
429.15	0.568
429.37	0.534
429.58	0.554
429.79	0.510
430.01	0.610
430.22	0.600
430.44	0.604
430.65	0.546
430.86	0.604
431.08	0.597
431.29	0.534
431.50	0.635
431.72	0.855
431.93	0.692
432.14	0.510
432.36	0.567
432.57	0.578
432.78	0.611
433.00	0.561
433.21	0.548
433.42	0.683
433.64	0.597
433.85	0.681
434.06	0.545
434.28	0.583
434.49	0.607
434.70	0.619
434.92	0.645
435.13	0.689
435.34	0.696
435.56	0.648
435.77	0.650
435.98	0.878
436.20	0.715
436.41	0.616
436.62	0.597
436.83	0.682
437.05	0.776
437.26	0.667
437.47	0.592
437.69	0.650
437.90	0.591
438.11	0.576
438.33	0.622
438.54	0.648
438.75	0.832
438.97	0.812
439.18	0.604
439.39	0.631
439.60	0.683
439.82	0.632
440.03	0.586
440.24	0.874
440.46	0.645
440.67	0.619
440.88	0.668
441.10	0.621
441.31	0.626
441.52	0.681
441.73	0.767
441.95	0.674
442.16	0.625
442.37	0.998
442.58	0.609
442.80	0.600
443.01	0.787
443.22	0.711
443.44	0.599
443.65	0.698
443.86	0.697
444.07	0.747
444.29	0.653
444.50	0.839
444.71	0.633
444.92	0.590
445.14	0.749
445.35	0.797
445.56	0.624
445.78	0.745
445.99	0.746
446.20	0.642
446.41	0.726
446.63	0.721
446.84	0.684
447.05	0.696
447.26	0.849
447.48	0.716
447.69	0.671
447.90	0.767
448.11	0.677
448.33	0.709
448.54	0.734
448.75	0.776
448.96	0.779
449.18	0.814
449.39	0.715
449.60	0.693
449.81	0.842
450.03	0.731
450.24	0.799
450.45	0.751
450.66	0.735
450.87	0.767
451.09	0.715
451.30	0.693
451.51	0.780
451.72	0.794
451.94	0.812
452.15	0.882
452.36	0.730
452.57	0.746
452.78	0.749
453.00	0.779
453.21	0.728
453.42	0.694
453.63	0.802
453.85	0.762
454.06	0.756
454.27	0.890
454.48	0.797
454.69	0.713
454.91	0.790
455.12	0.682
455.33	0.773
455.54	0.794
455.75	0.768
455.97	0.791
456.18	0.773
456.39	0.782
456.60	0.819
456.81	0.749
457.03	0.760
457.24	0.759
457.45	0.850
457.66	0.785
457.87	0.734
458.09	0.757
458.30	0.672
458.51	0.806
458.72	0.831
458.93	0.838
459.15	0.733
459.36	0.806
459.57	0.829
459.78	0.883
459.99	0.790
460.20	0.750
460.42	0.832
460.63	0.784
460.84	0.762
461.05	0.778
461.26	0.844
461.47	0.758
461.69	0.810
461.90	0.845
462.11	0.800
462.32	0.857
462.53	0.792
462.74	0.894
462.96	0.775
463.17	0.765
463.38	0.807
463.59	0.925
463.80	0.766
464.01	0.791
464.23	0.887
464.44	0.845
464.65	0.853
464.86	0.889
465.07	0.894
465.28	0.851
465.49	0.875
465.71	0.827
465.92	0.867
466.13	0.913
466.34	0.837
466.55	0.893
466.76	0.850
466.97	0.874
467.19	0.856
467.40	0.898
467.61	0.901
467.82	0.815
468.03	0.798
468.24	0.869
468.45	0.901
468.66	0.883
468.88	0.894
469.09	0.895
469.30	0.944
469.51	0.869
469.72	0.911
469.93	0.885
470.14	0.869
470.35	0.968
470.57	0.915
470.78	0.851
470.99	1.002
471.20	0.929
471.41	0.883
471.62	0.940
471.83	0.905
472.04	0.939
472.25	0.979
472.47	0.885
472.68	0.889
472.89	0.892
473.10	0.938
473.31	0.882
473.52	0.948
473.73	0.974
473.94	0.890
474.15	0.914
474.36	0.911
474.57	0.941
474.79	0.911
475.00	0.915
475.21	0.901
475.42	1.002
475.63	0.897
475.84	0.931
476.05	0.936
476.26	0.905
476.47	0.945
476.68	0.994
476.89	0.915
477.10	0.972
477.32	0.958
477.53	1.017
477.74	0.929
477.95	0.977
478.16	0.917
478.37	0.959
478.58	0.968
478.79	0.979
479.00	0.980
479.21	0.934
479.42	0.974
479.63	0.978
479.84	0.940
480.05	0.941
480.26	0.970
480.47	0.994
480.69	1.001
480.90	0.961
481.11	0.961
481.32	1.030
481.53	0.966
481.74	1.028
481.95	0.986
482.16	0.997
482.37	1.004
482.58	0.969
482.79	0.984
483.00	1.016
483.21	0.956
483.42	0.927
483.63	1.008
483.84	1.034
484.05	1.023
484.26	0.993
484.47	0.995
484.68	0.955
484.89	0.964
485.10	1.020
485.31	0.997
485.52	1.004
485.73	1.004
485.94	1.053
486.15	0.997
486.37	1.017
486.58	0.977
486.79	0.993
487.00	1.053
487.21	1.042
487.42	1.034
487.63	1.035
487.84	1.054
488.05	1.050
488.26	0.999
488.47	1.004
488.68	1.033
488.89	1.008
489.10	1.001
489.31	1.010
489.52	1.044
489.73	1.012
489.94	1.056
490.15	1.011
490.36	1.056
490.57	1.005
490.78	0.987
490.99	1.033
491.20	1.122
491.41	1.070
491.62	1.004
491.83	1.038
492.04	1.031
492.25	1.041
492.45	1.040
492.66	1.068
492.87	1.052
493.08	1.039
493.29	1.019
493.50	1.008
493.71	1.017
493.92	1.013
494.13	1.031
494.34	1.050
494.55	1.056
494.76	1.090
494.97	1.080
495.18	1.046
495.39	1.063
495.60	1.008
495.81	1.011
496.02	1.031
496.23	1.025
496.44	1.058
496.65	1.049
496.86	1.055
497.07	1.082
497.28	1.076
497.49	1.022
497.70	1.024
497.91	1.044
498.12	1.023
498.32	1.072
498.53	1.055
498.74	1.042
498.95	1.071
499.16	1.019
499.37	1.025
499.58	1.034
499.79	1.066
500.00	1.060
500.21	1.092
500.42	1.031
500.63	1.031
500.84	1.049
501.05	1.025
501.26	1.052
501.46	1.094
501.67	1.052
501.88	1.055
502.09	1.027
502.30	1.036
502.51	1.087
502.72	1.040
502.93	1.056
503.14	1.080
503.35	1.051
503.56	1.046
503.77	1.083
503.97	1.057
504.18	1.056
504.39	1.095
504.60	1.062
504.81	1.094
505.02	1.081
505.23	1.085
505.44	1.067
505.65	1.077
505.86	1.058
506.07	1.131
506.27	1.084
506.48	1.091
506.69	1.072
506.90	1.093
507.11	1.091
507.32	1.064
507.53	1.074
507.74	1.063
507.95	1.075
508.15	1.081
508.36	1.083
508.57	1.096
508.78	1.076
508.99	1.077
509.20	1.048
509.41	1.072
509.62	1.058
509.82	1.053
510.03	1.070
510.24	1.071
510.45	1.095
510.66	1.089
510.87	1.084
511.08	1.041
511.29	1.087
511.49	1.065
511.70	1.120
511.91	1.048
512.12	1.047
512.33	1.079
512.54	1.095
512.75	1.076
512.95	1.103
513.16	1.094
513.37	1.067
513.58	1.106
513.79	1.063
514.00	1.068
514.20	1.086
514.41	1.072
514.62	1.038
514.83	1.081
515.04	1.070
515.25	1.048
515.46	1.059
515.66	1.061
515.87	1.076
516.08	1.044
516.29	1.069
516.50	1.050
516.71	1.043
516.91	1.055
517.12	1.072
517.33	1.057
517.54	1.042
517.75	1.047
517.95	1.062
518.16	1.075
518.37	1.038
518.58	1.044
518.79	1.017
519.00	1.052
519.20	1.060
519.41	1.034
519.62	1.054
519.83	1.066
520.04	1.026
520.24	1.023
520.45	1.034
520.66	1.061
520.87	1.021
521.08	1.016
521.28	1.019
521.49	1.037
521.70	1.005
521.91	1.021
522.12	1.001
522.32	1.025
522.53	1.004
522.74	0.992
522.95	1.004
523.16	1.006
523.36	1.018
523.57	1.001
523.78	0.995
523.99	0.997
524.20	0.989
524.40	1.002
524.61	1.009
524.82	0.983
525.03	0.987
525.23	0.986
525.44	0.970
525.65	0.968
525.86	0.991
526.06	0.960
526.27	0.961
526.48	0.972
526.69	0.954
526.90	0.961
527.10	1.000
527.31	0.952
527.52	0.944
527.73	0.934
527.93	0.946
528.14	0.952
528.35	0.943
528.56	0.944
528.76	0.936
528.97	0.923
529.18	0.914
529.39	0.913
529.59	0.917
529.80	0.950
530.01	0.923
530.22	0.921
530.42	0.888
530.63	0.906
530.84	0.883
531.05	0.899
531.25	0.903
531.46	0.894
531.67	0.870
531.88	0.890
532.08	0.883
532.29	0.877
532.50	0.867
532.70	0.858
532.91	0.848
533.12	0.850
533.33	0.876
533.53	0.845
533.74	0.844
533.95	0.849
534.15	0.836
534.36	0.837
534.57	0.820
534.78	0.823
534.98	0.834
535.19	0.804
535.40	0.806
535.60	0.825
535.81	0.805
536.02	0.808
536.23	0.801
536.43	0.803
536.64	0.790
536.85	0.799
537.05	0.807
537.26	0.783
537.47	0.786
537.67	0.775
537.88	0.769
538.09	0.777
538.30	0.765
538.50	0.756
538.71	0.769
538.92	0.754
539.12	0.749
539.33	0.744
539.54	0.744
539.74	0.749
539.95	0.739
540.16	0.737
540.36	0.726
540.57	0.727
540.78	0.719
540.98	0.717
541.19	0.714
541.40	0.702
541.60	0.714
541.81	0.708
542.02	0.707
542.22	0.697
542.43	0.692
542.64	0.688
542.84	0.686
543.05	0.678
543.26	0.678
543.46	0.681
543.67	0.680
543.88	0.675
544.08	0.664
544.29	0.658
544.50	0.659
544.70	0.658
544.91	0.649
545.12	0.651
545.32	0.645
545.53	0.649
545.74	0.636
545.94	0.633
546.15	0.630
546.35	0.627
546.56	0.624
546.77	0.620
546.97	0.618
547.18	0.609
547.39	0.610
547.59	0.608
547.80	0.604
548.01	0.608
548.21	0.603
548.42	0.595
548.62	0.594
548.83	0.591
549.04	0.587
549.24	0.580
549.45	0.580
549.65	0.576
549.86	0.572
550.07	0.571
550.27	0.569
550.48	0.576
550.69	0.562
550.89	0.561
551.10	0.557
551.30	0.555
551.51	0.555
551.72	0.544
551.92	0.545
552.13	0.545
552.33	0.545
552.54	0.539
552.75	0.532
552.95	0.534
553.16	0.529
553.36	0.528
553.57	0.525
553.78	0.523
553.98	0.523
554.19	0.514
554.39	0.511
554.60	0.513
554.80	0.513
555.01	0.506
555.22	0.506
555.42	0.503
555.63	0.496
555.83	0.499
556.04	0.493
556.25	0.495
556.45	0.486
556.66	0.484
556.86	0.488
557.07	0.485
557.27	0.484
557.48	0.479
557.68	0.477
557.89	0.478
558.10	0.474
558.30	0.471
558.51	0.469
558.71	0.466
558.92	0.462
559.12	0.463
559.33	0.465
559.54	0.460
559.74	0.456
559.95	0.454
560.15	0.453
560.36	0.450
560.56	0.445
560.77	0.445
560.97	0.446
561.18	0.440
561.38	0.440
561.59	0.443
561.79	0.438
562.00	0.435
562.21	0.432
562.41	0.430
562.62	0.429
562.82	0.426
563.03	0.423
563.23	0.422
563.44	0.422
563.64	0.418
563.85	0.419
564.05	0.413
564.26	0.413
564.46	0.412
564.67	0.413
564.87	0.408
565.08	0.405
565.28	0.404
565.49	0.405
565.69	0.402
565.90	0.399
566.10	0.401
566.31	0.395
566.51	0.396
566.72	0.397
566.92	0.390
567.13	0.390
567.33	0.389
567.54	0.388
567.74	0.386
567.95	0.383
568.15	0.383
568.36	0.382
568.56	0.380
568.77	0.375
568.97	0.374
569.18	0.374
569.38	0.372
569.59	0.373
569.79	0.370
570.00	0.368
570.20	0.366
570.41	0.365
570.61	0.363
570.82	0.364
571.02	0.360
571.23	0.361
571.43	0.357
571.64	0.355
571.84	0.354
572.05	0.353
572.25	0.352
572.45	0.350
572.66	0.347
572.86	0.346
573.07	0.345
573.27	0.346
573.48	0.344
573.68	0.340
573.89	0.340
574.09	0.341
574.30	0.339
574.50	0.337
574.70	0.338
574.91	0.335
575.11	0.335
575.32	0.335
575.52	0.331
575.73	0.331
575.93	0.330
576.14	0.329
576.34	0.327
576.54	0.326
576.75	0.324
576.95	0.323
577.16	0.321
577.36	0.320
577.57	0.319
577.77	0.317
577.97	0.314
578.18	0.315
578.38	0.312
578.59	0.310
578.79	0.308
579.00	0.309
579.20	0.307
579.40	0.306
579.61	0.305
579.81	0.304
580.02	0.302
580.22	0.301
580.42	0.300
580.63	0.300
580.83	0.299
581.04	0.297
581.24	0.296
581.45	0.295
581.65	0.294
581.85	0.293
582.06	0.291
582.26	0.291
582.47	0.289
582.67	0.289
582.87	0.288
583.08	0.285
583.28	0.285
583.48	0.284
583.69	0.281
583.89	0.282
584.10	0.283
584.30	0.281
584.50	0.279
584.71	0.279
584.91	0.279
585.12	0.276
585.32	0.278
585.52	0.275
585.73	0.274
585.93	0.273
586.13	0.272
586.34	0.272
586.54	0.271
586.75	0.270
586.95	0.269
587.15	0.268
587.36	0.267
587.56	0.265
587.76	0.264
587.97	0.263
588.17	0.261
588.37	0.261
588.58	0.261
588.78	0.258
588.98	0.258
589.19	0.257
589.39	0.255
589.60	0.257
589.80	0.254
590.00	0.253
590.21	0.253
590.41	0.252
590.61	0.251
590.82	0.251
591.02	0.251
591.22	0.249
591.43	0.249
591.63	0.248
591.83	0.247
592.04	0.246
592.24	0.247
592.44	0.245
592.65	0.243
592.85	0.244
593.05	0.244
593.26	0.242
593.46	0.242
593.66	0.242
593.86	0.240
594.07	0.239
594.27	0.239
594.47	0.237
594.68	0.237
594.88	0.237
595.08	0.236
595.29	0.236
595.49	0.234
595.69	0.234
595.90	0.232
596.10	0.233
596.30	0.232
596.50	0.231
596.71	0.231
596.91	0.230
597.11	0.229
597.32	0.229
597.52	0.228
597.72	0.227
597.93	0.227
598.13	0.225
598.33	0.225
598.53	0.224
598.74	0.223
598.94	0.222
599.14	0.222
599.35	0.222
599.55	0.222
599.75	0.221
599.95	0.219
600.16	0.220
600.36	0.218
600.56	0.219
600.76	0.218
600.97	0.216
601.17	0.215
601.37	0.216
601.58	0.214
601.78	0.214
601.98	0.213
602.18	0.212
602.39	0.212
602.59	0.212
602.79	0.211
602.99	0.211
603.20	0.211
603.40	0.211
603.60	0.210
603.80	0.210
604.01	0.209
604.21	0.209
604.41	0.208
604.61	0.207
604.82	0.206
605.02	0.206
605.22	0.205
605.42	0.205
605.62	0.205
605.83	0.204
606.03	0.203
606.23	0.203
606.43	0.203
606.64	0.202
606.84	0.202
607.04	0.201
607.24	0.201
607.45	0.201
607.65	0.200
607.85	0.201
608.05	0.200
608.25	0.199
608.46	0.198
608.66	0.198
608.86	0.198
609.06	0.196
609.26	0.196
609.47	0.196
609.67	0.195
609.87	0.195
610.07	0.194
610.28	0.192
610.48	0.192
610.68	0.193
610.88	0.192
611.08	0.193
611.29	0.191
611.49	0.191
611.69	0.192
611.89	0.190
612.09	0.190
612.29	0.190
612.50	0.189
612.70	0.189
612.90	0.188
613.10	0.187
613.30	0.187
613.51	0.186
613.71	0.185
613.91	0.189
614.11	0.185
614.31	0.184
614.51	0.184
614.72	0.183
614.92	0.183
615.12	0.183
615.32	0.183
615.52	0.183
615.72	0.183
615.93	0.183
616.13	0.182
616.33	0.182
616.53	0.182
616.73	0.182
616.93	0.181
617.14	0.182
617.34	0.181
617.54	0.181
617.74	0.181
617.94	0.180
618.14	0.180
618.34	0.179
618.55	0.179
618.75	0.179
618.95	0.178
619.15	0.178
619.35	0.177
619.55	0.176
619.75	0.176
619.96	0.175
620.16	0.175
620.36	0.175
620.56	0.175
620.76	0.175
620.96	0.174
621.16	0.174
621.36	0.174
621.57	0.175
621.77	0.175
621.97	0.174
622.17	0.174
622.37	0.174
622.57	0.174
622.77	0.173
622.97	0.172
623.18	0.172
623.38	0.172
623.58	0.172
623.78	0.171
623.98	0.170
624.18	0.169
624.38	0.169
624.58	0.169
624.78	0.170
624.98	0.170
625.19	0.170
625.39	0.169
625.59	0.169
625.79	0.169
625.99	0.168
626.19	0.169
626.39	0.168
626.59	0.168
626.79	0.168
626.99	0.167
627.19	0.167
627.40	0.167
627.60	0.166
627.80	0.166
628.00	0.166
628.20	0.165
628.40	0.165
628.60	0.165
628.80	0.164
629.00	0.164
629.20	0.164
629.40	0.164
629.60	0.162
629.80	0.163
630.00	0.163
630.20	0.162
630.41	0.162
630.61	0.162
630.81	0.161
631.01	0.162
631.21	0.161
631.41	0.161
631.61	0.161
631.81	0.161
632.01	0.161
632.21	0.161
632.41	0.159
632.61	0.160
632.81	0.160
633.01	0.160
633.21	0.160
633.41	0.160
633.61	0.159
633.81	0.159
634.01	0.158
634.21	0.158
634.41	0.158
634.61	0.158
634.81	0.157
635.01	0.157
635.22	0.157
635.42	0.157
635.62	0.157
635.82	0.157
636.02	0.156
636.22	0.156
636.42	0.155
636.62	0.156
636.82	0.155
637.02	0.155
637.22	0.155
637.42	0.154
637.62	0.153
637.82	0.153
638.02	0.152
638.22	0.152
638.42	0.152
638.62	0.151
638.82	0.151
639.02	0.151
639.22	0.151
639.42	0.150
639.62	0.150
639.82	0.150
640.02	0.150
640.22	0.150
640.42	0.150
640.62	0.151
640.82	0.151
641.02	0.150
641.22	0.150
641.42	0.149
641.61	0.150
641.81	0.150
642.01	0.150
642.21	0.149
642.41	0.149
642.61	0.149
642.81	0.148
643.01	0.148
643.21	0.147
643.41	0.148
643.61	0.147
643.81	0.147
644.01	0.146
644.21	0.146
644.41	0.146
644.61	0.146
644.81	0.146
645.01	0.146
645.21	0.146
645.41	0.146
645.61	0.145
645.81	0.144
646.01	0.144
646.21	0.145
646.40	0.144
646.60	0.144
646.80	0.144
647.00	0.144
647.20	0.143
647.40	0.143
647.60	0.143
647.80	0.142
648.00	0.143
648.20	0.142
648.40	0.142
648.60	0.142
648.80	0.142
649.00	0.141
649.20	0.142
649.39	0.141
649.59	0.140
649.79	0.140
649.99	0.140
650.19	0.140
650.39	0.140
650.59	0.139
650.79	0.139
650.99	0.139
651.19	0.138
651.39	0.138
651.58	0.138
651.78	0.138
651.98	0.138
652.18	0.137
652.38	0.137
652.58	0.137
652.78	0.137
652.98	0.136
653.18	0.137
653.38	0.137
653.57	0.137
653.77	0.137
653.97	0.136
654.17	0.136
654.37	0.136
654.57	0.136
654.77	0.136
654.97	0.136
655.16	0.136
655.36	0.136
655.56	0.135
655.76	0.134
655.96	0.135
656.16	0.134
656.36	0.134
656.56	0.133
656.75	0.133
656.95	0.132
657.15	0.132
657.35	0.132
657.55	0.131
657.75	0.132
657.95	0.131
658.14	0.131
658.34	0.131
658.54	0.131
658.74	0.131
658.94	0.130
659.14	0.130
659.34	0.130
659.53	0.130
659.73	0.129
659.93	0.129
660.13	0.129
660.33	0.129
660.53	0.129
660.72	0.129
660.92	0.129
661.12	0.129
661.32	0.128
661.52	0.128
661.72	0.128
661.91	0.127
662.11	0.128
662.31	0.127
662.51	0.127
662.71	0.126
662.90	0.125
663.10	0.125
663.30	0.125
663.50	0.125
663.70	0.125
663.90	0.125
664.09	0.125
664.29	0.125
664.49	0.124
664.69	0.124
664.89	0.124
665.08	0.124
665.28	0.123
665.48	0.123
665.68	0.122
665.88	0.122
666.07	0.122
666.27	0.122
666.47	0.122
666.67	0.122
666.87	0.122
667.06	0.122
667.26	0.122
667.46	0.121
667.66	0.122
667.85	0.121
668.05	0.121
668.25	0.121
668.45	0.121
668.65	0.121
668.84	0.121
669.04	0.121
669.24	0.121
669.44	0.120
669.63	0.120
669.83	0.119
670.03	0.119
670.23	0.118
670.42	0.118
670.62	0.117
670.82	0.117
671.02	0.117
671.22	0.116
671.41	0.116
671.61	0.116
671.81	0.116
672.01	0.116
672.20	0.116
672.40	0.116
672.60	0.115
672.80	0.115
672.99	0.115
673.19	0.115
673.39	0.115
673.58	0.115
673.78	0.114
673.98	0.114
674.18	0.114
674.37	0.113
674.57	0.113
674.77	0.114
674.97	0.114
675.16	0.114
675.36	0.114
675.56	0.113
675.75	0.113
675.95	0.113
676.15	0.113
676.35	0.113
676.54	0.113
676.74	0.112
676.94	0.113
677.13	0.112
677.33	0.111
677.53	0.112
677.73	0.111
677.92	0.111
678.12	0.111
678.32	0.111
678.51	0.110
678.71	0.110
678.91	0.110
679.11	0.109
679.30	0.110
679.50	0.109
679.70	0.109
679.89	0.109
680.09	0.109
680.29	0.109
680.48	0.109
680.68	0.108
680.88	0.108
681.07	0.108
681.27	0.107
681.47	0.107
681.66	0.107
681.86	0.107
682.06	0.106
682.25	0.106
682.45	0.106
682.65	0.106
682.84	0.105
683.04	0.105
683.24	0.105
683.43	0.106
683.63	0.105
683.83	0.105
684.02	0.105
684.22	0.105
684.42	0.105
684.61	0.105
684.81	0.105
685.01	0.104
685.20	0.104
685.40	0.104
685.60	0.103
685.79	0.104
685.99	0.104
686.19	0.103
686.38	0.103
686.58	0.104
686.77	0.104
686.97	0.103
687.17	0.104
687.36	0.103
687.56	0.103
687.76	0.103
687.95	0.103
688.15	0.103
688.34	0.103
688.54	0.102
688.74	0.101
688.93	0.101
689.13	0.101
689.33	0.101
689.52	0.100
689.72	0.100
689.91	0.100
690.11	0.100
690.31	0.099
690.50	0.099
690.70	0.100
690.89	0.100
691.09	0.099
691.29	0.099
691.48	0.099
691.68	0.099
691.87	0.099
692.07	0.099
692.27	0.099
692.46	0.098
692.66	0.098
692.85	0.097
693.05	0.097
693.25	0.097
693.44	0.097
693.64	0.097
693.83	0.097
694.03	0.096
694.22	0.096
694.42	0.096
694.62	0.096
694.81	0.096
695.01	0.096
695.20	0.096
695.40	0.096
695.59	0.096
695.79	0.095
695.99	0.096
696.18	0.095
696.38	0.096
696.57	0.095
696.77	0.095
696.96	0.095
697.16	0.095
697.36	0.095
697.55	0.095
697.75	0.095
697.94	0.094
698.14	0.094
698.33	0.094
698.53	0.094
698.72	0.094
698.92	0.094
699.11	0.094
699.31	0.094
699.51	0.094
699.70	0.093
699.90	0.093
700.09	0.093
700.29	0.093
700.48	0.093
700.68	0.093
700.87	0.093
701.07	0.093
701.26	0.093
701.46	0.093
701.65	0.093
701.85	0.093
702.04	0.093
702.24	0.093
702.43	0.093
702.63	0.092
702.82	0.092
703.02	0.092
703.21	0.092
703.41	0.092
703.60	0.092
703.80	0.091
703.99	0.091
704.19	0.091
704.38	0.090
704.58	0.089
704.77	0.090
704.97	0.089
705.16	0.089
705.36	0.089
705.55	0.089
705.75	0.088
705.94	0.088
706.14	0.088
706.33	0.088
706.53	0.089
706.72	0.089
706.92	0.088
707.11	0.088
707.31	0.088
707.50	0.088
707.70	0.088
707.89	0.088
708.09	0.088
708.28	0.088
708.48	0.088
708.67	0.087
708.86	0.088
709.06	0.088
709.25	0.088
709.45	0.088
709.64	0.088
709.84	0.088
710.03	0.088
710.23	0.087
710.42	0.087
710.62	0.087
710.81	0.087
711.00	0.087
711.20	0.087
711.39	0.087
711.59	0.087
711.78	0.087
711.98	0.087
712.17	0.087
712.37	0.087
712.56	0.087
712.75	0.087
712.95	0.087
713.14	0.087
713.34	0.087
713.53	0.087
713.73	0.087
713.92	0.087
714.11	0.087
714.31	0.087
714.50	0.087
714.70	0.087
714.89	0.087
715.08	0.087
715.28	0.086
715.47	0.086
715.67	0.086
715.86	0.085
716.06	0.086
716.25	0.086
716.44	0.085
716.64	0.085
716.83	0.085
717.03	0.085
717.22	0.085
717.41	0.085
717.61	0.084
717.80	0.085
717.99	0.084
718.19	0.084
718.38	0.084
718.58	0.083
718.77	0.083
718.96	0.083
719.16	0.084
719.35	0.083
719.55	0.083
719.74	0.083
719.93	0.083
720.13	0.083
720.32	0.083
720.51	0.083
720.71	0.083
720.90	0.083
721.10	0.083
721.29	0.083
721.48	0.083
721.68	0.083
721.87	0.083
722.06	0.083
722.26	0.084
722.45	0.084
722.64	0.084
722.84	0.084
723.03	0.084
723.22	0.084
723.42	0.084
723.61	0.084
723.80	0.084
724.00	0.084
724.19	0.084
724.38	0.084
724.58	0.084
724.77	0.084
724.96	0.084
725.16	0.084
725.35	0.084
725.54	0.083
725.74	0.084
725.93	0.083
726.12	0.083
726.32	0.083
726.51	0.083
726.70	0.083
726.90	0.083
727.09	0.083
727.28	0.083
727.48	0.083
727.67	0.083
727.86	0.083
728.06	0.083
728.25	0.083
728.44	0.083
728.64	0.083
728.83	0.083
729.02	0.083
729.21	0.084
729.41	0.083
729.60	0.083
729.79	0.083
729.99	0.083
730.18	0.083
730.37	0.083
730.56	0.083
730.76	0.082
730.95	0.083
731.14	0.083
731.34	0.083
731.53	0.083
731.72	0.083
731.91	0.083
732.11	0.083
732.30	0.083
732.49	0.083
732.69	0.083
732.88	0.083
733.07	0.083
733.26	0.083
733.46	0.083
733.65	0.083
733.84	0.083
734.03	0.084
734.23	0.084
734.42	0.083
734.61	0.083
734.80	0.083
735.00	0.083
735.19	0.083
735.38	0.083
735.57	0.083
735.77	0.083
735.96	0.083
736.15	0.083
736.34	0.083
736.54	0.083
736.73	0.083
736.92	0.083
737.11	0.083
737.31	0.083
737.50	0.083
737.69	0.083
737.88	0.083
738.07	0.083
738.27	0.083
738.46	0.083
738.65	0.083
738.84	0.083
739.04	0.083
739.23	0.083
739.42	0.083
739.61	0.083
739.80	0.083
740.00	0.083
740.19	0.083
740.38	0.083
740.57	0.083
740.76	0.082
740.96	0.082
741.15	0.082
741.34	0.082
741.53	0.082
741.72	0.081
741.92	0.081
742.11	0.081
742.30	0.081
742.49	0.081
742.68	0.081
742.88	0.081
743.07	0.081
743.26	0.082
743.45	0.082
743.64	0.081
743.84	0.081
744.03	0.081
744.22	0.082
744.41	0.082
744.60	0.081
744.79	0.082
744.99	0.081
745.18	0.081
745.37	0.081
745.56	0.081
745.75	0.081
745.94	0.081
746.14	0.081
746.33	0.081
746.52	0.081
746.71	0.081
746.90	0.080
747.09	0.081
747.28	0.080
747.48	0.080
747.67	0.080
747.86	0.079
748.05	0.080
748.24	0.079
748.43	0.079
748.62	0.079
748.82	0.079
749.01	0.079
749.20	0.079
749.39	0.079
749.58	0.079
749.77	0.079
749.96	0.079
750.16	0.080
750.35	0.080
750.54	0.079
750.73	0.080
750.92	0.080
751.11	0.080
751.30	0.080
751.49	0.080
751.68	0.080
751.88	0.080
752.07	0.079
752.26	0.079
752.45	0.079
752.64	0.079
752.83	0.079
753.02	0.079
753.21	0.078
753.40	0.078
753.60	0.078
753.79	0.078
753.98	0.078
754.17	0.078
754.36	0.078
754.55	0.078
754.74	0.078
754.93	0.078
755.12	0.078
755.31	0.078
755.50	0.078
755.70	0.078
755.89	0.078
756.08	0.078
756.27	0.078
756.46	0.078
756.65	0.078
756.84	0.078
757.03	0.078
757.22	0.077
757.41	0.077
757.60	0.077
757.79	0.078
757.98	0.078
758.17	0.078
758.36	0.078
758.56	0.078
758.75	0.078
758.94	0.078
759.13	0.078
759.32	0.078
759.51	0.078
759.70	0.078
759.89	0.077
760.08	0.077
760.27	0.077
760.46	0.077
760.65	0.077
760.84	0.077
761.03	0.076
761.22	0.077
761.41	0.077
761.60	0.076
761.79	0.076
761.98	0.076
762.17	0.076
762.36	0.076
762.55	0.076
762.74	0.076
762.93	0.076
763.12	0.076
763.31	0.075
763.50	0.075
763.69	0.075
763.88	0.075
764.07	0.075
764.26	0.075
764.45	0.075
764.64	0.075
764.83	0.075
765.02	0.075
765.21	0.075
765.40	0.075
765.59	0.075
765.78	0.075
765.97	0.075
766.16	0.075
766.35	0.075
766.54	0.075
766.73	0.075
766.92	0.075
767.11	0.075
767.30	0.075
767.49	0.075
767.68	0.075
767.87	0.075
768.06	0.075
768.25	0.075
768.44	0.075
768.63	0.075
768.82	0.075
769.01	0.075
769.20	0.075
769.39	0.075
769.58	0.076
769.77	0.075
769.96	0.076
770.15	0.075
770.34	0.076
770.53	0.076
770.72	0.075
770.91	0.075
771.10	0.075
771.29	0.074
771.47	0.074
771.66	0.074
771.85	0.074
772.04	0.074
772.23	0.074
772.42	0.073
772.61	0.073
772.80	0.074
772.99	0.074
773.18	0.073
773.37	0.074
773.56	0.074
773.75	0.074
773.94	0.074
774.13	0.074
774.31	0.074
774.50	0.074
774.69	0.074
774.88	0.074
775.07	0.074
775.26	0.074
775.45	0.073
775.64	0.073
775.83	0.073
776.02	0.073
776.21	0.073
776.40	0.073
776.58	0.073
776.77	0.073
776.96	0.073
777.15	0.073
777.34	0.073
777.53	0.073
777.72	0.073
777.91	0.073
778.10	0.073
778.28	0.073
778.47	0.073
778.66	0.072
778.85	0.072
779.04	0.072
779.23	0.072
779.42	0.072
779.61	0.072
779.79	0.072
779.98	0.072
780.17	0.072
780.36	0.072
780.55	0.071
780.74	0.072
780.93	0.071
781.12	0.071
781.30	0.071
781.49	0.071
781.68	0.071
781.87	0.072
782.06	0.072
782.25	0.071
782.44	0.071
782.62	0.071
782.81	0.072
783.00	0.071
783.19	0.071
783.38	0.071
783.57	0.071
783.75	0.071
783.94	0.071
784.13	0.071
784.32	0.071
784.51	0.071
784.70	0.071
784.88	0.071
785.07	0.071
785.26	0.071
785.45	0.071
785.64	0.070
785.83	0.070
786.01	0.070
786.20	0.070
786.39	0.070
786.58	0.070
786.77	0.070
786.95	0.070
787.14	0.070
787.33	0.070
787.52	0.070
787.71	0.070
787.90	0.070
788.08	0.070
788.27	0.070
788.46	0.070
788.65	0.070
788.84	0.070
789.02	0.070
789.21	0.070
789.40	0.070
789.59	0.070
789.77	0.070
789.96	0.070
790.15	0.070
790.34	0.070
790.53	0.070
790.71	0.070
790.90	0.069
791.09	0.069
791.28	0.070
791.46	0.070
791.65	0.069
791.84	0.070
792.03	0.070
792.22	0.070
792.40	0.069
792.59	0.070
792.78	0.070
792.97	0.070
793.15	0.070
793.34	0.070
793.53	0.069
793.72	0.069
793.90	0.069
794.09	0.069
794.28	0.069
794.47	0.070
794.65	0.069
794.84	0.069
795.03	0.069
795.22	0.069
795.40	0.069
795.59	0.069
795.78	0.069
795.97	0.069
796.15	0.069
796.34	0.068
796.53	0.068
796.71	0.069
796.90	0.069
797.09	0.069
797.28	0.069
797.46	0.069
797.65	0.069
797.84	0.069
798.02	0.069
798.21	0.069
798.40	0.069
798.59	0.068
798.77	0.068
798.96	0.068
799.15	0.068
799.33	0.068
799.52	0.068
799.71	0.068
799.90	0.068
800.08	0.068
800.27	0.068
800.46	0.067
800.64	0.067
800.83	0.067
801.02	0.067
801.20	0.068
801.39	0.067
801.58	0.067
801.76	0.067
801.95	0.068
802.14	0.067
802.32	0.068
802.51	0.068
802.70	0.068
802.88	0.067
803.07	0.068
803.26	0.067
803.44	0.067
803.63	0.067
803.82	0.067
804.00	0.067
804.19	0.067
804.38	0.067
804.56	0.067
804.75	0.067
804.94	0.067
805.12	0.067
805.31	0.067
805.50	0.068
805.68	0.068
805.87	0.068
806.06	0.068
806.24	0.068
806.43	0.068
806.62	0.068
806.80	0.068
806.99	0.068
807.17	0.068
807.36	0.068
807.55	0.068
807.73	0.068
807.92	0.068
808.11	0.068
808.29	0.067
808.48	0.067
808.66	0.067
808.85	0.067
809.04	0.066
809.22	0.067
809.41	0.067
809.59	0.067
809.78	0.066
809.97	0.066
810.15	0.066
810.34	0.066
810.53	0.066
810.71	0.066
810.90	0.066
811.08	0.066
811.27	0.066
811.45	0.066
811.64	0.066
811.83	0.066
812.01	0.066
812.20	0.066
812.38	0.066
812.57	0.066
812.76	0.066
812.94	0.066
813.13	0.066
813.31	0.066
813.50	0.066
813.68	0.066
813.87	0.066
814.06	0.066
814.24	0.066
814.43	0.066
814.61	0.066
814.80	0.066
814.98	0.066
815.17	0.066
815.36	0.066
815.54	0.066
815.73	0.066
815.91	0.067
816.10	0.067
816.28	0.066
816.47	0.066
816.65	0.066
816.84	0.066
817.03	0.067
817.21	0.067
817.40	0.067
817.58	0.067
817.77	0.067
817.95	0.067
818.14	0.067
818.32	0.067
818.51	0.068
818.69	0.067
818.88	0.067
819.06	0.067
819.25	0.067
819.43	0.067
819.62	0.067
819.80	0.067
819.99	0.067
820.18	0.067
820.36	0.066
820.55	0.067
820.73	0.067
820.92	0.067
821.10	0.067
821.29	0.067
821.47	0.067
821.66	0.067
821.84	0.067
822.03	0.067
822.21	0.067
822.40	0.067
822.58	0.067
822.77	0.067
822.95	0.067
823.14	0.067
823.32	0.067
823.50	0.068
823.69	0.067
823.87	0.067
824.06	0.068
824.24	0.068
824.43	0.068
824.61	0.068
824.80	0.068
824.98	0.068
825.17	0.068
825.35	0.068
825.54	0.068
825.72	0.068
825.91	0.068
826.09	0.068
826.28	0.068
826.46	0.068
826.64	0.068
826.83	0.069
827.01	0.069
827.20	0.069
827.38	0.069
827.57	0.069
827.75	0.069
827.94	0.069
828.12	0.069
828.31	0.069
828.49	0.069
828.67	0.069
828.86	0.069
829.04	0.069
829.23	0.070
829.41	0.070
829.60	0.070
829.78	0.071
829.96	0.071
830.15	0.071
830.33	0.071
830.52	0.072
830.70	0.072
830.88	0.071
831.07	0.072
831.25	0.072
831.44	0.072
831.62	0.072
831.81	0.071
831.99	0.071
832.17	0.072
832.36	0.072
832.54	0.072
832.73	0.073
832.91	0.072
833.09	0.072
833.28	0.073
833.46	0.073
833.65	0.073
833.83	0.073
834.01	0.073
834.20	0.073
834.38	0.073
834.56	0.073
834.75	0.073
834.93	0.073
835.12	0.073
835.30	0.073
835.48	0.073
835.67	0.073
835.85	0.072
836.03	0.072
836.22	0.072
836.40	0.073
836.59	0.073
836.77	0.073
836.95	0.073
837.14	0.073
837.32	0.073
837.50	0.073
837.69	0.073
837.87	0.073
838.05	0.074
838.24	0.074
838.42	0.074
838.60	0.074
838.79	0.074
838.97	0.074
839.15	0.074
839.34	0.074
839.52	0.074
839.70	0.074
839.89	0.074
840.07	0.074
840.25	0.074
840.44	0.074
840.62	0.074
840.80	0.074
840.99	0.074
841.17	0.074
841.35	0.074
841.54	0.074
841.72	0.075
841.90	0.075
842.09	0.074
842.27	0.074
842.45	0.074
842.64	0.074
842.82	0.074
843.00	0.074
843.19	0.074
843.37	0.074
843.55	0.073
843.73	0.073
843.92	0.073
844.10	0.073
844.28	0.074
844.47	0.074
844.65	0.073
844.83	0.074
845.01	0.074
845.20	0.074
845.38	0.074
845.56	0.075
845.75	0.075
845.93	0.075
846.11	0.074
846.29	0.075
846.48	0.075
846.66	0.075
846.84	0.075
847.02	0.075
847.21	0.074
847.39	0.075
847.57	0.075
847.76	0.075
847.94	0.075
848.12	0.075
848.30	0.075
848.49	0.075
848.67	0.075
848.85	0.075
849.03	0.076
849.22	0.076
849.40	0.076
849.58	0.076
849.76	0.076
849.95	0.076
850.13	0.076
850.31	0.076
850.49	0.076
850.67	0.076
850.86	0.076
851.04	0.075
851.22	0.075
851.40	0.075
851.59	0.075
851.77	0.075
851.95	0.075
852.13	0.075
852.31	0.074
852.50	0.075
852.68	0.075
852.86	0.075
853.04	0.075
853.23	0.075
853.41	0.075
853.59	0.075
853.77	0.075
853.95	0.076
854.14	0.076
854.32	0.076
854.50	0.075
854.68	0.075
854.86	0.075
855.04	0.075
855.23	0.075
855.41	0.076
855.59	0.076
855.77	0.076
855.95	0.076
856.14	0.076
856.32	0.076
856.50	0.075
856.68	0.076
856.86	0.076
857.04	0.076
857.23	0.075
857.41	0.075
857.59	0.075
857.77	0.075
857.95	0.075
858.13	0.075
858.32	0.075
858.50	0.076
858.68	0.075
858.86	0.075
859.04	0.076
859.22	0.076
859.41	0.076
859.59	0.076
859.77	0.076
859.95	0.076
860.13	0.076
860.31	0.076
860.49	0.076
860.68	0.076
860.86	0.076
861.04	0.076
861.22	0.076
861.40	0.076
861.58	0.076
861.76	0.076
861.94	0.076
862.13	0.076
862.31	0.076
862.49	0.076
862.67	0.076
862.85	0.076
863.03	0.076
863.21	0.076
863.39	0.077
863.57	0.077
863.76	0.077
863.94	0.077
864.12	0.077
864.30	0.077
864.48	0.077
864.66	0.077
864.84	0.077
865.02	0.077
865.20	0.077
865.38	0.077
865.57	0.077
865.75	0.077
865.93	0.078
866.11	0.077
866.29	0.077
866.47	0.077
866.65	0.077
866.83	0.077
867.01	0.077
867.19	0.077
867.37	0.077
867.55	0.077
867.73	0.077
867.92	0.077
868.10	0.077
868.28	0.077
868.46	0.076
868.64	0.077
868.82	0.077
869.00	0.077
869.18	0.077
869.36	0.077
869.54	0.077
869.72	0.077
869.90	0.077
870.08	0.077
870.26	0.077
870.44	0.077
870.62	0.077
870.80	0.077
870.98	0.077
871.16	0.077
871.34	0.077
871.53	0.077
871.71	0.077
871.89	0.077
872.07	0.078
872.25	0.078
872.43	0.078
872.61	0.078
872.79	0.078
872.97	0.079
873.15	0.079
873.33	0.079
873.51	0.079
873.69	0.079
873.87	0.079
874.05	0.079
874.23	0.079
874.41	0.079
874.59	0.079
874.77	0.079
874.95	0.079
875.13	0.079
875.31	0.079
875.49	0.079
875.67	0.078
875.85	0.079
876.03	0.079
876.21	0.079
876.39	0.079
876.57	0.079
876.75	0.079
876.93	0.079
877.11	0.079
877.29	0.079
877.47	0.079
877.65	0.079
877.82	0.079
878.00	0.079
878.18	0.079
878.36	0.079
878.54	0.079
878.72	0.079
878.90	0.079
879.08	0.080
879.26	0.080
879.44	0.080
879.62	0.080
879.80	0.080
879.98	0.080
880.16	0.080
880.34	0.080
880.52	0.080
880.70	0.080
880.88	0.079
881.06	0.079
881.24	0.079
881.42	0.079
881.59	0.079
881.77	0.079
881.95	0.079
882.13	0.079
882.31	0.079
882.49	0.079
882.67	0.080
882.85	0.080
883.03	0.080
883.21	0.080
883.39	0.080
883.57	0.081
883.75	0.081
883.92	0.081
884.10	0.081
884.28	0.081
884.46	0.081
884.64	0.081
884.82	0.081
885.00	0.081
885.18	0.081
885.36	0.082
885.54	0.082
885.71	0.082
885.89	0.082
886.07	0.082
886.25	0.082
886.43	0.082
886.61	0.081
886.79	0.081
886.97	0.081
887.15	0.082
887.32	0.081
887.50	0.082
887.68	0.081
887.86	0.082
888.04	0.081
888.22	0.081
888.40	0.082
888.57	0.082
888.75	0.082
888.93	0.082
889.11	0.082
889.29	0.082
889.47	0.082
889.65	0.082
889.82	0.082
890.00	0.083
890.18	0.083
890.36	0.083
890.54	0.083
890.72	0.083
890.90	0.083
891.07	0.083
891.25	0.083
891.43	0.082
891.61	0.082
891.79	0.082
891.97	0.082
892.14	0.082
892.32	0.082
892.50	0.082
892.68	0.082
892.86	0.083
893.03	0.083
893.21	0.083
893.39	0.083
893.57	0.083
893.75	0.083
893.93	0.084
894.10	0.084
894.28	0.084
894.46	0.084
894.64	0.084
894.82	0.084
894.99	0.084
895.17	0.083
895.35	0.084
895.53	0.084
895.71	0.083
895.88	0.083
896.06	0.083
896.24	0.084
896.42	0.083
896.59	0.084
896.77	0.084
896.95	0.083
897.13	0.084
897.31	0.084
897.48	0.084
897.66	0.084
897.84	0.084
898.02	0.084
898.19	0.084
898.37	0.084
898.55	0.084
898.73	0.084
898.91	0.084
899.08	0.084
899.26	0.084
899.44	0.084
899.62	0.084
899.79	0.084
899.97	0.084
900.15	0.084
900.33	0.084
900.50	0.084
900.68	0.084
900.86	0.084
901.04	0.084
901.21	0.084
901.39	0.084
901.57	0.085
901.74	0.085
901.92	0.085
902.10	0.085
902.28	0.085
902.45	0.085
902.63	0.085
902.81	0.085
902.99	0.086
903.16	0.086
903.34	0.086
903.52	0.086
903.69	0.086
903.87	0.086
904.05	0.086
904.22	0.087
904.40	0.087
904.58	0.087
904.76	0.087
904.93	0.087
905.11	0.087
905.29	0.087
905.46	0.087
905.64	0.087
905.82	0.087
905.99	0.087
906.17	0.087
906.35	0.087
906.53	0.087
906.70	0.087
906.88	0.087
907.06	0.087
907.23	0.087
907.41	0.087
907.59	0.087
907.76	0.087
907.94	0.087
908.12	0.087
908.29	0.087
908.47	0.087
908.65	0.087
908.82	0.087
909.00	0.087
909.18	0.088
909.35	0.088
909.53	0.088
909.71	0.088
909.88	0.088
910.06	0.088
910.23	0.088
910.41	0.088
910.59	0.088
910.76	0.088
910.94	0.088
911.12	0.088
911.29	0.088
911.47	0.088
911.65	0.089
911.82	0.089
912.00	0.089
912.17	0.089
912.35	0.089
912.53	0.090
912.70	0.090
912.88	0.090
913.06	0.090
913.23	0.091
913.41	0.091
913.58	0.091
913.76	0.091
913.94	0.091
914.11	0.091
914.29	0.091
914.46	0.091
914.64	0.091
914.82	0.091
914.99	0.091
915.17	0.091
915.34	0.091
915.52	0.091
915.70	0.091
915.87	0.091
916.05	0.092
916.22	0.091
916.40	0.091
916.57	0.092
916.75	0.092
916.93	0.092
917.10	0.092
917.28	0.092
917.45	0.092
917.63	0.092
917.80	0.092
917.98	0.092
918.16	0.092
918.33	0.093
918.51	0.093
918.68	0.093
918.86	0.093
919.03	0.093
919.21	0.093
919.39	0.094
919.56	0.094
919.74	0.094
919.91	0.095
920.09	0.095
920.26	0.095
920.44	0.095
920.61	0.095
920.79	0.095
920.96	0.095
921.14	0.095
921.31	0.096
921.49	0.096
921.67	0.096
921.84	0.096
922.02	0.096
922.19	0.097
922.37	0.097
922.54	0.097
922.72	0.097
922.89	0.098
923.07	0.098
923.24	0.098
923.42	0.098
923.59	0.099
923.77	0.099
923.94	0.099
924.12	0.100
924.29	0.100
924.47	0.100
924.64	0.101
924.82	0.101
924.99	0.101
925.17	0.102
925.34	0.102
925.52	0.102
925.69	0.103
925.87	0.103
926.04	0.103
926.22	0.104
926.39	0.104
926.57	0.104
926.74	0.104
926.91	0.104
927.09	0.105
927.26	0.105
927.44	0.105
927.61	0.105
927.79	0.106
927.96	0.107
928.14	0.107
928.31	0.107
928.49	0.107
928.66	0.108
928.84	0.109
929.01	0.109
929.18	0.109
929.36	0.110
929.53	0.111
929.71	0.111
929.88	0.111
930.06	0.111
930.23	0.112
930.41	0.112
930.58	0.112
930.75	0.113
930.93	0.113
931.10	0.113
931.28	0.114
931.45	0.114
931.63	0.115
931.80	0.115
931.97	0.115
932.15	0.116
932.32	0.117
932.50	0.117
932.67	0.118
932.84	0.118
933.02	0.119
933.19	0.119
933.37	0.119
933.54	0.120
933.71	0.120
933.89	0.121
934.06	0.121
934.24	0.122
934.41	0.122
934.58	0.122
934.76	0.123
934.93	0.123
935.11	0.123
935.28	0.124
935.45	0.124
935.63	0.125
935.80	0.125
935.98	0.126
936.15	0.126
936.32	0.127
936.50	0.128
936.67	0.128
936.84	0.128
937.02	0.130
937.19	0.130
937.36	0.131
937.54	0.131
937.71	0.132
937.89	0.133
938.06	0.133
938.23	0.134
938.41	0.135
938.58	0.135
938.75	0.135
938.93	0.135
939.10	0.136
939.27	0.136
939.45	0.136
939.62	0.137
939.79	0.137
939.97	0.137
940.14	0.138
940.31	0.138
940.49	0.139
940.66	0.139
940.83	0.140
941.01	0.141
941.18	0.142
941.35	0.142
941.53	0.143
941.70	0.144
941.87	0.144
942.05	0.145
942.22	0.146
942.39	0.147
942.57	0.147
942.74	0.148
942.91	0.148
943.08	0.149
943.26	0.149
943.43	0.150
943.60	0.151
943.78	0.151
943.95	0.152
944.12	0.152
944.29	0.153
944.47	0.154
944.64	0.155
944.81	0.156
944.99	0.157
945.16	0.157
945.33	0.158
945.50	0.159
945.68	0.160
945.85	0.160
946.02	0.162
946.20	0.162
946.37	0.163
946.54	0.164
946.71	0.165
946.89	0.165
947.06	0.166
947.23	0.167
947.40	0.168
947.58	0.168
947.75	0.170
947.92	0.170
948.09	0.171
948.27	0.172
948.44	0.173
948.61	0.174
948.78	0.175
948.96	0.176
949.13	0.177
949.30	0.178
949.47	0.179
949.65	0.180
949.82	0.183
949.99	0.182
950.16	0.184
950.33	0.185
950.51	0.186
950.68	0.188
950.85	0.189
951.02	0.190
951.20	0.191
951.37	0.192
951.54	0.192
951.71	0.194
951.88	0.196
952.06	0.197
952.23	0.197
952.40	0.199
952.57	0.201
952.74	0.202
952.92	0.203
953.09	0.204
953.26	0.206
953.43	0.207
953.60	0.208
953.77	0.209
953.95	0.209
954.12	0.211
954.29	0.212
954.46	0.215
954.63	0.215
954.81	0.216
954.98	0.217
955.15	0.219
955.32	0.220
955.49	0.220
955.66	0.222
955.84	0.224
956.01	0.224
956.18	0.226
956.35	0.228
956.52	0.228
956.69	0.230
956.87	0.230
957.04	0.231
957.21	0.233
957.38	0.232
957.55	0.233
957.72	0.234
957.89	0.235
958.07	0.235
958.24	0.238
958.41	0.239
958.58	0.239
958.75	0.240
958.92	0.241
959.09	0.242
959.26	0.243
959.44	0.243
959.61	0.244
959.78	0.245
959.95	0.247
960.12	0.247
960.29	0.249
960.46	0.248
960.63	0.248
960.81	0.249
960.98	0.249
961.15	0.250
961.32	0.251
961.49	0.250
961.66	0.251
961.83	0.252
962.00	0.251
962.17	0.253
962.34	0.252
962.52	0.253
962.69	0.254
962.86	0.254
963.03	0.254
963.20	0.255
963.37	0.254
963.54	0.255
963.71	0.254
963.88	0.254
964.05	0.255
964.22	0.257
964.39	0.256
964.56	0.256
964.74	0.257
964.91	0.257
965.08	0.257
965.25	0.257
965.42	0.258
965.59	0.259
965.76	0.258
965.93	0.260
966.10	0.258
966.27	0.259
966.44	0.259
966.61	0.260
966.78	0.259
966.95	0.259
967.12	0.260
967.29	0.262
967.46	0.261
967.63	0.260
967.80	0.261
967.97	0.260
968.14	0.260
968.32	0.261
968.49	0.261
968.66	0.260
968.83	0.261
969.00	0.261
969.17	0.260
969.34	0.261
969.51	0.262
969.68	0.261
969.85	0.262
970.02	0.262
970.19	0.262
970.36	0.263
970.53	0.263
970.70	0.262
970.87	0.263
971.04	0.262
971.21	0.263
971.38	0.263
971.55	0.263
971.72	0.263
971.89	0.264
972.06	0.263
972.23	0.263
972.40	0.263
972.57	0.262
972.74	0.262
972.91	0.263
973.07	0.263
973.24	0.263
973.41	0.263
973.58	0.261
973.75	0.274
973.92	0.262
974.09	0.262
974.26	0.262
974.43	0.261
974.60	0.262
974.77	0.263
974.94	0.261
975.11	0.262
975.28	0.263
975.45	0.261
975.62	0.262
975.79	0.263
975.96	0.262
976.13	0.261
976.30	0.263
976.47	0.261
976.64	0.261
976.80	0.261
976.97	0.261
977.14	0.261
977.31	0.261
977.48	0.262
977.65	0.261
977.82	0.260
977.99	0.262
978.16	0.262
978.33	0.261
978.50	0.261
978.67	0.261
978.83	0.261
979.00	0.261
979.17	0.260
979.34	0.260
979.51	0.259
979.68	0.259
979.85	0.258
980.02	0.259
980.19	0.257
980.36	0.259
980.52	0.260
980.69	0.259
980.86	0.259
981.03	0.258
981.20	0.257
981.37	0.258
981.54	0.258
981.71	0.257
981.88	0.258
982.04	0.256
982.21	0.256
982.38	0.257
982.55	0.256
982.72	0.255
982.89	0.256
983.06	0.255
983.22	0.255
983.39	0.255
983.56	0.254
983.73	0.254
983.90	0.254
984.07	0.255
984.24	0.254
984.40	0.253
984.57	0.252
984.74	0.254
984.91	0.255
985.08	0.253
985.25	0.250
985.41	0.251
985.58	0.251
985.75	0.252
985.92	0.251
986.09	0.250
986.26	0.250
986.42	0.249
986.59	0.248
986.76	0.250
986.93	0.250
987.10	0.251
987.27	0.248
987.43	0.247
987.60	0.249
987.77	0.249
987.94	0.247
988.11	0.248
988.27	0.248
988.44	0.248
988.61	0.246
988.78	0.245
988.95	0.245
989.11	0.246
989.28	0.244
989.45	0.243
989.62	0.244
989.79	0.244
989.95	0.243
990.12	0.244
990.29	0.244
990.46	0.242
990.62	0.241
990.79	0.241
990.96	0.242
991.13	0.242
991.30	0.241
991.46	0.241
991.63	0.239
991.80	0.238
991.97	0.238
992.13	0.239
992.30	0.241
992.47	0.239
992.64	0.238
992.80	0.238
992.97	0.239
993.14	0.236
993.31	0.233
993.47	0.236
993.64	0.234
993.81	0.233
993.98	0.234
994.14	0.232
994.31	0.231
994.48	0.232
994.64	0.233
994.81	0.231
994.98	0.232
995.15	0.230
995.31	0.229
995.48	0.229
995.65	0.231
995.82	0.228
995.98	0.227
996.15	0.229
996.32	0.230
996.48	0.227
996.65	0.227
996.82	0.225
996.99	0.226
997.15	0.226
997.32	0.227
997.49	0.225
997.65	0.226
997.82	0.225
997.99	0.223
998.15	0.223
998.32	0.224
998.49	0.223
998.65	0.223
998.82	0.222
998.99	0.219
999.15	0.220
999.32	0.219
999.49	0.218
999.65	0.219
999.82	0.217
999.99	0.217
1000.15	0.217
1000.32	0.218
1000.49	0.218
1000.65	0.216
1000.82	0.216
1000.99	0.217
1001.15	0.216
1001.32	0.216
1001.49	0.216
1001.65	0.216
1001.82	0.218
1001.99	0.215
1002.15	0.213
1002.32	0.213
1002.49	0.214
1002.65	0.213
1002.82	0.211
1002.99	0.212
1003.15	0.213
1003.32	0.212
1003.48	0.212
1003.65	0.212
1003.82	0.210
1003.98	0.208
1004.15	0.208
1004.32	0.208
1004.48	0.208
1004.65	0.209
1004.81	0.206
1004.98	0.205
1005.15	0.207
1005.31	0.206
1005.48	0.204
1005.64	0.205
1005.81	0.207
1005.98	0.204
1006.14	0.203
1006.31	0.203
1006.47	0.201
1006.64	0.200
1006.81	0.199
1006.97	0.199
1007.14	0.199
1007.30	0.200
1007.47	0.199
1007.63	0.197
1007.80	0.195
1007.97	0.195
1008.13	0.196
1008.30	0.196
1008.46	0.197
1008.63	0.195
1008.79	0.196
1008.96	0.196
1009.13	0.197
1009.29	0.195
1009.46	0.195
1009.62	0.195
1009.79	0.194
1009.95	0.193
1010.12	0.194
1010.28	0.194
1010.45	0.193
1010.62	0.192
1010.78	0.190
1010.95	0.189
1011.11	0.190
1011.28	0.189
1011.44	0.191
1011.61	0.189
1011.77	0.189
1011.94	0.188
1012.10	0.188
1012.27	0.188
1012.43	0.188
1012.60	0.188
1012.76	0.188
1012.93	0.187
1013.10	0.186
1013.26	0.183
1013.43	0.185
1013.59	0.192
1013.76	0.184
1013.92	0.183
1014.09	0.182
1014.25	0.184
1014.42	0.184
1014.58	0.184
1014.75	0.186
1014.91	0.184
1015.08	0.186
1015.24	0.182
1015.41	0.185
1015.57	0.185
1015.73	0.182
1015.90	0.180
1016.06	0.182
1016.23	0.180
1016.39	0.179
1016.56	0.180
1016.72	0.179
1016.89	0.179
1017.05	0.180
1017.22	0.176
1017.38	0.177
1017.55	0.176
1017.71	0.177
1017.88	0.176
1018.04	0.177
1018.21	0.174
1018.37	0.173
1018.53	0.173
1018.70	0.172
1018.86	0.171
1019.03	0.174
1019.19	0.172
1019.36	0.171
1019.52	0.173
1019.69	0.173
1019.85	0.173
1020.01	0.173
1020.18	0.172
1020.34	0.171
1020.51	0.170
1020.67	0.171
1020.84	0.169
1021.00	0.170
1021.16	0.168
1021.33	0.168
1021.49	0.166
1021.66	0.167
1021.82	0.165
1021.98	0.165
1022.15	0.165
1022.31	0.164
1022.48	0.163
1022.64	0.165
1022.80	0.163
1022.97	0.162
1023.13	0.161
1023.30	0.162
1023.46	0.162
1023.62	0.160
1023.79	0.162
1023.95	0.162
1024.12	0.162
1024.28	0.162
1024.44	0.162
1024.61	0.159
1024.77	0.159
1024.93	0.159
1025.10	0.159
1025.26	0.156
1025.43	0.158
1025.59	0.153
1025.75	0.157
1025.92	0.157
1026.08	0.156
1026.24	0.156
1026.41	0.158
1026.57	0.157
1026.73	0.155
1026.90	0.157
1027.06	0.156
1027.23	0.157
1027.39	0.157
1027.55	0.156
1027.72	0.154
1027.88	0.154
1028.04	0.154
1028.21	0.153
1028.37	0.147
1028.53	0.152
1028.70	0.150
1028.86	0.148
1029.02	0.148
1029.19	0.149
1029.35	0.148
1029.51	0.147
1029.67	0.145
1029.84	0.149
1030.00	0.144
1030.16	0.145
1030.33	0.147
1030.49	0.144
1030.65	0.142
1030.82	0.157
1030.98	0.144
1031.14	0.144
1031.31	0.145
1031.47	0.143
1031.63	0.145
1031.79	0.144
1031.96	0.145
1032.12	0.147
1032.28	0.144
1032.45	0.149
1032.61	0.148
1032.77	0.148
1032.93	0.146
1033.10	0.147
1033.26	0.150
1033.42	0.147
1033.58	0.149
1033.75	0.150
1033.91	0.148
1034.07	0.151
1034.24	0.149
1034.40	0.147
1034.56	0.145
1034.72	0.145
1034.89	0.146
1035.05	0.143
1035.21	0.143
1035.37	0.141
1035.54	0.143
1035.70	0.141
1035.86	0.140
1036.02	0.141
1036.19	0.139
1036.35	0.138
1036.51	0.142
1036.67	0.139
1036.83	0.139
1037.00	0.138
1037.16	0.138
1037.32	0.140
1037.48	0.139
1037.65	0.143
1037.81	0.138
1037.97	0.139
1038.13	0.138
1038.29	0.134
1038.46	0.132
1038.62	0.136
1038.78	0.134
1038.94	0.130
1039.10	0.134
1039.27	0.129
1039.43	0.131
1039.59	0.130
1039.75	0.130
1039.91	0.129
1040.08	0.129
1040.24	0.131
1040.40	0.132
1040.56	0.132
1040.72	0.126
1040.89	0.128
1041.05	0.130
1041.21	0.129
1041.37	0.127
1041.53	0.133
1041.69	0.131
1041.86	0.130
1042.02	0.128
1042.18	0.127
1042.34	0.128
1042.50	0.132
1042.66	0.129
1042.83	0.128
1042.99	0.130
1043.15	0.126
1043.31	0.127
1043.47	0.130
1043.63	0.128
1043.79	0.127
1043.96	0.128
1044.12	0.133
1044.28	0.131
1044.44	0.132
1044.60	0.127
1044.76	0.125
1044.92	0.128
1045.09	0.129
1045.25	0.126
1045.41	0.126
1045.57	0.123
1045.73	0.125
1045.89	0.126
1046.05	0.126
1046.21	0.126
1046.38	0.134
1046.54	0.134
1046.70	0.143
1046.86	0.121
>>>>>End Processed Spectral Data<<<<<
