SpectraSuite Data File
++++++++++++++++++++++++++++++++++++
Date: Mon May 20 12:11:42 CDT 2013
User: Students
Dark Spectrum Present: Yes
Reference Spectrum Present: Yes
Number of Sampled Component Spectra: 1
Spectrometers: USB4H00887
Integration Time (usec): 60000 (USB4H00887)
Spectra Averaged: 5 (USB4H00887)
Boxcar Smoothing: 5 (USB4H00887)
Correct for Electrical Dark: No (USB4H00887)
Strobe/Lamp Enabled: No (USB4H00887)
Correct for Detector Non-linearity: No (USB4H00887)
Correct for Stray Light: No (USB4H00887)
Number of Pixels in Processed Spectrum: 3648
>>>>>Begin Processed Spectral Data<<<<<
345.83	0.083
346.05	0.083
346.26	0.083
346.48	-0.000
346.70	0.251
346.92	0.033
347.14	0.056
347.35	0.058
347.57	0.455
347.79	-0.300
348.01	-0.195
348.23	-0.277
348.44	-0.000
348.66	0.350
348.88	-0.426
349.10	-0.242
349.32	0.143
349.53	-0.014
349.75	-0.008
349.97	0.003
350.19	0.068
350.41	0.032
350.62	-0.031
350.84	0.010
351.06	0.016
351.28	0.019
351.50	0.006
351.71	0.192
351.93	0.053
352.15	0.011
352.37	0.038
352.58	0.010
352.80	0.021
353.02	0.056
353.24	0.089
353.46	0.448
353.67	-0.140
353.89	0.048
354.11	0.032
354.33	0.055
354.54	0.085
354.76	0.184
354.98	0.327
355.20	0.299
355.41	0.118
355.63	0.205
355.85	0.107
356.07	-0.000
356.28	0.109
356.50	0.185
356.72	0.066
356.94	0.174
357.15	0.218
357.37	-0.000
357.59	0.089
357.81	0.038
358.02	0.098
358.24	0.076
358.46	0.189
358.68	0.170
358.89	0.106
359.11	-0.000
359.33	0.109
359.55	-0.651
359.76	0.178
359.98	0.210
360.20	0.201
360.42	0.161
360.63	0.175
360.85	0.107
361.07	0.501
361.29	0.081
361.50	0.270
361.72	0.098
361.94	0.353
362.15	0.150
362.37	0.080
362.59	0.084
362.81	0.131
363.02	0.222
363.24	0.370
363.46	0.223
363.68	0.246
363.89	0.153
364.11	0.201
364.33	0.243
364.54	0.144
364.76	0.176
364.98	0.194
365.20	0.223
365.41	0.121
365.63	0.142
365.85	0.099
366.06	0.320
366.28	0.317
366.50	0.180
366.71	0.063
366.93	0.073
367.15	0.104
367.37	0.100
367.58	0.101
367.80	0.124
368.02	0.390
368.23	0.134
368.45	0.125
368.67	0.100
368.88	0.146
369.10	-0.000
369.32	0.144
369.53	0.076
369.75	0.126
369.97	0.380
370.19	0.214
370.40	0.086
370.62	0.237
370.84	0.087
371.05	0.471
371.27	0.083
371.49	0.129
371.70	0.145
371.92	0.232
372.14	0.105
372.35	0.115
372.57	0.149
372.79	0.334
373.00	0.085
373.22	0.181
373.44	0.181
373.65	0.148
373.87	0.197
374.09	0.900
374.30	0.127
374.52	0.131
374.74	0.105
374.95	0.368
375.17	0.118
375.39	-0.000
375.60	0.131
375.82	0.231
376.04	0.094
376.25	0.112
376.47	0.080
376.68	0.186
376.90	0.116
377.12	0.194
377.33	0.120
377.55	0.281
377.77	0.148
377.98	0.211
378.20	0.134
378.42	0.162
378.63	0.201
378.85	-0.000
379.07	0.149
379.28	0.545
379.50	0.346
379.71	0.187
379.93	0.127
380.15	0.141
380.36	0.218
380.58	0.141
380.80	0.378
381.01	0.125
381.23	0.114
381.44	0.112
381.66	0.134
381.88	0.151
382.09	-0.072
382.31	0.109
382.53	0.128
382.74	0.699
382.96	0.188
383.17	0.151
383.39	0.216
383.61	0.283
383.82	0.200
384.04	0.240
384.25	0.319
384.47	0.308
384.69	0.289
384.90	0.266
385.12	0.578
385.33	0.332
385.55	0.247
385.77	0.370
385.98	0.187
386.20	0.246
386.41	0.206
386.63	0.218
386.85	0.178
387.06	0.227
387.28	0.329
387.49	0.231
387.71	0.175
387.93	0.154
388.14	0.459
388.36	0.205
388.57	0.198
388.79	0.224
389.01	-0.000
389.22	0.297
389.44	0.247
389.65	0.217
389.87	0.211
390.08	0.262
390.30	0.211
390.52	0.418
390.73	0.404
390.95	0.282
391.16	0.263
391.38	-0.000
391.59	0.293
391.81	0.233
392.03	0.218
392.24	0.251
392.46	0.203
392.67	0.177
392.89	0.252
393.10	0.367
393.32	0.239
393.53	0.282
393.75	0.183
393.97	0.201
394.18	0.289
394.40	0.243
394.61	0.246
394.83	0.206
395.04	0.250
395.26	0.164
395.47	0.235
395.69	0.211
395.91	0.231
396.12	0.278
396.34	0.295
396.55	0.193
396.77	0.287
396.98	1.052
397.20	0.340
397.41	0.346
397.63	0.258
397.84	0.241
398.06	0.227
398.27	0.217
398.49	0.250
398.71	0.176
398.92	0.205
399.14	0.257
399.35	0.330
399.57	0.334
399.78	0.243
400.00	0.231
400.21	0.285
400.43	0.234
400.64	0.253
400.86	0.508
401.07	0.300
401.29	0.263
401.50	0.282
401.72	0.366
401.93	0.237
402.15	0.272
402.36	0.256
402.58	0.216
402.79	0.234
403.01	0.372
403.22	0.301
403.44	0.219
403.65	0.338
403.87	0.366
404.08	0.300
404.30	0.488
404.51	0.296
404.73	0.349
404.94	0.296
405.16	0.312
405.37	0.243
405.59	0.428
405.80	0.275
406.02	0.333
406.23	0.324
406.45	0.359
406.66	0.374
406.88	0.245
407.09	0.349
407.31	0.298
407.52	0.337
407.74	0.283
407.95	0.333
408.17	0.313
408.38	0.327
408.60	0.224
408.81	0.362
409.03	0.277
409.24	0.281
409.45	0.330
409.67	0.304
409.88	0.286
410.10	0.366
410.31	0.304
410.53	0.292
410.74	0.404
410.96	0.407
411.17	0.421
411.39	0.330
411.60	0.301
411.82	0.336
412.03	0.333
412.24	0.317
412.46	0.426
412.67	0.370
412.89	0.354
413.10	0.337
413.32	0.307
413.53	0.354
413.75	0.364
413.96	0.288
414.17	0.383
414.39	0.390
414.60	0.326
414.82	0.407
415.03	0.319
415.25	0.361
415.46	0.263
415.68	0.365
415.89	0.586
416.10	0.506
416.32	0.302
416.53	0.350
416.75	0.329
416.96	0.394
417.18	0.343
417.39	0.337
417.60	0.332
417.82	0.461
418.03	0.405
418.25	0.346
418.46	0.361
418.67	0.338
418.89	0.356
419.10	0.369
419.32	0.463
419.53	0.446
419.75	0.384
419.96	0.349
420.17	0.420
420.39	0.397
420.60	0.416
420.82	0.485
421.03	0.408
421.24	0.358
421.46	0.389
421.67	0.422
421.89	0.369
422.10	0.392
422.31	0.380
422.53	0.508
422.74	0.388
422.96	0.316
423.17	0.352
423.38	0.408
423.60	0.347
423.81	0.410
424.03	0.356
424.24	0.378
424.45	0.383
424.67	0.386
424.88	0.357
425.09	0.397
425.31	0.371
425.52	0.390
425.74	0.433
425.95	0.454
426.16	0.373
426.38	0.426
426.59	0.401
426.80	0.442
427.02	0.464
427.23	0.376
427.45	0.459
427.66	0.449
427.87	0.366
428.09	0.383
428.30	0.426
428.51	0.423
428.73	0.461
428.94	0.418
429.15	0.406
429.37	0.388
429.58	0.404
429.79	0.375
430.01	0.437
430.22	0.433
430.44	0.441
430.65	0.401
430.86	0.426
431.08	0.421
431.29	0.388
431.50	0.450
431.72	0.552
431.93	0.479
432.14	0.383
432.36	0.410
432.57	0.416
432.78	0.433
433.00	0.405
433.21	0.401
433.42	0.470
433.64	0.430
433.85	0.470
434.06	0.401
434.28	0.418
434.49	0.432
434.70	0.448
434.92	0.450
435.13	0.469
435.34	0.473
435.56	0.449
435.77	0.451
435.98	0.540
436.20	0.476
436.41	0.419
436.62	0.414
436.83	0.456
437.05	0.490
437.26	0.445
437.47	0.414
437.69	0.453
437.90	0.427
438.11	0.417
438.33	0.448
438.54	0.459
438.75	0.560
438.97	0.553
439.18	0.444
439.39	0.465
439.60	0.498
439.82	0.467
440.03	0.434
440.24	0.577
440.46	0.465
440.67	0.453
440.88	0.481
441.10	0.452
441.31	0.451
441.52	0.481
441.73	0.525
441.95	0.476
442.16	0.446
442.37	0.622
442.58	0.441
442.80	0.431
443.01	0.526
443.22	0.497
443.44	0.437
443.65	0.495
443.86	0.494
444.07	0.520
444.29	0.462
444.50	0.552
444.71	0.448
444.92	0.422
445.14	0.512
445.35	0.536
445.56	0.445
445.78	0.507
445.99	0.511
446.20	0.454
446.41	0.498
446.63	0.498
446.84	0.479
447.05	0.483
447.26	0.560
447.48	0.501
447.69	0.479
447.90	0.529
448.11	0.484
448.33	0.501
448.54	0.512
448.75	0.526
448.96	0.535
449.18	0.558
449.39	0.509
449.60	0.497
449.81	0.562
450.03	0.503
450.24	0.534
450.45	0.508
450.66	0.495
450.87	0.512
451.09	0.491
451.30	0.480
451.51	0.517
451.72	0.523
451.94	0.538
452.15	0.576
452.36	0.508
452.57	0.516
452.78	0.517
453.00	0.539
453.21	0.515
453.42	0.499
453.63	0.554
453.85	0.542
454.06	0.535
454.27	0.596
454.48	0.548
454.69	0.509
454.91	0.550
455.12	0.497
455.33	0.539
455.54	0.553
455.75	0.538
455.97	0.553
456.18	0.545
456.39	0.553
456.60	0.567
456.81	0.533
457.03	0.539
457.24	0.540
457.45	0.584
457.66	0.554
457.87	0.528
458.09	0.541
458.30	0.493
458.51	0.559
458.72	0.573
458.93	0.582
459.15	0.534
459.36	0.570
459.57	0.585
459.78	0.608
459.99	0.559
460.20	0.537
460.42	0.579
460.63	0.555
460.84	0.549
461.05	0.556
461.26	0.583
461.47	0.539
461.69	0.565
461.90	0.582
462.11	0.561
462.32	0.595
462.53	0.568
462.74	0.616
462.96	0.557
463.17	0.552
463.38	0.574
463.59	0.633
463.80	0.551
464.01	0.562
464.23	0.607
464.44	0.586
464.65	0.589
464.86	0.599
465.07	0.603
465.28	0.583
465.49	0.593
465.71	0.571
465.92	0.591
466.13	0.620
466.34	0.589
466.55	0.617
466.76	0.599
466.97	0.615
467.19	0.607
467.40	0.628
467.61	0.630
467.82	0.591
468.03	0.583
468.24	0.621
468.45	0.636
468.66	0.630
468.88	0.636
469.09	0.635
469.30	0.656
469.51	0.620
469.72	0.641
469.93	0.626
470.14	0.613
470.35	0.658
470.57	0.632
470.78	0.604
470.99	0.670
471.20	0.640
471.41	0.621
471.62	0.647
471.83	0.634
472.04	0.651
472.25	0.672
472.47	0.632
472.68	0.638
472.89	0.643
473.10	0.663
473.31	0.633
473.52	0.662
473.73	0.676
473.94	0.635
474.15	0.649
474.36	0.652
474.57	0.664
474.79	0.651
475.00	0.649
475.21	0.642
475.42	0.688
475.63	0.641
475.84	0.659
476.05	0.661
476.26	0.646
476.47	0.664
476.68	0.685
476.89	0.650
477.10	0.675
477.32	0.670
477.53	0.698
477.74	0.658
477.95	0.682
478.16	0.657
478.37	0.677
478.58	0.681
478.79	0.689
479.00	0.691
479.21	0.671
479.42	0.691
479.63	0.692
479.84	0.673
480.05	0.673
480.26	0.685
480.47	0.693
480.69	0.695
480.90	0.678
481.11	0.676
481.32	0.704
481.53	0.676
481.74	0.702
481.95	0.687
482.16	0.694
482.37	0.697
482.58	0.681
482.79	0.689
483.00	0.704
483.21	0.680
483.42	0.665
483.63	0.704
483.84	0.716
484.05	0.712
484.26	0.700
484.47	0.699
484.68	0.682
484.89	0.686
485.10	0.710
485.31	0.699
485.52	0.702
485.73	0.702
485.94	0.720
486.15	0.694
486.37	0.701
486.58	0.682
486.79	0.690
487.00	0.714
487.21	0.710
487.42	0.708
487.63	0.710
487.84	0.719
488.05	0.719
488.26	0.700
488.47	0.703
488.68	0.718
488.89	0.708
489.10	0.704
489.31	0.710
489.52	0.724
489.73	0.709
489.94	0.726
490.15	0.706
490.36	0.725
490.57	0.704
490.78	0.697
490.99	0.716
491.20	0.750
491.41	0.731
491.62	0.703
491.83	0.719
492.04	0.718
492.25	0.723
492.45	0.722
492.66	0.735
492.87	0.729
493.08	0.724
493.29	0.717
493.50	0.714
493.71	0.717
493.92	0.716
494.13	0.724
494.34	0.734
494.55	0.737
494.76	0.751
494.97	0.747
495.18	0.731
495.39	0.738
495.60	0.712
495.81	0.713
496.02	0.724
496.23	0.721
496.44	0.735
496.65	0.730
496.86	0.732
497.07	0.746
497.28	0.743
497.49	0.719
497.70	0.719
497.91	0.731
498.12	0.723
498.32	0.742
498.53	0.735
498.74	0.731
498.95	0.744
499.16	0.723
499.37	0.724
499.58	0.729
499.79	0.744
500.00	0.743
500.21	0.755
500.42	0.729
500.63	0.730
500.84	0.739
501.05	0.728
501.26	0.739
501.46	0.758
501.67	0.741
501.88	0.741
502.09	0.728
502.30	0.733
502.51	0.756
502.72	0.735
502.93	0.741
503.14	0.752
503.35	0.739
503.56	0.737
503.77	0.753
503.97	0.741
504.18	0.742
504.39	0.757
504.60	0.742
504.81	0.755
505.02	0.751
505.23	0.752
505.44	0.744
505.65	0.746
505.86	0.737
506.07	0.767
506.27	0.749
506.48	0.752
506.69	0.746
506.90	0.756
507.11	0.754
507.32	0.743
507.53	0.747
507.74	0.744
507.95	0.751
508.15	0.755
508.36	0.757
508.57	0.761
508.78	0.754
508.99	0.753
509.20	0.741
509.41	0.753
509.62	0.748
509.82	0.747
510.03	0.751
510.24	0.753
510.45	0.763
510.66	0.759
510.87	0.758
511.08	0.739
511.29	0.759
511.49	0.749
511.70	0.771
511.91	0.740
512.12	0.739
512.33	0.755
512.54	0.762
512.75	0.755
512.95	0.766
513.16	0.761
513.37	0.749
513.58	0.767
513.79	0.748
514.00	0.749
514.20	0.758
514.41	0.751
514.62	0.734
514.83	0.752
515.04	0.748
515.25	0.738
515.46	0.744
515.66	0.744
515.87	0.750
516.08	0.736
516.29	0.749
516.50	0.739
516.71	0.737
516.91	0.743
517.12	0.750
517.33	0.742
517.54	0.737
517.75	0.737
517.95	0.744
518.16	0.748
518.37	0.733
518.58	0.734
518.79	0.723
519.00	0.736
519.20	0.741
519.41	0.728
519.62	0.738
519.83	0.742
520.04	0.726
520.24	0.724
520.45	0.729
520.66	0.741
520.87	0.723
521.08	0.721
521.28	0.723
521.49	0.730
521.70	0.716
521.91	0.722
522.12	0.713
522.32	0.723
522.53	0.714
522.74	0.707
522.95	0.711
523.16	0.711
523.36	0.715
523.57	0.706
523.78	0.703
523.99	0.705
524.20	0.701
524.40	0.708
524.61	0.710
524.82	0.696
525.03	0.699
525.23	0.699
525.44	0.692
525.65	0.691
525.86	0.700
526.06	0.685
526.27	0.685
526.48	0.689
526.69	0.680
526.90	0.681
527.10	0.700
527.31	0.677
527.52	0.673
527.73	0.669
527.93	0.673
528.14	0.677
528.35	0.671
528.56	0.671
528.76	0.667
528.97	0.662
529.18	0.657
529.39	0.656
529.59	0.658
529.80	0.673
530.01	0.659
530.22	0.658
530.42	0.642
530.63	0.653
530.84	0.640
531.05	0.648
531.25	0.649
531.46	0.644
531.67	0.633
531.88	0.642
532.08	0.637
532.29	0.634
532.50	0.631
532.70	0.626
532.91	0.620
533.12	0.621
533.33	0.634
533.53	0.619
533.74	0.618
533.95	0.621
534.15	0.615
534.36	0.615
534.57	0.606
534.78	0.607
534.98	0.612
535.19	0.595
535.40	0.595
535.60	0.605
535.81	0.593
536.02	0.595
536.23	0.590
536.43	0.591
536.64	0.584
536.85	0.589
537.05	0.593
537.26	0.580
537.47	0.583
537.67	0.577
537.88	0.574
538.09	0.578
538.30	0.572
538.50	0.566
538.71	0.573
538.92	0.565
539.12	0.562
539.33	0.560
539.54	0.560
539.74	0.563
539.95	0.558
540.16	0.556
540.36	0.551
540.57	0.551
540.78	0.547
540.98	0.546
541.19	0.545
541.40	0.538
541.60	0.544
541.81	0.541
542.02	0.540
542.22	0.534
542.43	0.531
542.64	0.528
542.84	0.529
543.05	0.523
543.26	0.523
543.46	0.524
543.67	0.523
543.88	0.520
544.08	0.514
544.29	0.511
544.50	0.512
544.70	0.512
544.91	0.507
545.12	0.508
545.32	0.505
545.53	0.507
545.74	0.499
545.94	0.498
546.15	0.497
546.35	0.494
546.56	0.491
546.77	0.489
546.97	0.488
547.18	0.482
547.39	0.483
547.59	0.481
547.80	0.479
548.01	0.482
548.21	0.479
548.42	0.474
548.62	0.474
548.83	0.472
549.04	0.470
549.24	0.464
549.45	0.464
549.65	0.461
549.86	0.458
550.07	0.458
550.27	0.458
550.48	0.463
550.69	0.453
550.89	0.454
551.10	0.451
551.30	0.450
551.51	0.450
551.72	0.443
551.92	0.445
552.13	0.445
552.33	0.446
552.54	0.442
552.75	0.437
552.95	0.438
553.16	0.435
553.36	0.433
553.57	0.433
553.78	0.432
553.98	0.432
554.19	0.426
554.39	0.423
554.60	0.425
554.80	0.426
555.01	0.420
555.22	0.422
555.42	0.419
555.63	0.415
555.83	0.418
556.04	0.413
556.25	0.415
556.45	0.409
556.66	0.408
556.86	0.411
557.07	0.409
557.27	0.409
557.48	0.405
557.68	0.403
557.89	0.404
558.10	0.401
558.30	0.399
558.51	0.397
558.71	0.396
558.92	0.393
559.12	0.395
559.33	0.397
559.54	0.393
559.74	0.390
559.95	0.389
560.15	0.389
560.36	0.388
560.56	0.384
560.77	0.384
560.97	0.384
561.18	0.381
561.38	0.380
561.59	0.382
561.79	0.379
562.00	0.378
562.21	0.375
562.41	0.375
562.62	0.374
562.82	0.373
563.03	0.371
563.23	0.370
563.44	0.370
563.64	0.368
563.85	0.369
564.05	0.364
564.26	0.364
564.46	0.364
564.67	0.364
564.87	0.361
565.08	0.358
565.28	0.358
565.49	0.359
565.69	0.357
565.90	0.354
566.10	0.357
566.31	0.352
566.51	0.353
566.72	0.354
566.92	0.349
567.13	0.349
567.33	0.349
567.54	0.348
567.74	0.347
567.95	0.344
568.15	0.345
568.36	0.345
568.56	0.344
568.77	0.340
568.97	0.339
569.18	0.339
569.38	0.337
569.59	0.338
569.79	0.337
570.00	0.335
570.20	0.334
570.41	0.333
570.61	0.332
570.82	0.333
571.02	0.330
571.23	0.332
571.43	0.328
571.64	0.328
571.84	0.327
572.05	0.326
572.25	0.325
572.45	0.324
572.66	0.322
572.86	0.322
573.07	0.320
573.27	0.321
573.48	0.321
573.68	0.317
573.89	0.317
574.09	0.318
574.30	0.316
574.50	0.315
574.70	0.316
574.91	0.314
575.11	0.314
575.32	0.314
575.52	0.310
575.73	0.310
575.93	0.309
576.14	0.309
576.34	0.308
576.54	0.307
576.75	0.305
576.95	0.304
577.16	0.303
577.36	0.302
577.57	0.302
577.77	0.301
577.97	0.298
578.18	0.300
578.38	0.297
578.59	0.296
578.79	0.295
579.00	0.296
579.20	0.295
579.40	0.295
579.61	0.294
579.81	0.294
580.02	0.292
580.22	0.292
580.42	0.291
580.63	0.292
580.83	0.290
581.04	0.288
581.24	0.288
581.45	0.287
581.65	0.286
581.85	0.285
582.06	0.283
582.26	0.284
582.47	0.282
582.67	0.282
582.87	0.282
583.08	0.280
583.28	0.281
583.48	0.279
583.69	0.276
583.89	0.277
584.10	0.278
584.30	0.276
584.50	0.275
584.71	0.275
584.91	0.274
585.12	0.272
585.32	0.274
585.52	0.271
585.73	0.270
585.93	0.270
586.13	0.270
586.34	0.269
586.54	0.268
586.75	0.267
586.95	0.266
587.15	0.267
587.36	0.266
587.56	0.265
587.76	0.264
587.97	0.264
588.17	0.262
588.37	0.262
588.58	0.262
588.78	0.260
588.98	0.261
589.19	0.259
589.39	0.257
589.60	0.260
589.80	0.257
590.00	0.257
590.21	0.257
590.41	0.256
590.61	0.256
590.82	0.256
591.02	0.255
591.22	0.254
591.43	0.255
591.63	0.253
591.83	0.253
592.04	0.251
592.24	0.252
592.44	0.249
592.65	0.248
592.85	0.248
593.05	0.248
593.26	0.247
593.46	0.247
593.66	0.247
593.86	0.246
594.07	0.245
594.27	0.245
594.47	0.244
594.68	0.244
594.88	0.244
595.08	0.243
595.29	0.244
595.49	0.242
595.69	0.242
595.90	0.241
596.10	0.242
596.30	0.241
596.50	0.240
596.71	0.240
596.91	0.239
597.11	0.239
597.32	0.239
597.52	0.238
597.72	0.238
597.93	0.237
598.13	0.236
598.33	0.236
598.53	0.235
598.74	0.234
598.94	0.234
599.14	0.233
599.35	0.233
599.55	0.233
599.75	0.233
599.95	0.231
600.16	0.232
600.36	0.230
600.56	0.231
600.76	0.230
600.97	0.229
601.17	0.229
601.37	0.229
601.58	0.228
601.78	0.228
601.98	0.227
602.18	0.226
602.39	0.226
602.59	0.226
602.79	0.225
602.99	0.226
603.20	0.224
603.40	0.225
603.60	0.225
603.80	0.224
604.01	0.224
604.21	0.224
604.41	0.223
604.61	0.222
604.82	0.221
605.02	0.222
605.22	0.221
605.42	0.220
605.62	0.220
605.83	0.219
606.03	0.218
606.23	0.218
606.43	0.218
606.64	0.217
606.84	0.217
607.04	0.217
607.24	0.217
607.45	0.217
607.65	0.216
607.85	0.217
608.05	0.215
608.25	0.215
608.46	0.214
608.66	0.214
608.86	0.214
609.06	0.213
609.26	0.212
609.47	0.213
609.67	0.212
609.87	0.213
610.07	0.212
610.28	0.210
610.48	0.211
610.68	0.211
610.88	0.210
611.08	0.211
611.29	0.210
611.49	0.209
611.69	0.210
611.89	0.208
612.09	0.207
612.29	0.207
612.50	0.206
612.70	0.206
612.90	0.205
613.10	0.205
613.30	0.205
613.51	0.205
613.71	0.204
613.91	0.208
614.11	0.202
614.31	0.203
614.51	0.203
614.72	0.202
614.92	0.202
615.12	0.202
615.32	0.202
615.52	0.202
615.72	0.202
615.93	0.202
616.13	0.201
616.33	0.202
616.53	0.201
616.73	0.201
616.93	0.200
617.14	0.201
617.34	0.201
617.54	0.200
617.74	0.200
617.94	0.199
618.14	0.199
618.34	0.198
618.55	0.197
618.75	0.198
618.95	0.197
619.15	0.197
619.35	0.196
619.55	0.195
619.75	0.196
619.96	0.195
620.16	0.195
620.36	0.195
620.56	0.195
620.76	0.195
620.96	0.194
621.16	0.194
621.36	0.194
621.57	0.194
621.77	0.194
621.97	0.193
622.17	0.193
622.37	0.193
622.57	0.194
622.77	0.193
622.97	0.192
623.18	0.192
623.38	0.192
623.58	0.192
623.78	0.191
623.98	0.191
624.18	0.190
624.38	0.190
624.58	0.190
624.78	0.190
624.98	0.189
625.19	0.189
625.39	0.189
625.59	0.189
625.79	0.189
625.99	0.188
626.19	0.188
626.39	0.188
626.59	0.188
626.79	0.188
626.99	0.188
627.19	0.188
627.40	0.188
627.60	0.187
627.80	0.187
628.00	0.187
628.20	0.186
628.40	0.186
628.60	0.186
628.80	0.185
629.00	0.185
629.20	0.185
629.40	0.185
629.60	0.184
629.80	0.184
630.00	0.184
630.20	0.184
630.41	0.183
630.61	0.183
630.81	0.183
631.01	0.183
631.21	0.182
631.41	0.182
631.61	0.183
631.81	0.182
632.01	0.182
632.21	0.182
632.41	0.181
632.61	0.181
632.81	0.181
633.01	0.181
633.21	0.180
633.41	0.181
633.61	0.180
633.81	0.179
634.01	0.179
634.21	0.179
634.41	0.178
634.61	0.178
634.81	0.178
635.01	0.178
635.22	0.178
635.42	0.177
635.62	0.177
635.82	0.177
636.02	0.177
636.22	0.176
636.42	0.176
636.62	0.176
636.82	0.176
637.02	0.175
637.22	0.175
637.42	0.175
637.62	0.174
637.82	0.174
638.02	0.173
638.22	0.173
638.42	0.173
638.62	0.172
638.82	0.172
639.02	0.172
639.22	0.172
639.42	0.171
639.62	0.171
639.82	0.171
640.02	0.171
640.22	0.170
640.42	0.171
640.62	0.171
640.82	0.170
641.02	0.170
641.22	0.170
641.42	0.169
641.61	0.169
641.81	0.170
642.01	0.170
642.21	0.170
642.41	0.170
642.61	0.169
642.81	0.168
643.01	0.168
643.21	0.168
643.41	0.168
643.61	0.168
643.81	0.167
644.01	0.166
644.21	0.165
644.41	0.165
644.61	0.165
644.81	0.165
645.01	0.165
645.21	0.164
645.41	0.164
645.61	0.164
645.81	0.164
646.01	0.163
646.21	0.164
646.40	0.164
646.60	0.164
646.80	0.164
647.00	0.163
647.20	0.163
647.40	0.163
647.60	0.163
647.80	0.162
648.00	0.162
648.20	0.162
648.40	0.162
648.60	0.161
648.80	0.161
649.00	0.161
649.20	0.161
649.39	0.160
649.59	0.159
649.79	0.160
649.99	0.160
650.19	0.159
650.39	0.159
650.59	0.159
650.79	0.159
650.99	0.159
651.19	0.158
651.39	0.158
651.58	0.158
651.78	0.157
651.98	0.157
652.18	0.157
652.38	0.156
652.58	0.156
652.78	0.155
652.98	0.155
653.18	0.156
653.38	0.156
653.57	0.156
653.77	0.156
653.97	0.155
654.17	0.155
654.37	0.155
654.57	0.155
654.77	0.155
654.97	0.155
655.16	0.154
655.36	0.154
655.56	0.154
655.76	0.153
655.96	0.153
656.16	0.152
656.36	0.152
656.56	0.151
656.75	0.152
656.95	0.151
657.15	0.151
657.35	0.150
657.55	0.150
657.75	0.150
657.95	0.150
658.14	0.149
658.34	0.150
658.54	0.149
658.74	0.149
658.94	0.148
659.14	0.148
659.34	0.148
659.53	0.147
659.73	0.147
659.93	0.146
660.13	0.146
660.33	0.146
660.53	0.146
660.72	0.147
660.92	0.146
661.12	0.146
661.32	0.146
661.52	0.146
661.72	0.145
661.91	0.145
662.11	0.145
662.31	0.144
662.51	0.144
662.71	0.144
662.90	0.143
663.10	0.143
663.30	0.143
663.50	0.143
663.70	0.142
663.90	0.142
664.09	0.142
664.29	0.141
664.49	0.141
664.69	0.141
664.89	0.141
665.08	0.141
665.28	0.140
665.48	0.140
665.68	0.139
665.88	0.139
666.07	0.139
666.27	0.139
666.47	0.139
666.67	0.139
666.87	0.139
667.06	0.138
667.26	0.138
667.46	0.138
667.66	0.138
667.85	0.138
668.05	0.138
668.25	0.138
668.45	0.137
668.65	0.137
668.84	0.137
669.04	0.137
669.24	0.136
669.44	0.136
669.63	0.136
669.83	0.135
670.03	0.135
670.23	0.134
670.42	0.134
670.62	0.133
670.82	0.133
671.02	0.133
671.22	0.132
671.41	0.132
671.61	0.132
671.81	0.132
672.01	0.132
672.20	0.132
672.40	0.131
672.60	0.131
672.80	0.131
672.99	0.131
673.19	0.130
673.39	0.130
673.58	0.130
673.78	0.130
673.98	0.130
674.18	0.130
674.37	0.129
674.57	0.129
674.77	0.129
674.97	0.129
675.16	0.129
675.36	0.128
675.56	0.128
675.75	0.127
675.95	0.127
676.15	0.127
676.35	0.127
676.54	0.126
676.74	0.126
676.94	0.126
677.13	0.126
677.33	0.126
677.53	0.126
677.73	0.126
677.92	0.125
678.12	0.125
678.32	0.124
678.51	0.125
678.71	0.125
678.91	0.124
679.11	0.124
679.30	0.124
679.50	0.123
679.70	0.123
679.89	0.123
680.09	0.123
680.29	0.122
680.48	0.122
680.68	0.122
680.88	0.121
681.07	0.121
681.27	0.121
681.47	0.120
681.66	0.121
681.86	0.120
682.06	0.120
682.25	0.120
682.45	0.120
682.65	0.120
682.84	0.119
683.04	0.119
683.24	0.119
683.43	0.119
683.63	0.119
683.83	0.119
684.02	0.118
684.22	0.118
684.42	0.117
684.61	0.118
684.81	0.118
685.01	0.118
685.20	0.117
685.40	0.117
685.60	0.117
685.79	0.117
685.99	0.117
686.19	0.117
686.38	0.117
686.58	0.117
686.77	0.117
686.97	0.116
687.17	0.116
687.36	0.116
687.56	0.115
687.76	0.114
687.95	0.114
688.15	0.114
688.34	0.114
688.54	0.113
688.74	0.112
688.93	0.112
689.13	0.112
689.33	0.112
689.52	0.112
689.72	0.112
689.91	0.112
690.11	0.111
690.31	0.111
690.50	0.112
690.70	0.112
690.89	0.111
691.09	0.111
691.29	0.111
691.48	0.111
691.68	0.110
691.87	0.110
692.07	0.111
692.27	0.110
692.46	0.110
692.66	0.110
692.85	0.110
693.05	0.110
693.25	0.110
693.44	0.109
693.64	0.109
693.83	0.109
694.03	0.108
694.22	0.107
694.42	0.108
694.62	0.108
694.81	0.108
695.01	0.108
695.20	0.108
695.40	0.107
695.59	0.107
695.79	0.107
695.99	0.107
696.18	0.107
696.38	0.107
696.57	0.107
696.77	0.106
696.96	0.106
697.16	0.106
697.36	0.105
697.55	0.105
697.75	0.105
697.94	0.104
698.14	0.105
698.33	0.104
698.53	0.104
698.72	0.104
698.92	0.104
699.11	0.104
699.31	0.104
699.51	0.104
699.70	0.104
699.90	0.103
700.09	0.104
700.29	0.103
700.48	0.103
700.68	0.103
700.87	0.103
701.07	0.102
701.26	0.102
701.46	0.102
701.65	0.102
701.85	0.101
702.04	0.101
702.24	0.101
702.43	0.101
702.63	0.101
702.82	0.101
703.02	0.100
703.21	0.100
703.41	0.100
703.60	0.100
703.80	0.100
703.99	0.100
704.19	0.100
704.38	0.100
704.58	0.099
704.77	0.099
704.97	0.099
705.16	0.099
705.36	0.099
705.55	0.099
705.75	0.099
705.94	0.099
706.14	0.099
706.33	0.098
706.53	0.098
706.72	0.099
706.92	0.098
707.11	0.098
707.31	0.098
707.50	0.098
707.70	0.098
707.89	0.098
708.09	0.098
708.28	0.098
708.48	0.098
708.67	0.098
708.86	0.098
709.06	0.097
709.25	0.097
709.45	0.097
709.64	0.097
709.84	0.097
710.03	0.097
710.23	0.097
710.42	0.096
710.62	0.096
710.81	0.096
711.00	0.096
711.20	0.096
711.39	0.096
711.59	0.096
711.78	0.096
711.98	0.096
712.17	0.095
712.37	0.095
712.56	0.095
712.75	0.095
712.95	0.095
713.14	0.095
713.34	0.095
713.53	0.095
713.73	0.095
713.92	0.095
714.11	0.095
714.31	0.095
714.50	0.095
714.70	0.095
714.89	0.095
715.08	0.095
715.28	0.095
715.47	0.094
715.67	0.094
715.86	0.094
716.06	0.094
716.25	0.094
716.44	0.094
716.64	0.093
716.83	0.093
717.03	0.093
717.22	0.092
717.41	0.092
717.61	0.092
717.80	0.093
717.99	0.093
718.19	0.093
718.38	0.093
718.58	0.092
718.77	0.092
718.96	0.092
719.16	0.092
719.35	0.092
719.55	0.091
719.74	0.091
719.93	0.091
720.13	0.090
720.32	0.090
720.51	0.090
720.71	0.090
720.90	0.090
721.10	0.090
721.29	0.090
721.48	0.090
721.68	0.090
721.87	0.090
722.06	0.090
722.26	0.090
722.45	0.090
722.64	0.090
722.84	0.090
723.03	0.090
723.22	0.091
723.42	0.091
723.61	0.091
723.80	0.091
724.00	0.091
724.19	0.091
724.38	0.091
724.58	0.091
724.77	0.091
724.96	0.091
725.16	0.091
725.35	0.090
725.54	0.091
725.74	0.091
725.93	0.090
726.12	0.090
726.32	0.090
726.51	0.090
726.70	0.090
726.90	0.090
727.09	0.089
727.28	0.089
727.48	0.089
727.67	0.089
727.86	0.089
728.06	0.089
728.25	0.089
728.44	0.089
728.64	0.089
728.83	0.089
729.02	0.089
729.21	0.089
729.41	0.089
729.60	0.089
729.79	0.089
729.99	0.089
730.18	0.089
730.37	0.089
730.56	0.089
730.76	0.089
730.95	0.089
731.14	0.088
731.34	0.088
731.53	0.089
731.72	0.088
731.91	0.088
732.11	0.088
732.30	0.089
732.49	0.089
732.69	0.089
732.88	0.089
733.07	0.089
733.26	0.089
733.46	0.089
733.65	0.089
733.84	0.089
734.03	0.089
734.23	0.089
734.42	0.089
734.61	0.088
734.80	0.088
735.00	0.088
735.19	0.088
735.38	0.088
735.57	0.088
735.77	0.088
735.96	0.088
736.15	0.088
736.34	0.088
736.54	0.089
736.73	0.089
736.92	0.089
737.11	0.089
737.31	0.089
737.50	0.089
737.69	0.089
737.88	0.089
738.07	0.089
738.27	0.089
738.46	0.089
738.65	0.088
738.84	0.088
739.04	0.088
739.23	0.088
739.42	0.088
739.61	0.088
739.80	0.088
740.00	0.088
740.19	0.088
740.38	0.088
740.57	0.088
740.76	0.088
740.96	0.088
741.15	0.088
741.34	0.088
741.53	0.088
741.72	0.088
741.92	0.087
742.11	0.087
742.30	0.087
742.49	0.086
742.68	0.086
742.88	0.086
743.07	0.086
743.26	0.086
743.45	0.086
743.64	0.085
743.84	0.085
744.03	0.085
744.22	0.085
744.41	0.085
744.60	0.085
744.79	0.085
744.99	0.085
745.18	0.085
745.37	0.085
745.56	0.085
745.75	0.085
745.94	0.085
746.14	0.085
746.33	0.085
746.52	0.085
746.71	0.085
746.90	0.085
747.09	0.085
747.28	0.085
747.48	0.085
747.67	0.085
747.86	0.085
748.05	0.085
748.24	0.084
748.43	0.084
748.62	0.084
748.82	0.084
749.01	0.084
749.20	0.084
749.39	0.083
749.58	0.084
749.77	0.083
749.96	0.083
750.16	0.083
750.35	0.083
750.54	0.083
750.73	0.083
750.92	0.083
751.11	0.083
751.30	0.083
751.49	0.083
751.68	0.082
751.88	0.083
752.07	0.082
752.26	0.082
752.45	0.082
752.64	0.082
752.83	0.082
753.02	0.083
753.21	0.082
753.40	0.082
753.60	0.082
753.79	0.082
753.98	0.082
754.17	0.082
754.36	0.082
754.55	0.082
754.74	0.082
754.93	0.082
755.12	0.082
755.31	0.082
755.50	0.081
755.70	0.081
755.89	0.081
756.08	0.081
756.27	0.080
756.46	0.081
756.65	0.080
756.84	0.080
757.03	0.080
757.22	0.079
757.41	0.079
757.60	0.079
757.79	0.080
757.98	0.080
758.17	0.080
758.36	0.080
758.56	0.080
758.75	0.080
758.94	0.080
759.13	0.080
759.32	0.080
759.51	0.080
759.70	0.080
759.89	0.079
760.08	0.079
760.27	0.079
760.46	0.080
760.65	0.080
760.84	0.079
761.03	0.079
761.22	0.079
761.41	0.079
761.60	0.079
761.79	0.079
761.98	0.079
762.17	0.079
762.36	0.079
762.55	0.078
762.74	0.078
762.93	0.078
763.12	0.078
763.31	0.078
763.50	0.078
763.69	0.078
763.88	0.078
764.07	0.078
764.26	0.077
764.45	0.077
764.64	0.078
764.83	0.077
765.02	0.078
765.21	0.077
765.40	0.077
765.59	0.077
765.78	0.077
765.97	0.078
766.16	0.078
766.35	0.078
766.54	0.078
766.73	0.078
766.92	0.078
767.11	0.078
767.30	0.078
767.49	0.078
767.68	0.078
767.87	0.078
768.06	0.078
768.25	0.078
768.44	0.078
768.63	0.077
768.82	0.077
769.01	0.077
769.20	0.076
769.39	0.077
769.58	0.077
769.77	0.077
769.96	0.077
770.15	0.077
770.34	0.077
770.53	0.076
770.72	0.076
770.91	0.076
771.10	0.076
771.29	0.076
771.47	0.075
771.66	0.075
771.85	0.075
772.04	0.075
772.23	0.075
772.42	0.075
772.61	0.075
772.80	0.076
772.99	0.076
773.18	0.076
773.37	0.076
773.56	0.076
773.75	0.077
773.94	0.077
774.13	0.076
774.31	0.076
774.50	0.076
774.69	0.076
774.88	0.075
775.07	0.075
775.26	0.075
775.45	0.074
775.64	0.074
775.83	0.074
776.02	0.074
776.21	0.074
776.40	0.074
776.58	0.074
776.77	0.074
776.96	0.074
777.15	0.074
777.34	0.074
777.53	0.074
777.72	0.074
777.91	0.074
778.10	0.074
778.28	0.074
778.47	0.074
778.66	0.074
778.85	0.074
779.04	0.074
779.23	0.074
779.42	0.074
779.61	0.074
779.79	0.073
779.98	0.073
780.17	0.073
780.36	0.073
780.55	0.073
780.74	0.073
780.93	0.073
781.12	0.073
781.30	0.073
781.49	0.073
781.68	0.072
781.87	0.073
782.06	0.072
782.25	0.072
782.44	0.073
782.62	0.073
782.81	0.073
783.00	0.073
783.19	0.073
783.38	0.073
783.57	0.073
783.75	0.072
783.94	0.072
784.13	0.073
784.32	0.072
784.51	0.072
784.70	0.072
784.88	0.071
785.07	0.071
785.26	0.071
785.45	0.071
785.64	0.071
785.83	0.071
786.01	0.071
786.20	0.071
786.39	0.071
786.58	0.071
786.77	0.070
786.95	0.071
787.14	0.071
787.33	0.071
787.52	0.071
787.71	0.071
787.90	0.071
788.08	0.071
788.27	0.071
788.46	0.071
788.65	0.071
788.84	0.071
789.02	0.071
789.21	0.071
789.40	0.071
789.59	0.071
789.77	0.071
789.96	0.070
790.15	0.071
790.34	0.071
790.53	0.071
790.71	0.071
790.90	0.071
791.09	0.070
791.28	0.071
791.46	0.071
791.65	0.071
791.84	0.071
792.03	0.071
792.22	0.071
792.40	0.071
792.59	0.071
792.78	0.071
792.97	0.071
793.15	0.070
793.34	0.070
793.53	0.070
793.72	0.070
793.90	0.069
794.09	0.069
794.28	0.069
794.47	0.069
794.65	0.069
794.84	0.069
795.03	0.069
795.22	0.069
795.40	0.069
795.59	0.069
795.78	0.069
795.97	0.070
796.15	0.070
796.34	0.070
796.53	0.070
796.71	0.070
796.90	0.070
797.09	0.070
797.28	0.070
797.46	0.069
797.65	0.070
797.84	0.069
798.02	0.069
798.21	0.069
798.40	0.069
798.59	0.069
798.77	0.069
798.96	0.069
799.15	0.068
799.33	0.069
799.52	0.069
799.71	0.069
799.90	0.069
800.08	0.069
800.27	0.069
800.46	0.069
800.64	0.069
800.83	0.069
801.02	0.069
801.20	0.069
801.39	0.069
801.58	0.069
801.76	0.068
801.95	0.068
802.14	0.068
802.32	0.068
802.51	0.069
802.70	0.069
802.88	0.068
803.07	0.069
803.26	0.068
803.44	0.068
803.63	0.068
803.82	0.068
804.00	0.068
804.19	0.068
804.38	0.068
804.56	0.068
804.75	0.068
804.94	0.068
805.12	0.068
805.31	0.068
805.50	0.068
805.68	0.068
805.87	0.068
806.06	0.068
806.24	0.068
806.43	0.068
806.62	0.068
806.80	0.068
806.99	0.068
807.17	0.068
807.36	0.068
807.55	0.068
807.73	0.068
807.92	0.068
808.11	0.068
808.29	0.067
808.48	0.067
808.66	0.068
808.85	0.067
809.04	0.067
809.22	0.067
809.41	0.067
809.59	0.067
809.78	0.067
809.97	0.067
810.15	0.067
810.34	0.067
810.53	0.067
810.71	0.067
810.90	0.067
811.08	0.067
811.27	0.067
811.45	0.067
811.64	0.067
811.83	0.066
812.01	0.067
812.20	0.066
812.38	0.067
812.57	0.067
812.76	0.067
812.94	0.067
813.13	0.067
813.31	0.067
813.50	0.067
813.68	0.067
813.87	0.067
814.06	0.067
814.24	0.067
814.43	0.067
814.61	0.067
814.80	0.067
814.98	0.067
815.17	0.067
815.36	0.067
815.54	0.067
815.73	0.066
815.91	0.066
816.10	0.067
816.28	0.067
816.47	0.066
816.65	0.066
816.84	0.067
817.03	0.067
817.21	0.067
817.40	0.067
817.58	0.067
817.77	0.067
817.95	0.067
818.14	0.067
818.32	0.067
818.51	0.067
818.69	0.067
818.88	0.067
819.06	0.066
819.25	0.066
819.43	0.066
819.62	0.066
819.80	0.066
819.99	0.066
820.18	0.066
820.36	0.066
820.55	0.066
820.73	0.066
820.92	0.066
821.10	0.066
821.29	0.066
821.47	0.067
821.66	0.067
821.84	0.067
822.03	0.067
822.21	0.068
822.40	0.067
822.58	0.067
822.77	0.067
822.95	0.067
823.14	0.067
823.32	0.067
823.50	0.067
823.69	0.067
823.87	0.067
824.06	0.067
824.24	0.067
824.43	0.067
824.61	0.067
824.80	0.068
824.98	0.068
825.17	0.068
825.35	0.068
825.54	0.068
825.72	0.068
825.91	0.068
826.09	0.068
826.28	0.068
826.46	0.069
826.64	0.069
826.83	0.069
827.01	0.069
827.20	0.069
827.38	0.069
827.57	0.069
827.75	0.069
827.94	0.069
828.12	0.069
828.31	0.069
828.49	0.069
828.67	0.070
828.86	0.069
829.04	0.069
829.23	0.069
829.41	0.070
829.60	0.070
829.78	0.070
829.96	0.071
830.15	0.071
830.33	0.071
830.52	0.071
830.70	0.071
830.88	0.071
831.07	0.071
831.25	0.071
831.44	0.071
831.62	0.071
831.81	0.071
831.99	0.071
832.17	0.071
832.36	0.071
832.54	0.071
832.73	0.071
832.91	0.071
833.09	0.071
833.28	0.071
833.46	0.072
833.65	0.072
833.83	0.072
834.01	0.072
834.20	0.072
834.38	0.072
834.56	0.072
834.75	0.073
834.93	0.073
835.12	0.073
835.30	0.073
835.48	0.073
835.67	0.073
835.85	0.073
836.03	0.073
836.22	0.072
836.40	0.073
836.59	0.073
836.77	0.073
836.95	0.073
837.14	0.073
837.32	0.073
837.50	0.073
837.69	0.073
837.87	0.073
838.05	0.073
838.24	0.073
838.42	0.073
838.60	0.073
838.79	0.073
838.97	0.073
839.15	0.073
839.34	0.073
839.52	0.073
839.70	0.073
839.89	0.073
840.07	0.073
840.25	0.073
840.44	0.073
840.62	0.073
840.80	0.073
840.99	0.073
841.17	0.073
841.35	0.073
841.54	0.073
841.72	0.073
841.90	0.073
842.09	0.073
842.27	0.074
842.45	0.074
842.64	0.074
842.82	0.074
843.00	0.074
843.19	0.074
843.37	0.074
843.55	0.074
843.73	0.074
843.92	0.074
844.10	0.074
844.28	0.074
844.47	0.074
844.65	0.074
844.83	0.074
845.01	0.074
845.20	0.074
845.38	0.074
845.56	0.074
845.75	0.074
845.93	0.074
846.11	0.073
846.29	0.074
846.48	0.074
846.66	0.074
846.84	0.073
847.02	0.073
847.21	0.073
847.39	0.073
847.57	0.074
847.76	0.074
847.94	0.074
848.12	0.075
848.30	0.075
848.49	0.075
848.67	0.075
848.85	0.075
849.03	0.075
849.22	0.075
849.40	0.076
849.58	0.075
849.76	0.075
849.95	0.075
850.13	0.075
850.31	0.075
850.49	0.075
850.67	0.076
850.86	0.075
851.04	0.075
851.22	0.075
851.40	0.075
851.59	0.075
851.77	0.075
851.95	0.075
852.13	0.075
852.31	0.075
852.50	0.075
852.68	0.075
852.86	0.075
853.04	0.075
853.23	0.075
853.41	0.075
853.59	0.075
853.77	0.075
853.95	0.075
854.14	0.075
854.32	0.075
854.50	0.075
854.68	0.074
854.86	0.074
855.04	0.075
855.23	0.075
855.41	0.075
855.59	0.075
855.77	0.075
855.95	0.075
856.14	0.076
856.32	0.075
856.50	0.076
856.68	0.076
856.86	0.076
857.04	0.075
857.23	0.075
857.41	0.075
857.59	0.075
857.77	0.075
857.95	0.075
858.13	0.075
858.32	0.075
858.50	0.075
858.68	0.074
858.86	0.075
859.04	0.075
859.22	0.075
859.41	0.075
859.59	0.075
859.77	0.075
859.95	0.075
860.13	0.075
860.31	0.075
860.49	0.075
860.68	0.075
860.86	0.075
861.04	0.075
861.22	0.075
861.40	0.075
861.58	0.075
861.76	0.075
861.94	0.075
862.13	0.075
862.31	0.075
862.49	0.076
862.67	0.075
862.85	0.076
863.03	0.075
863.21	0.076
863.39	0.076
863.57	0.076
863.76	0.076
863.94	0.076
864.12	0.076
864.30	0.076
864.48	0.076
864.66	0.076
864.84	0.076
865.02	0.076
865.20	0.076
865.38	0.076
865.57	0.077
865.75	0.077
865.93	0.077
866.11	0.077
866.29	0.077
866.47	0.077
866.65	0.077
866.83	0.078
867.01	0.077
867.19	0.077
867.37	0.077
867.55	0.077
867.73	0.077
867.92	0.077
868.10	0.077
868.28	0.077
868.46	0.077
868.64	0.077
868.82	0.077
869.00	0.077
869.18	0.077
869.36	0.077
869.54	0.077
869.72	0.077
869.90	0.077
870.08	0.077
870.26	0.077
870.44	0.077
870.62	0.077
870.80	0.077
870.98	0.077
871.16	0.077
871.34	0.077
871.53	0.077
871.71	0.077
871.89	0.077
872.07	0.078
872.25	0.077
872.43	0.077
872.61	0.078
872.79	0.078
872.97	0.078
873.15	0.078
873.33	0.079
873.51	0.079
873.69	0.079
873.87	0.079
874.05	0.078
874.23	0.078
874.41	0.078
874.59	0.079
874.77	0.078
874.95	0.078
875.13	0.078
875.31	0.078
875.49	0.078
875.67	0.078
875.85	0.078
876.03	0.078
876.21	0.079
876.39	0.079
876.57	0.079
876.75	0.079
876.93	0.079
877.11	0.079
877.29	0.079
877.47	0.079
877.65	0.079
877.82	0.079
878.00	0.079
878.18	0.079
878.36	0.079
878.54	0.079
878.72	0.079
878.90	0.080
879.08	0.080
879.26	0.080
879.44	0.080
879.62	0.080
879.80	0.080
879.98	0.080
880.16	0.080
880.34	0.079
880.52	0.080
880.70	0.079
880.88	0.079
881.06	0.079
881.24	0.079
881.42	0.079
881.59	0.079
881.77	0.079
881.95	0.079
882.13	0.079
882.31	0.079
882.49	0.079
882.67	0.079
882.85	0.079
883.03	0.079
883.21	0.079
883.39	0.079
883.57	0.080
883.75	0.080
883.92	0.080
884.10	0.080
884.28	0.080
884.46	0.080
884.64	0.080
884.82	0.080
885.00	0.080
885.18	0.080
885.36	0.080
885.54	0.080
885.71	0.080
885.89	0.081
886.07	0.081
886.25	0.081
886.43	0.081
886.61	0.081
886.79	0.081
886.97	0.081
887.15	0.081
887.32	0.081
887.50	0.082
887.68	0.081
887.86	0.081
888.04	0.081
888.22	0.081
888.40	0.081
888.57	0.081
888.75	0.081
888.93	0.081
889.11	0.081
889.29	0.082
889.47	0.082
889.65	0.082
889.82	0.082
890.00	0.082
890.18	0.082
890.36	0.082
890.54	0.083
890.72	0.082
890.90	0.082
891.07	0.082
891.25	0.082
891.43	0.081
891.61	0.082
891.79	0.082
891.97	0.082
892.14	0.081
892.32	0.082
892.50	0.081
892.68	0.082
892.86	0.082
893.03	0.082
893.21	0.082
893.39	0.082
893.57	0.082
893.75	0.082
893.93	0.082
894.10	0.082
894.28	0.082
894.46	0.082
894.64	0.082
894.82	0.082
894.99	0.082
895.17	0.082
895.35	0.082
895.53	0.082
895.71	0.082
895.88	0.082
896.06	0.082
896.24	0.083
896.42	0.083
896.59	0.082
896.77	0.083
896.95	0.083
897.13	0.083
897.31	0.083
897.48	0.083
897.66	0.083
897.84	0.083
898.02	0.083
898.19	0.083
898.37	0.083
898.55	0.084
898.73	0.084
898.91	0.084
899.08	0.084
899.26	0.083
899.44	0.084
899.62	0.084
899.79	0.084
899.97	0.084
900.15	0.083
900.33	0.083
900.50	0.083
900.68	0.083
900.86	0.083
901.04	0.083
901.21	0.083
901.39	0.084
901.57	0.084
901.74	0.084
901.92	0.084
902.10	0.084
902.28	0.084
902.45	0.084
902.63	0.085
902.81	0.085
902.99	0.085
903.16	0.085
903.34	0.085
903.52	0.085
903.69	0.085
903.87	0.085
904.05	0.086
904.22	0.086
904.40	0.086
904.58	0.086
904.76	0.086
904.93	0.086
905.11	0.086
905.29	0.086
905.46	0.086
905.64	0.086
905.82	0.086
905.99	0.086
906.17	0.086
906.35	0.086
906.53	0.086
906.70	0.086
906.88	0.086
907.06	0.086
907.23	0.086
907.41	0.087
907.59	0.087
907.76	0.087
907.94	0.087
908.12	0.087
908.29	0.087
908.47	0.088
908.65	0.088
908.82	0.088
909.00	0.088
909.18	0.088
909.35	0.088
909.53	0.087
909.71	0.087
909.88	0.087
910.06	0.088
910.23	0.088
910.41	0.088
910.59	0.087
910.76	0.087
910.94	0.088
911.12	0.087
911.29	0.088
911.47	0.088
911.65	0.088
911.82	0.088
912.00	0.088
912.17	0.088
912.35	0.089
912.53	0.089
912.70	0.089
912.88	0.089
913.06	0.090
913.23	0.090
913.41	0.090
913.58	0.090
913.76	0.090
913.94	0.090
914.11	0.090
914.29	0.090
914.46	0.090
914.64	0.090
914.82	0.090
914.99	0.090
915.17	0.090
915.34	0.090
915.52	0.090
915.70	0.090
915.87	0.090
916.05	0.090
916.22	0.090
916.40	0.090
916.57	0.091
916.75	0.091
916.93	0.091
917.10	0.091
917.28	0.091
917.45	0.091
917.63	0.091
917.80	0.091
917.98	0.092
918.16	0.092
918.33	0.093
918.51	0.093
918.68	0.093
918.86	0.093
919.03	0.093
919.21	0.093
919.39	0.094
919.56	0.094
919.74	0.094
919.91	0.094
920.09	0.094
920.26	0.094
920.44	0.095
920.61	0.095
920.79	0.095
920.96	0.095
921.14	0.096
921.31	0.096
921.49	0.096
921.67	0.096
921.84	0.096
922.02	0.096
922.19	0.097
922.37	0.097
922.54	0.097
922.72	0.097
922.89	0.098
923.07	0.098
923.24	0.098
923.42	0.098
923.59	0.099
923.77	0.099
923.94	0.099
924.12	0.100
924.29	0.100
924.47	0.100
924.64	0.101
924.82	0.101
924.99	0.101
925.17	0.102
925.34	0.102
925.52	0.102
925.69	0.102
925.87	0.102
926.04	0.102
926.22	0.103
926.39	0.103
926.57	0.103
926.74	0.103
926.91	0.104
927.09	0.104
927.26	0.104
927.44	0.104
927.61	0.104
927.79	0.105
927.96	0.105
928.14	0.106
928.31	0.106
928.49	0.106
928.66	0.107
928.84	0.108
929.01	0.108
929.18	0.109
929.36	0.109
929.53	0.110
929.71	0.110
929.88	0.111
930.06	0.111
930.23	0.111
930.41	0.112
930.58	0.112
930.75	0.112
930.93	0.113
931.10	0.112
931.28	0.113
931.45	0.114
931.63	0.114
931.80	0.114
931.97	0.115
932.15	0.116
932.32	0.116
932.50	0.116
932.67	0.117
932.84	0.117
933.02	0.119
933.19	0.118
933.37	0.119
933.54	0.120
933.71	0.120
933.89	0.121
934.06	0.121
934.24	0.122
934.41	0.122
934.58	0.123
934.76	0.123
934.93	0.123
935.11	0.123
935.28	0.123
935.45	0.124
935.63	0.124
935.80	0.125
935.98	0.125
936.15	0.125
936.32	0.126
936.50	0.126
936.67	0.127
936.84	0.127
937.02	0.128
937.19	0.129
937.36	0.130
937.54	0.130
937.71	0.131
937.89	0.131
938.06	0.132
938.23	0.133
938.41	0.133
938.58	0.134
938.75	0.134
938.93	0.134
939.10	0.134
939.27	0.134
939.45	0.135
939.62	0.136
939.79	0.136
939.97	0.136
940.14	0.137
940.31	0.138
940.49	0.138
940.66	0.139
940.83	0.140
941.01	0.141
941.18	0.141
941.35	0.142
941.53	0.142
941.70	0.143
941.87	0.144
942.05	0.144
942.22	0.145
942.39	0.146
942.57	0.146
942.74	0.147
942.91	0.147
943.08	0.148
943.26	0.148
943.43	0.149
943.60	0.150
943.78	0.151
943.95	0.152
944.12	0.152
944.29	0.153
944.47	0.154
944.64	0.154
944.81	0.155
944.99	0.156
945.16	0.156
945.33	0.157
945.50	0.158
945.68	0.159
945.85	0.159
946.02	0.161
946.20	0.162
946.37	0.163
946.54	0.163
946.71	0.164
946.89	0.165
947.06	0.166
947.23	0.166
947.40	0.167
947.58	0.168
947.75	0.169
947.92	0.169
948.09	0.170
948.27	0.171
948.44	0.173
948.61	0.174
948.78	0.175
948.96	0.177
949.13	0.177
949.30	0.178
949.47	0.179
949.65	0.180
949.82	0.182
949.99	0.182
950.16	0.184
950.33	0.185
950.51	0.186
950.68	0.188
950.85	0.189
951.02	0.190
951.20	0.191
951.37	0.192
951.54	0.193
951.71	0.194
951.88	0.196
952.06	0.197
952.23	0.197
952.40	0.198
952.57	0.199
952.74	0.200
952.92	0.201
953.09	0.203
953.26	0.205
953.43	0.206
953.60	0.207
953.77	0.208
953.95	0.209
954.12	0.211
954.29	0.211
954.46	0.214
954.63	0.215
954.81	0.216
954.98	0.216
955.15	0.218
955.32	0.219
955.49	0.219
955.66	0.220
955.84	0.221
956.01	0.222
956.18	0.224
956.35	0.225
956.52	0.225
956.69	0.227
956.87	0.228
957.04	0.229
957.21	0.231
957.38	0.232
957.55	0.233
957.72	0.234
957.89	0.235
958.07	0.235
958.24	0.237
958.41	0.238
958.58	0.238
958.75	0.239
958.92	0.240
959.09	0.240
959.26	0.241
959.44	0.242
959.61	0.243
959.78	0.244
959.95	0.246
960.12	0.246
960.29	0.248
960.46	0.247
960.63	0.248
960.81	0.249
960.98	0.249
961.15	0.249
961.32	0.250
961.49	0.249
961.66	0.250
961.83	0.251
962.00	0.251
962.17	0.252
962.34	0.251
962.52	0.252
962.69	0.253
962.86	0.253
963.03	0.254
963.20	0.255
963.37	0.254
963.54	0.255
963.71	0.254
963.88	0.254
964.05	0.255
964.22	0.256
964.39	0.255
964.56	0.256
964.74	0.256
964.91	0.256
965.08	0.256
965.25	0.257
965.42	0.257
965.59	0.258
965.76	0.258
965.93	0.259
966.10	0.257
966.27	0.258
966.44	0.257
966.61	0.259
966.78	0.259
966.95	0.258
967.12	0.259
967.29	0.261
967.46	0.260
967.63	0.260
967.80	0.261
967.97	0.261
968.14	0.261
968.32	0.261
968.49	0.261
968.66	0.260
968.83	0.261
969.00	0.261
969.17	0.261
969.34	0.262
969.51	0.263
969.68	0.261
969.85	0.262
970.02	0.262
970.19	0.262
970.36	0.262
970.53	0.262
970.70	0.261
970.87	0.261
971.04	0.260
971.21	0.262
971.38	0.262
971.55	0.263
971.72	0.263
971.89	0.264
972.06	0.262
972.23	0.262
972.40	0.263
972.57	0.262
972.74	0.262
972.91	0.263
973.07	0.263
973.24	0.262
973.41	0.262
973.58	0.260
973.75	0.273
973.92	0.262
974.09	0.261
974.26	0.261
974.43	0.260
974.60	0.261
974.77	0.262
974.94	0.261
975.11	0.262
975.28	0.264
975.45	0.262
975.62	0.262
975.79	0.264
975.96	0.262
976.13	0.261
976.30	0.262
976.47	0.261
976.64	0.261
976.80	0.262
976.97	0.262
977.14	0.261
977.31	0.261
977.48	0.262
977.65	0.261
977.82	0.260
977.99	0.262
978.16	0.262
978.33	0.262
978.50	0.261
978.67	0.261
978.83	0.261
979.00	0.261
979.17	0.261
979.34	0.260
979.51	0.260
979.68	0.260
979.85	0.259
980.02	0.260
980.19	0.258
980.36	0.259
980.52	0.260
980.69	0.257
980.86	0.257
981.03	0.257
981.20	0.256
981.37	0.257
981.54	0.257
981.71	0.256
981.88	0.256
982.04	0.256
982.21	0.255
982.38	0.257
982.55	0.256
982.72	0.255
982.89	0.257
983.06	0.255
983.22	0.254
983.39	0.254
983.56	0.254
983.73	0.253
983.90	0.253
984.07	0.255
984.24	0.253
984.40	0.253
984.57	0.251
984.74	0.254
984.91	0.255
985.08	0.253
985.25	0.251
985.41	0.252
985.58	0.252
985.75	0.253
985.92	0.252
986.09	0.250
986.26	0.250
986.42	0.250
986.59	0.248
986.76	0.250
986.93	0.250
987.10	0.250
987.27	0.247
987.43	0.245
987.60	0.247
987.77	0.247
987.94	0.246
988.11	0.247
988.27	0.246
988.44	0.246
988.61	0.244
988.78	0.244
988.95	0.245
989.11	0.246
989.28	0.244
989.45	0.243
989.62	0.243
989.79	0.243
989.95	0.242
990.12	0.243
990.29	0.244
990.46	0.242
990.62	0.240
990.79	0.239
990.96	0.240
991.13	0.240
991.30	0.239
991.46	0.238
991.63	0.237
991.80	0.237
991.97	0.237
992.13	0.237
992.30	0.237
992.47	0.236
992.64	0.236
992.80	0.237
992.97	0.237
993.14	0.235
993.31	0.232
993.47	0.234
993.64	0.232
993.81	0.232
993.98	0.232
994.14	0.231
994.31	0.230
994.48	0.231
994.64	0.231
994.81	0.229
994.98	0.229
995.15	0.228
995.31	0.228
995.48	0.228
995.65	0.229
995.82	0.226
995.98	0.225
996.15	0.227
996.32	0.229
996.48	0.227
996.65	0.227
996.82	0.225
996.99	0.225
997.15	0.224
997.32	0.226
997.49	0.225
997.65	0.226
997.82	0.226
997.99	0.224
998.15	0.223
998.32	0.225
998.49	0.224
998.65	0.224
998.82	0.223
998.99	0.221
999.15	0.221
999.32	0.220
999.49	0.219
999.65	0.219
999.82	0.217
999.99	0.218
1000.15	0.218
1000.32	0.218
1000.49	0.218
1000.65	0.216
1000.82	0.216
1000.99	0.216
1001.15	0.216
1001.32	0.215
1001.49	0.216
1001.65	0.216
1001.82	0.218
1001.99	0.215
1002.15	0.213
1002.32	0.213
1002.49	0.214
1002.65	0.213
1002.82	0.211
1002.99	0.210
1003.15	0.212
1003.32	0.210
1003.48	0.211
1003.65	0.210
1003.82	0.209
1003.98	0.207
1004.15	0.207
1004.32	0.207
1004.48	0.206
1004.65	0.208
1004.81	0.206
1004.98	0.205
1005.15	0.206
1005.31	0.206
1005.48	0.204
1005.64	0.204
1005.81	0.207
1005.98	0.204
1006.14	0.203
1006.31	0.204
1006.47	0.203
1006.64	0.202
1006.81	0.201
1006.97	0.201
1007.14	0.201
1007.30	0.202
1007.47	0.202
1007.63	0.199
1007.80	0.198
1007.97	0.198
1008.13	0.199
1008.30	0.198
1008.46	0.198
1008.63	0.197
1008.79	0.197
1008.96	0.196
1009.13	0.197
1009.29	0.195
1009.46	0.195
1009.62	0.195
1009.79	0.193
1009.95	0.192
1010.12	0.193
1010.28	0.193
1010.45	0.192
1010.62	0.191
1010.78	0.190
1010.95	0.189
1011.11	0.189
1011.28	0.188
1011.44	0.190
1011.61	0.188
1011.77	0.187
1011.94	0.187
1012.10	0.187
1012.27	0.187
1012.43	0.187
1012.60	0.185
1012.76	0.185
1012.93	0.184
1013.10	0.183
1013.26	0.180
1013.43	0.182
1013.59	0.189
1013.76	0.182
1013.92	0.181
1014.09	0.180
1014.25	0.181
1014.42	0.182
1014.58	0.182
1014.75	0.184
1014.91	0.182
1015.08	0.184
1015.24	0.181
1015.41	0.182
1015.57	0.181
1015.73	0.180
1015.90	0.178
1016.06	0.181
1016.23	0.179
1016.39	0.179
1016.56	0.180
1016.72	0.180
1016.89	0.179
1017.05	0.182
1017.22	0.178
1017.38	0.179
1017.55	0.177
1017.71	0.179
1017.88	0.178
1018.04	0.179
1018.21	0.176
1018.37	0.175
1018.53	0.174
1018.70	0.172
1018.86	0.171
1019.03	0.173
1019.19	0.172
1019.36	0.171
1019.52	0.173
1019.69	0.173
1019.85	0.171
1020.01	0.171
1020.18	0.170
1020.34	0.170
1020.51	0.170
1020.67	0.171
1020.84	0.169
1021.00	0.170
1021.16	0.167
1021.33	0.168
1021.49	0.166
1021.66	0.167
1021.82	0.164
1021.98	0.164
1022.15	0.164
1022.31	0.165
1022.48	0.163
1022.64	0.165
1022.80	0.164
1022.97	0.162
1023.13	0.162
1023.30	0.163
1023.46	0.163
1023.62	0.161
1023.79	0.163
1023.95	0.164
1024.12	0.163
1024.28	0.162
1024.44	0.161
1024.61	0.160
1024.77	0.160
1024.93	0.158
1025.10	0.159
1025.26	0.157
1025.43	0.158
1025.59	0.154
1025.75	0.156
1025.92	0.155
1026.08	0.154
1026.24	0.154
1026.41	0.155
1026.57	0.154
1026.73	0.152
1026.90	0.154
1027.06	0.153
1027.23	0.155
1027.39	0.155
1027.55	0.155
1027.72	0.154
1027.88	0.154
1028.04	0.154
1028.21	0.155
1028.37	0.149
1028.53	0.154
1028.70	0.152
1028.86	0.150
1029.02	0.149
1029.19	0.149
1029.35	0.146
1029.51	0.146
1029.67	0.146
1029.84	0.147
1030.00	0.142
1030.16	0.143
1030.33	0.145
1030.49	0.143
1030.65	0.141
1030.82	0.157
1030.98	0.144
1031.14	0.145
1031.31	0.144
1031.47	0.142
1031.63	0.145
1031.79	0.144
1031.96	0.145
1032.12	0.145
1032.28	0.142
1032.45	0.146
1032.61	0.144
1032.77	0.142
1032.93	0.139
1033.10	0.141
1033.26	0.144
1033.42	0.143
1033.58	0.143
1033.75	0.144
1033.91	0.142
1034.07	0.146
1034.24	0.144
1034.40	0.143
1034.56	0.143
1034.72	0.143
1034.89	0.144
1035.05	0.141
1035.21	0.140
1035.37	0.139
1035.54	0.141
1035.70	0.141
1035.86	0.139
1036.02	0.141
1036.19	0.138
1036.35	0.137
1036.51	0.141
1036.67	0.138
1036.83	0.138
1037.00	0.136
1037.16	0.136
1037.32	0.138
1037.48	0.136
1037.65	0.140
1037.81	0.135
1037.97	0.136
1038.13	0.135
1038.29	0.134
1038.46	0.131
1038.62	0.135
1038.78	0.133
1038.94	0.131
1039.10	0.134
1039.27	0.130
1039.43	0.132
1039.59	0.133
1039.75	0.132
1039.91	0.131
1040.08	0.131
1040.24	0.135
1040.40	0.136
1040.56	0.133
1040.72	0.127
1040.89	0.130
1041.05	0.133
1041.21	0.131
1041.37	0.129
1041.53	0.134
1041.69	0.133
1041.86	0.131
1042.02	0.127
1042.18	0.127
1042.34	0.128
1042.50	0.133
1042.66	0.129
1042.83	0.128
1042.99	0.129
1043.15	0.124
1043.31	0.125
1043.47	0.128
1043.63	0.125
1043.79	0.124
1043.96	0.125
1044.12	0.129
1044.28	0.127
1044.44	0.129
1044.60	0.124
1044.76	0.122
1044.92	0.125
1045.09	0.126
1045.25	0.124
1045.41	0.126
1045.57	0.122
1045.73	0.124
1045.89	0.126
1046.05	0.125
1046.21	0.130
1046.38	0.126
1046.54	0.146
1046.70	0.135
1046.86	0.113
>>>>>End Processed Spectral Data<<<<<
