SpectraSuite Data File
++++++++++++++++++++++++++++++++++++
Date: Mon May 20 12:12:24 CDT 2013
User: Students
Dark Spectrum Present: Yes
Reference Spectrum Present: Yes
Number of Sampled Component Spectra: 1
Spectrometers: USB4H00887
Integration Time (usec): 60000 (USB4H00887)
Spectra Averaged: 5 (USB4H00887)
Boxcar Smoothing: 5 (USB4H00887)
Correct for Electrical Dark: No (USB4H00887)
Strobe/Lamp Enabled: No (USB4H00887)
Correct for Detector Non-linearity: No (USB4H00887)
Correct for Stray Light: No (USB4H00887)
Number of Pixels in Processed Spectrum: 3648
>>>>>Begin Processed Spectral Data<<<<<
345.83	0.112
346.05	0.112
346.26	0.112
346.48	-0.000
346.70	-0.078
346.92	0.091
347.14	0.076
347.35	0.088
347.57	0.831
347.79	-0.386
348.01	-0.248
348.23	-0.396
348.44	-0.000
348.66	0.446
348.88	-0.461
349.10	-0.301
349.32	0.144
349.53	-0.046
349.75	-0.044
349.97	-0.047
350.19	0.005
350.41	0.003
350.62	-0.066
350.84	-0.004
351.06	-0.002
351.28	-0.013
351.50	-0.062
351.71	-0.059
351.93	-0.073
352.15	-0.014
352.37	-0.024
352.58	0.011
352.80	0.023
353.02	0.034
353.24	0.073
353.46	0.375
353.67	-0.139
353.89	0.038
354.11	0.034
354.33	0.057
354.54	0.077
354.76	0.146
354.98	0.228
355.20	0.156
355.41	0.080
355.63	0.177
355.85	0.092
356.07	-0.000
356.28	0.092
356.50	0.151
356.72	0.047
356.94	0.127
357.15	0.189
357.37	-0.000
357.59	0.086
357.81	0.047
358.02	0.073
358.24	0.044
358.46	0.077
358.68	0.100
358.89	0.071
359.11	-0.000
359.33	0.062
359.55	-0.493
359.76	0.131
359.98	0.169
360.20	0.142
360.42	0.109
360.63	0.125
360.85	0.096
361.07	0.412
361.29	0.063
361.50	0.209
361.72	0.095
361.94	0.390
362.15	0.125
362.37	0.069
362.59	0.090
362.81	0.144
363.02	0.259
363.24	0.365
363.46	0.211
363.68	0.291
363.89	0.182
364.11	0.245
364.33	0.273
364.54	0.166
364.76	0.191
364.98	0.178
365.20	0.210
365.41	0.122
365.63	0.170
365.85	0.109
366.06	0.338
366.28	0.300
366.50	0.185
366.71	0.081
366.93	0.120
367.15	0.123
367.37	0.105
367.58	0.141
367.80	0.165
368.02	0.458
368.23	0.157
368.45	0.168
368.67	0.138
368.88	0.135
369.10	-0.000
369.32	0.118
369.53	0.073
369.75	0.141
369.97	0.348
370.19	0.192
370.40	0.062
370.62	0.138
370.84	0.056
371.05	0.342
371.27	0.109
371.49	0.132
371.70	0.149
371.92	0.165
372.14	0.071
372.35	0.081
372.57	0.089
372.79	0.230
373.00	0.068
373.22	0.100
373.44	0.094
373.65	0.084
373.87	0.125
374.09	0.426
374.30	0.116
374.52	0.141
374.74	0.101
374.95	0.429
375.17	0.130
375.39	-0.000
375.60	0.165
375.82	0.277
376.04	0.118
376.25	0.120
376.47	0.089
376.68	0.195
376.90	0.114
377.12	0.218
377.33	0.118
377.55	0.282
377.77	0.137
377.98	0.196
378.20	0.123
378.42	0.135
378.63	0.187
378.85	-0.000
379.07	0.147
379.28	0.572
379.50	0.338
379.71	0.176
379.93	0.125
380.15	0.157
380.36	0.226
380.58	0.158
380.80	0.460
381.01	0.134
381.23	0.091
381.44	0.089
381.66	0.102
381.88	0.149
382.09	-0.074
382.31	0.111
382.53	0.119
382.74	0.578
382.96	0.181
383.17	0.151
383.39	0.212
383.61	0.305
383.82	0.211
384.04	0.235
384.25	0.266
384.47	0.261
384.69	0.270
384.90	0.262
385.12	0.649
385.33	0.358
385.55	0.273
385.77	0.416
385.98	0.209
386.20	0.309
386.41	0.264
386.63	0.302
386.85	0.238
387.06	0.273
387.28	0.426
387.49	0.274
387.71	0.200
387.93	0.167
388.14	0.540
388.36	0.210
388.57	0.176
388.79	0.207
389.01	1.879
389.22	0.280
389.44	0.239
389.65	0.195
389.87	0.200
390.08	0.242
390.30	0.192
390.52	0.395
390.73	0.410
390.95	0.299
391.16	0.288
391.38	-0.000
391.59	0.330
391.81	0.279
392.03	0.269
392.24	0.294
392.46	0.239
392.67	0.218
392.89	0.285
393.10	0.456
393.32	0.280
393.53	0.324
393.75	0.204
393.97	0.229
394.18	0.302
394.40	0.244
394.61	0.249
394.83	0.224
395.04	0.265
395.26	0.186
395.47	0.270
395.69	0.236
395.91	0.249
396.12	0.296
396.34	0.298
396.55	0.197
396.77	0.315
396.98	1.384
397.20	0.337
397.41	0.370
397.63	0.265
397.84	0.241
398.06	0.235
398.27	0.251
398.49	0.284
398.71	0.203
398.92	0.245
399.14	0.287
399.35	0.386
399.57	0.397
399.78	0.261
400.00	0.256
400.21	0.330
400.43	0.259
400.64	0.271
400.86	0.629
401.07	0.367
401.29	0.325
401.50	0.364
401.72	0.515
401.93	0.330
402.15	0.402
402.36	0.360
402.58	0.293
402.79	0.331
403.01	0.589
403.22	0.452
403.44	0.292
403.65	0.485
403.87	0.524
404.08	0.408
404.30	0.699
404.51	0.374
404.73	0.458
404.94	0.384
405.16	0.408
405.37	0.314
405.59	0.589
405.80	0.357
406.02	0.425
406.23	0.422
406.45	0.476
406.66	0.500
406.88	0.312
407.09	0.488
407.31	0.383
407.52	0.461
407.74	0.363
407.95	0.433
408.17	0.398
408.38	0.432
408.60	0.285
408.81	0.480
409.03	0.363
409.24	0.366
409.45	0.418
409.67	0.408
409.88	0.349
410.10	0.430
410.31	0.354
410.53	0.342
410.74	0.484
410.96	0.481
411.17	0.504
411.39	0.386
411.60	0.366
411.82	0.429
412.03	0.419
412.24	0.423
412.46	0.650
412.67	0.509
412.89	0.498
413.10	0.481
413.32	0.424
413.53	0.487
413.75	0.505
413.96	0.384
414.17	0.510
414.39	0.511
414.60	0.419
414.82	0.556
415.03	0.446
415.25	0.505
415.46	0.353
415.68	0.526
415.89	1.166
416.10	0.869
416.32	0.427
416.53	0.521
416.75	0.486
416.96	0.587
417.18	0.499
417.39	0.460
417.60	0.457
417.82	0.674
418.03	0.564
418.25	0.467
418.46	0.479
418.67	0.442
418.89	0.472
419.10	0.486
419.32	0.663
419.53	0.596
419.75	0.504
419.96	0.443
420.17	0.535
420.39	0.505
420.60	0.521
420.82	0.637
421.03	0.511
421.24	0.423
421.46	0.476
421.67	0.522
421.89	0.450
422.10	0.492
422.31	0.485
422.53	0.704
422.74	0.516
422.96	0.415
423.17	0.472
423.38	0.582
423.60	0.493
423.81	0.616
424.03	0.518
424.24	0.585
424.45	0.579
424.67	0.565
424.88	0.511
425.09	0.555
425.31	0.501
425.52	0.523
425.74	0.592
425.95	0.641
426.16	0.489
426.38	0.578
426.59	0.525
426.80	0.603
427.02	0.644
427.23	0.507
427.45	0.671
427.66	0.673
427.87	0.514
428.09	0.546
428.30	0.615
428.51	0.599
428.73	0.648
428.94	0.574
429.15	0.555
429.37	0.537
429.58	0.552
429.79	0.507
430.01	0.595
430.22	0.590
430.44	0.608
430.65	0.547
430.86	0.597
431.08	0.586
431.29	0.538
431.50	0.641
431.72	0.883
431.93	0.715
432.14	0.532
432.36	0.581
432.57	0.587
432.78	0.601
433.00	0.545
433.21	0.535
433.42	0.667
433.64	0.579
433.85	0.656
434.06	0.526
434.28	0.553
434.49	0.570
434.70	0.592
434.92	0.611
435.13	0.657
435.34	0.671
435.56	0.640
435.77	0.634
435.98	0.814
436.20	0.686
436.41	0.589
436.62	0.580
436.83	0.662
437.05	0.740
437.26	0.641
437.47	0.571
437.69	0.625
437.90	0.573
438.11	0.564
438.33	0.619
438.54	0.633
438.75	0.815
438.97	0.793
439.18	0.592
439.39	0.627
439.60	0.680
439.82	0.637
440.03	0.587
440.24	0.863
440.46	0.637
440.67	0.615
440.88	0.660
441.10	0.607
441.31	0.609
441.52	0.664
441.73	0.749
441.95	0.668
442.16	0.616
442.37	0.998
442.58	0.608
442.80	0.600
443.01	0.797
443.22	0.726
443.44	0.624
443.65	0.743
443.86	0.741
444.07	0.790
444.29	0.674
444.50	0.871
444.71	0.649
444.92	0.604
445.14	0.770
445.35	0.818
445.56	0.638
445.78	0.750
445.99	0.741
446.20	0.629
446.41	0.714
446.63	0.710
446.84	0.663
447.05	0.660
447.26	0.801
447.48	0.687
447.69	0.648
447.90	0.742
448.11	0.658
448.33	0.689
448.54	0.710
448.75	0.743
448.96	0.757
449.18	0.814
449.39	0.732
449.60	0.704
449.81	0.857
450.03	0.736
450.24	0.805
450.45	0.747
450.66	0.726
450.87	0.768
451.09	0.716
451.30	0.691
451.51	0.767
451.72	0.773
451.94	0.791
452.15	0.859
452.36	0.709
452.57	0.722
452.78	0.724
453.00	0.762
453.21	0.719
453.42	0.686
453.63	0.786
453.85	0.746
454.06	0.744
454.27	0.890
454.48	0.792
454.69	0.713
454.91	0.792
455.12	0.692
455.33	0.773
455.54	0.789
455.75	0.766
455.97	0.794
456.18	0.790
456.39	0.790
456.60	0.821
456.81	0.750
457.03	0.761
457.24	0.755
457.45	0.850
457.66	0.796
457.87	0.752
458.09	0.773
458.30	0.682
458.51	0.802
458.72	0.826
458.93	0.832
459.15	0.731
459.36	0.800
459.57	0.831
459.78	0.883
459.99	0.785
460.20	0.746
460.42	0.829
460.63	0.785
460.84	0.775
461.05	0.804
461.26	0.864
461.47	0.777
461.69	0.829
461.90	0.866
462.11	0.814
462.32	0.871
462.53	0.800
462.74	0.901
462.96	0.775
463.17	0.765
463.38	0.803
463.59	0.928
463.80	0.766
464.01	0.790
464.23	0.881
464.44	0.841
464.65	0.850
464.86	0.876
465.07	0.886
465.28	0.844
465.49	0.865
465.71	0.812
465.92	0.854
466.13	0.903
466.34	0.833
466.55	0.887
466.76	0.849
466.97	0.868
467.19	0.857
467.40	0.893
467.61	0.898
467.82	0.815
468.03	0.795
468.24	0.866
468.45	0.906
468.66	0.897
468.88	0.911
469.09	0.914
469.30	0.973
469.51	0.886
469.72	0.928
469.93	0.895
470.14	0.871
470.35	0.978
470.57	0.918
470.78	0.848
470.99	0.984
471.20	0.908
471.41	0.857
471.62	0.911
471.83	0.884
472.04	0.921
472.25	0.968
472.47	0.886
472.68	0.890
472.89	0.898
473.10	0.941
473.31	0.884
473.52	0.960
473.73	0.985
473.94	0.898
474.15	0.926
474.36	0.928
474.57	0.958
474.79	0.923
475.00	0.924
475.21	0.906
475.42	1.008
475.63	0.904
475.84	0.931
476.05	0.940
476.26	0.909
476.47	0.945
476.68	0.989
476.89	0.910
477.10	0.961
477.32	0.948
477.53	1.004
477.74	0.920
477.95	0.964
478.16	0.911
478.37	0.960
478.58	0.962
478.79	0.977
479.00	0.983
479.21	0.935
479.42	0.978
479.63	0.984
479.84	0.951
480.05	0.950
480.26	0.983
480.47	1.006
480.69	1.000
480.90	0.964
481.11	0.960
481.32	1.027
481.53	0.964
481.74	1.025
481.95	0.984
482.16	0.995
482.37	1.002
482.58	0.962
482.79	0.978
483.00	1.012
483.21	0.954
483.42	0.926
483.63	1.010
483.84	1.038
484.05	1.024
484.26	0.992
484.47	0.995
484.68	0.957
484.89	0.969
485.10	1.023
485.31	1.000
485.52	1.006
485.73	1.004
485.94	1.043
486.15	0.984
486.37	1.001
486.58	0.964
486.79	0.976
487.00	1.028
487.21	1.012
487.42	1.006
487.63	1.009
487.84	1.030
488.05	1.029
488.26	0.986
488.47	0.993
488.68	1.025
488.89	0.998
489.10	0.994
489.31	1.002
489.52	1.035
489.73	1.000
489.94	1.040
490.15	0.991
490.36	1.032
490.57	0.983
490.78	0.968
490.99	1.007
491.20	1.094
491.41	1.043
491.62	0.984
491.83	1.021
492.04	1.019
492.25	1.028
492.45	1.029
492.66	1.054
492.87	1.043
493.08	1.029
493.29	1.013
493.50	1.003
493.71	1.014
493.92	1.012
494.13	1.027
494.34	1.050
494.55	1.054
494.76	1.090
494.97	1.082
495.18	1.045
495.39	1.060
495.60	1.005
495.81	1.004
496.02	1.026
496.23	1.018
496.44	1.054
496.65	1.040
496.86	1.047
497.07	1.074
497.28	1.066
497.49	1.011
497.70	1.014
497.91	1.036
498.12	1.016
498.32	1.062
498.53	1.044
498.74	1.032
498.95	1.062
499.16	1.013
499.37	1.016
499.58	1.027
499.79	1.058
500.00	1.053
500.21	1.085
500.42	1.029
500.63	1.029
500.84	1.051
501.05	1.029
501.26	1.056
501.46	1.099
501.67	1.056
501.88	1.058
502.09	1.031
502.30	1.040
502.51	1.094
502.72	1.043
502.93	1.061
503.14	1.084
503.35	1.049
503.56	1.044
503.77	1.079
503.97	1.056
504.18	1.056
504.39	1.097
504.60	1.061
504.81	1.089
505.02	1.076
505.23	1.076
505.44	1.057
505.65	1.068
505.86	1.050
506.07	1.122
506.27	1.076
506.48	1.082
506.69	1.060
506.90	1.083
507.11	1.080
507.32	1.055
507.53	1.066
507.74	1.059
507.95	1.074
508.15	1.078
508.36	1.083
508.57	1.095
508.78	1.077
508.99	1.077
509.20	1.051
509.41	1.078
509.62	1.066
509.82	1.061
510.03	1.070
510.24	1.068
510.45	1.094
510.66	1.083
510.87	1.079
511.08	1.035
511.29	1.081
511.49	1.056
511.70	1.107
511.91	1.035
512.12	1.032
512.33	1.068
512.54	1.086
512.75	1.068
512.95	1.096
513.16	1.084
513.37	1.061
513.58	1.099
513.79	1.059
514.00	1.066
514.20	1.086
514.41	1.073
514.62	1.040
514.83	1.082
515.04	1.071
515.25	1.050
515.46	1.062
515.66	1.063
515.87	1.077
516.08	1.044
516.29	1.071
516.50	1.050
516.71	1.045
516.91	1.052
517.12	1.071
517.33	1.056
517.54	1.041
517.75	1.045
517.95	1.059
518.16	1.069
518.37	1.035
518.58	1.042
518.79	1.016
519.00	1.050
519.20	1.063
519.41	1.035
519.62	1.058
519.83	1.068
520.04	1.030
520.24	1.028
520.45	1.041
520.66	1.066
520.87	1.025
521.08	1.021
521.28	1.025
521.49	1.041
521.70	1.008
521.91	1.022
522.12	1.003
522.32	1.026
522.53	1.007
522.74	0.995
522.95	1.004
523.16	1.006
523.36	1.017
523.57	0.996
523.78	0.990
523.99	0.996
524.20	0.988
524.40	1.003
524.61	1.011
524.82	0.983
525.03	0.988
525.23	0.990
525.44	0.973
525.65	0.971
525.86	0.998
526.06	0.968
526.27	0.968
526.48	0.980
526.69	0.960
526.90	0.964
527.10	1.001
527.31	0.951
527.52	0.942
527.73	0.934
527.93	0.947
528.14	0.951
528.35	0.939
528.56	0.941
528.76	0.932
528.97	0.923
529.18	0.914
529.39	0.913
529.59	0.918
529.80	0.954
530.01	0.923
530.22	0.921
530.42	0.890
530.63	0.909
530.84	0.883
531.05	0.899
531.25	0.900
531.46	0.890
531.67	0.869
531.88	0.888
532.08	0.879
532.29	0.875
532.50	0.866
532.70	0.858
532.91	0.848
533.12	0.851
533.33	0.877
533.53	0.846
533.74	0.846
533.95	0.852
534.15	0.840
534.36	0.842
534.57	0.824
534.78	0.825
534.98	0.837
535.19	0.806
535.40	0.808
535.60	0.828
535.81	0.807
536.02	0.810
536.23	0.801
536.43	0.804
536.64	0.790
536.85	0.799
537.05	0.808
537.26	0.783
537.47	0.786
537.67	0.775
537.88	0.770
538.09	0.777
538.30	0.765
538.50	0.757
538.71	0.768
538.92	0.754
539.12	0.748
539.33	0.744
539.54	0.745
539.74	0.748
539.95	0.738
540.16	0.735
540.36	0.726
540.57	0.726
540.78	0.718
540.98	0.717
541.19	0.715
541.40	0.703
541.60	0.714
541.81	0.708
542.02	0.709
542.22	0.698
542.43	0.693
542.64	0.688
542.84	0.689
543.05	0.680
543.26	0.679
543.46	0.682
543.67	0.680
543.88	0.675
544.08	0.664
544.29	0.659
544.50	0.661
544.70	0.662
544.91	0.652
545.12	0.652
545.32	0.648
545.53	0.652
545.74	0.640
545.94	0.637
546.15	0.635
546.35	0.632
546.56	0.629
546.77	0.624
546.97	0.621
547.18	0.613
547.39	0.614
547.59	0.611
547.80	0.607
548.01	0.611
548.21	0.606
548.42	0.598
548.62	0.597
548.83	0.593
549.04	0.589
549.24	0.581
549.45	0.581
549.65	0.577
549.86	0.572
550.07	0.571
550.27	0.569
550.48	0.577
550.69	0.563
550.89	0.563
551.10	0.559
551.30	0.557
551.51	0.557
551.72	0.547
551.92	0.548
552.13	0.548
552.33	0.548
552.54	0.542
552.75	0.534
552.95	0.535
553.16	0.530
553.36	0.528
553.57	0.526
553.78	0.524
553.98	0.524
554.19	0.515
554.39	0.512
554.60	0.515
554.80	0.514
555.01	0.506
555.22	0.509
555.42	0.505
555.63	0.499
555.83	0.502
556.04	0.496
556.25	0.498
556.45	0.489
556.66	0.486
556.86	0.489
557.07	0.487
557.27	0.486
557.48	0.480
557.68	0.477
557.89	0.478
558.10	0.474
558.30	0.470
558.51	0.468
558.71	0.466
558.92	0.461
559.12	0.463
559.33	0.465
559.54	0.460
559.74	0.456
559.95	0.454
560.15	0.454
560.36	0.452
560.56	0.447
560.77	0.447
560.97	0.446
561.18	0.441
561.38	0.440
561.59	0.443
561.79	0.439
562.00	0.436
562.21	0.433
562.41	0.432
562.62	0.430
562.82	0.428
563.03	0.424
563.23	0.424
563.44	0.423
563.64	0.420
563.85	0.421
564.05	0.414
564.26	0.414
564.46	0.412
564.67	0.413
564.87	0.409
565.08	0.406
565.28	0.406
565.49	0.407
565.69	0.403
565.90	0.399
566.10	0.402
566.31	0.395
566.51	0.397
566.72	0.398
566.92	0.391
567.13	0.391
567.33	0.389
567.54	0.388
567.74	0.386
567.95	0.383
568.15	0.385
568.36	0.384
568.56	0.383
568.77	0.377
568.97	0.376
569.18	0.375
569.38	0.373
569.59	0.373
569.79	0.371
570.00	0.368
570.20	0.367
570.41	0.364
570.61	0.363
570.82	0.364
571.02	0.361
571.23	0.362
571.43	0.358
571.64	0.358
571.84	0.357
572.05	0.355
572.25	0.354
572.45	0.352
572.66	0.350
572.86	0.348
573.07	0.346
573.27	0.346
573.48	0.344
573.68	0.340
573.89	0.339
574.09	0.340
574.30	0.338
574.50	0.336
574.70	0.336
574.91	0.334
575.11	0.335
575.32	0.335
575.52	0.331
575.73	0.332
575.93	0.331
576.14	0.330
576.34	0.328
576.54	0.327
576.75	0.325
576.95	0.324
577.16	0.323
577.36	0.321
577.57	0.321
577.77	0.319
577.97	0.316
578.18	0.317
578.38	0.314
578.59	0.312
578.79	0.311
579.00	0.312
579.20	0.310
579.40	0.309
579.61	0.308
579.81	0.307
580.02	0.305
580.22	0.304
580.42	0.303
580.63	0.304
580.83	0.303
581.04	0.300
581.24	0.300
581.45	0.298
581.65	0.298
581.85	0.297
582.06	0.294
582.26	0.294
582.47	0.293
582.67	0.292
582.87	0.291
583.08	0.289
583.28	0.289
583.48	0.287
583.69	0.283
583.89	0.284
584.10	0.284
584.30	0.282
584.50	0.281
584.71	0.280
584.91	0.279
585.12	0.277
585.32	0.278
585.52	0.275
585.73	0.274
585.93	0.274
586.13	0.273
586.34	0.271
586.54	0.270
586.75	0.269
586.95	0.268
587.15	0.268
587.36	0.267
587.56	0.266
587.76	0.264
587.97	0.264
588.17	0.262
588.37	0.262
588.58	0.263
588.78	0.260
588.98	0.260
589.19	0.259
589.39	0.257
589.60	0.259
589.80	0.256
590.00	0.256
590.21	0.256
590.41	0.255
590.61	0.254
590.82	0.254
591.02	0.253
591.22	0.251
591.43	0.252
591.63	0.250
591.83	0.249
592.04	0.248
592.24	0.248
592.44	0.246
592.65	0.244
592.85	0.244
593.05	0.245
593.26	0.243
593.46	0.242
593.66	0.242
593.86	0.241
594.07	0.239
594.27	0.239
594.47	0.238
594.68	0.237
594.88	0.237
595.08	0.237
595.29	0.237
595.49	0.235
595.69	0.234
595.90	0.233
596.10	0.233
596.30	0.232
596.50	0.231
596.71	0.231
596.91	0.230
597.11	0.229
597.32	0.228
597.52	0.227
597.72	0.227
597.93	0.226
598.13	0.225
598.33	0.226
598.53	0.225
598.74	0.224
598.94	0.223
599.14	0.223
599.35	0.223
599.55	0.223
599.75	0.222
599.95	0.222
600.16	0.222
600.36	0.220
600.56	0.220
600.76	0.219
600.97	0.217
601.17	0.217
601.37	0.217
601.58	0.216
601.78	0.216
601.98	0.215
602.18	0.213
602.39	0.214
602.59	0.213
602.79	0.213
602.99	0.213
603.20	0.212
603.40	0.212
603.60	0.212
603.80	0.211
604.01	0.210
604.21	0.209
604.41	0.208
604.61	0.207
604.82	0.207
605.02	0.206
605.22	0.206
605.42	0.205
605.62	0.205
605.83	0.203
606.03	0.203
606.23	0.203
606.43	0.203
606.64	0.203
606.84	0.202
607.04	0.202
607.24	0.202
607.45	0.202
607.65	0.200
607.85	0.200
608.05	0.199
608.25	0.198
608.46	0.198
608.66	0.197
608.86	0.197
609.06	0.196
609.26	0.195
609.47	0.196
609.67	0.194
609.87	0.195
610.07	0.194
610.28	0.193
610.48	0.193
610.68	0.193
610.88	0.192
611.08	0.193
611.29	0.192
611.49	0.191
611.69	0.191
611.89	0.190
612.09	0.190
612.29	0.190
612.50	0.189
612.70	0.189
612.90	0.188
613.10	0.188
613.30	0.187
613.51	0.187
613.71	0.187
613.91	0.191
614.11	0.186
614.31	0.185
614.51	0.185
614.72	0.185
614.92	0.185
615.12	0.184
615.32	0.185
615.52	0.184
615.72	0.184
615.93	0.184
616.13	0.183
616.33	0.183
616.53	0.183
616.73	0.183
616.93	0.181
617.14	0.182
617.34	0.181
617.54	0.182
617.74	0.181
617.94	0.180
618.14	0.180
618.34	0.179
618.55	0.179
618.75	0.180
618.95	0.179
619.15	0.179
619.35	0.178
619.55	0.177
619.75	0.177
619.96	0.177
620.16	0.177
620.36	0.177
620.56	0.176
620.76	0.176
620.96	0.176
621.16	0.175
621.36	0.175
621.57	0.175
621.77	0.176
621.97	0.175
622.17	0.174
622.37	0.174
622.57	0.174
622.77	0.173
622.97	0.172
623.18	0.172
623.38	0.172
623.58	0.171
623.78	0.171
623.98	0.170
624.18	0.170
624.38	0.170
624.58	0.170
624.78	0.171
624.98	0.171
625.19	0.170
625.39	0.170
625.59	0.170
625.79	0.170
625.99	0.170
626.19	0.170
626.39	0.169
626.59	0.169
626.79	0.169
626.99	0.168
627.19	0.168
627.40	0.168
627.60	0.168
627.80	0.167
628.00	0.167
628.20	0.167
628.40	0.166
628.60	0.166
628.80	0.165
629.00	0.165
629.20	0.165
629.40	0.165
629.60	0.164
629.80	0.164
630.00	0.164
630.20	0.163
630.41	0.162
630.61	0.162
630.81	0.162
631.01	0.162
631.21	0.161
631.41	0.161
631.61	0.161
631.81	0.161
632.01	0.160
632.21	0.161
632.41	0.160
632.61	0.160
632.81	0.160
633.01	0.160
633.21	0.160
633.41	0.160
633.61	0.159
633.81	0.159
634.01	0.158
634.21	0.158
634.41	0.158
634.61	0.158
634.81	0.157
635.01	0.158
635.22	0.158
635.42	0.158
635.62	0.157
635.82	0.157
636.02	0.157
636.22	0.156
636.42	0.156
636.62	0.156
636.82	0.156
637.02	0.156
637.22	0.156
637.42	0.155
637.62	0.154
637.82	0.154
638.02	0.154
638.22	0.154
638.42	0.154
638.62	0.153
638.82	0.153
639.02	0.153
639.22	0.152
639.42	0.152
639.62	0.152
639.82	0.152
640.02	0.152
640.22	0.151
640.42	0.151
640.62	0.151
640.82	0.151
641.02	0.150
641.22	0.151
641.42	0.150
641.61	0.150
641.81	0.150
642.01	0.150
642.21	0.150
642.41	0.150
642.61	0.149
642.81	0.149
643.01	0.148
643.21	0.148
643.41	0.148
643.61	0.148
643.81	0.147
644.01	0.146
644.21	0.145
644.41	0.145
644.61	0.145
644.81	0.146
645.01	0.146
645.21	0.145
645.41	0.146
645.61	0.145
645.81	0.145
646.01	0.144
646.21	0.145
646.40	0.144
646.60	0.145
646.80	0.145
647.00	0.144
647.20	0.143
647.40	0.143
647.60	0.143
647.80	0.142
648.00	0.142
648.20	0.142
648.40	0.142
648.60	0.142
648.80	0.142
649.00	0.142
649.20	0.142
649.39	0.142
649.59	0.141
649.79	0.141
649.99	0.141
650.19	0.141
650.39	0.140
650.59	0.141
650.79	0.140
650.99	0.140
651.19	0.139
651.39	0.139
651.58	0.139
651.78	0.139
651.98	0.139
652.18	0.138
652.38	0.138
652.58	0.139
652.78	0.138
652.98	0.138
653.18	0.138
653.38	0.138
653.57	0.138
653.77	0.138
653.97	0.137
654.17	0.137
654.37	0.136
654.57	0.137
654.77	0.136
654.97	0.136
655.16	0.136
655.36	0.136
655.56	0.135
655.76	0.134
655.96	0.135
656.16	0.134
656.36	0.134
656.56	0.134
656.75	0.134
656.95	0.133
657.15	0.133
657.35	0.133
657.55	0.132
657.75	0.133
657.95	0.133
658.14	0.133
658.34	0.132
658.54	0.132
658.74	0.131
658.94	0.131
659.14	0.131
659.34	0.131
659.53	0.130
659.73	0.130
659.93	0.129
660.13	0.129
660.33	0.129
660.53	0.129
660.72	0.130
660.92	0.130
661.12	0.129
661.32	0.129
661.52	0.129
661.72	0.129
661.91	0.129
662.11	0.129
662.31	0.129
662.51	0.128
662.71	0.128
662.90	0.127
663.10	0.127
663.30	0.127
663.50	0.127
663.70	0.126
663.90	0.126
664.09	0.126
664.29	0.125
664.49	0.125
664.69	0.125
664.89	0.125
665.08	0.125
665.28	0.125
665.48	0.124
665.68	0.124
665.88	0.124
666.07	0.123
666.27	0.123
666.47	0.123
666.67	0.123
666.87	0.123
667.06	0.122
667.26	0.122
667.46	0.121
667.66	0.121
667.85	0.121
668.05	0.121
668.25	0.121
668.45	0.121
668.65	0.121
668.84	0.121
669.04	0.121
669.24	0.121
669.44	0.120
669.63	0.121
669.83	0.121
670.03	0.120
670.23	0.119
670.42	0.119
670.62	0.118
670.82	0.118
671.02	0.118
671.22	0.117
671.41	0.117
671.61	0.117
671.81	0.117
672.01	0.117
672.20	0.117
672.40	0.116
672.60	0.116
672.80	0.116
672.99	0.116
673.19	0.116
673.39	0.115
673.58	0.115
673.78	0.115
673.98	0.115
674.18	0.114
674.37	0.114
674.57	0.114
674.77	0.114
674.97	0.114
675.16	0.114
675.36	0.113
675.56	0.113
675.75	0.113
675.95	0.113
676.15	0.113
676.35	0.112
676.54	0.112
676.74	0.112
676.94	0.113
677.13	0.112
677.33	0.112
677.53	0.112
677.73	0.112
677.92	0.111
678.12	0.112
678.32	0.111
678.51	0.111
678.71	0.111
678.91	0.110
679.11	0.110
679.30	0.110
679.50	0.109
679.70	0.109
679.89	0.109
680.09	0.109
680.29	0.109
680.48	0.109
680.68	0.108
680.88	0.109
681.07	0.109
681.27	0.109
681.47	0.109
681.66	0.108
681.86	0.108
682.06	0.108
682.25	0.107
682.45	0.108
682.65	0.107
682.84	0.106
683.04	0.106
683.24	0.106
683.43	0.106
683.63	0.106
683.83	0.106
684.02	0.106
684.22	0.106
684.42	0.105
684.61	0.105
684.81	0.106
685.01	0.106
685.20	0.105
685.40	0.105
685.60	0.105
685.79	0.105
685.99	0.105
686.19	0.104
686.38	0.104
686.58	0.105
686.77	0.104
686.97	0.104
687.17	0.104
687.36	0.104
687.56	0.103
687.76	0.103
687.95	0.103
688.15	0.103
688.34	0.103
688.54	0.102
688.74	0.102
688.93	0.102
689.13	0.102
689.33	0.102
689.52	0.102
689.72	0.102
689.91	0.101
690.11	0.101
690.31	0.101
690.50	0.101
690.70	0.101
690.89	0.100
691.09	0.100
691.29	0.099
691.48	0.099
691.68	0.099
691.87	0.099
692.07	0.099
692.27	0.099
692.46	0.099
692.66	0.098
692.85	0.098
693.05	0.098
693.25	0.099
693.44	0.098
693.64	0.098
693.83	0.098
694.03	0.097
694.22	0.097
694.42	0.097
694.62	0.098
694.81	0.098
695.01	0.098
695.20	0.097
695.40	0.097
695.59	0.096
695.79	0.096
695.99	0.096
696.18	0.096
696.38	0.096
696.57	0.097
696.77	0.096
696.96	0.097
697.16	0.096
697.36	0.096
697.55	0.096
697.75	0.096
697.94	0.096
698.14	0.096
698.33	0.096
698.53	0.095
698.72	0.095
698.92	0.095
699.11	0.095
699.31	0.095
699.51	0.095
699.70	0.095
699.90	0.094
700.09	0.094
700.29	0.094
700.48	0.094
700.68	0.094
700.87	0.094
701.07	0.094
701.26	0.094
701.46	0.093
701.65	0.093
701.85	0.093
702.04	0.093
702.24	0.092
702.43	0.092
702.63	0.091
702.82	0.091
703.02	0.090
703.21	0.090
703.41	0.090
703.60	0.090
703.80	0.090
703.99	0.090
704.19	0.090
704.38	0.090
704.58	0.090
704.77	0.090
704.97	0.090
705.16	0.090
705.36	0.090
705.55	0.090
705.75	0.090
705.94	0.090
706.14	0.090
706.33	0.090
706.53	0.090
706.72	0.090
706.92	0.089
707.11	0.089
707.31	0.089
707.50	0.089
707.70	0.089
707.89	0.090
708.09	0.089
708.28	0.089
708.48	0.089
708.67	0.089
708.86	0.089
709.06	0.089
709.25	0.089
709.45	0.089
709.64	0.088
709.84	0.088
710.03	0.088
710.23	0.088
710.42	0.088
710.62	0.087
710.81	0.087
711.00	0.087
711.20	0.087
711.39	0.087
711.59	0.087
711.78	0.087
711.98	0.087
712.17	0.087
712.37	0.087
712.56	0.087
712.75	0.087
712.95	0.087
713.14	0.087
713.34	0.087
713.53	0.088
713.73	0.088
713.92	0.088
714.11	0.088
714.31	0.088
714.50	0.088
714.70	0.088
714.89	0.088
715.08	0.088
715.28	0.087
715.47	0.087
715.67	0.087
715.86	0.086
716.06	0.087
716.25	0.086
716.44	0.086
716.64	0.086
716.83	0.086
717.03	0.085
717.22	0.085
717.41	0.085
717.61	0.085
717.80	0.085
717.99	0.086
718.19	0.086
718.38	0.085
718.58	0.085
718.77	0.085
718.96	0.085
719.16	0.085
719.35	0.085
719.55	0.084
719.74	0.085
719.93	0.084
720.13	0.084
720.32	0.084
720.51	0.084
720.71	0.084
720.90	0.084
721.10	0.084
721.29	0.084
721.48	0.084
721.68	0.084
721.87	0.084
722.06	0.084
722.26	0.084
722.45	0.084
722.64	0.084
722.84	0.084
723.03	0.084
723.22	0.084
723.42	0.085
723.61	0.085
723.80	0.085
724.00	0.085
724.19	0.085
724.38	0.085
724.58	0.084
724.77	0.084
724.96	0.084
725.16	0.084
725.35	0.084
725.54	0.084
725.74	0.084
725.93	0.084
726.12	0.084
726.32	0.084
726.51	0.084
726.70	0.084
726.90	0.084
727.09	0.084
727.28	0.084
727.48	0.084
727.67	0.084
727.86	0.084
728.06	0.084
728.25	0.084
728.44	0.084
728.64	0.084
728.83	0.083
729.02	0.083
729.21	0.084
729.41	0.083
729.60	0.084
729.79	0.084
729.99	0.083
730.18	0.084
730.37	0.084
730.56	0.083
730.76	0.083
730.95	0.083
731.14	0.083
731.34	0.083
731.53	0.083
731.72	0.083
731.91	0.084
732.11	0.083
732.30	0.084
732.49	0.084
732.69	0.084
732.88	0.084
733.07	0.084
733.26	0.084
733.46	0.084
733.65	0.084
733.84	0.084
734.03	0.084
734.23	0.084
734.42	0.084
734.61	0.084
734.80	0.084
735.00	0.084
735.19	0.084
735.38	0.084
735.57	0.084
735.77	0.084
735.96	0.084
736.15	0.084
736.34	0.084
736.54	0.085
736.73	0.084
736.92	0.084
737.11	0.084
737.31	0.084
737.50	0.084
737.69	0.084
737.88	0.084
738.07	0.084
738.27	0.084
738.46	0.084
738.65	0.084
738.84	0.084
739.04	0.084
739.23	0.084
739.42	0.084
739.61	0.084
739.80	0.083
740.00	0.084
740.19	0.084
740.38	0.083
740.57	0.083
740.76	0.083
740.96	0.083
741.15	0.083
741.34	0.083
741.53	0.083
741.72	0.083
741.92	0.083
742.11	0.083
742.30	0.082
742.49	0.082
742.68	0.083
742.88	0.083
743.07	0.083
743.26	0.083
743.45	0.083
743.64	0.082
743.84	0.082
744.03	0.082
744.22	0.082
744.41	0.082
744.60	0.082
744.79	0.082
744.99	0.082
745.18	0.081
745.37	0.081
745.56	0.081
745.75	0.081
745.94	0.081
746.14	0.081
746.33	0.081
746.52	0.082
746.71	0.082
746.90	0.082
747.09	0.082
747.28	0.082
747.48	0.082
747.67	0.081
747.86	0.081
748.05	0.082
748.24	0.081
748.43	0.081
748.62	0.081
748.82	0.081
749.01	0.081
749.20	0.081
749.39	0.080
749.58	0.081
749.77	0.081
749.96	0.081
750.16	0.081
750.35	0.081
750.54	0.081
750.73	0.081
750.92	0.080
751.11	0.080
751.30	0.080
751.49	0.080
751.68	0.080
751.88	0.080
752.07	0.079
752.26	0.079
752.45	0.079
752.64	0.079
752.83	0.079
753.02	0.079
753.21	0.079
753.40	0.079
753.60	0.079
753.79	0.079
753.98	0.079
754.17	0.079
754.36	0.079
754.55	0.079
754.74	0.079
754.93	0.079
755.12	0.079
755.31	0.079
755.50	0.079
755.70	0.079
755.89	0.079
756.08	0.079
756.27	0.078
756.46	0.079
756.65	0.078
756.84	0.078
757.03	0.078
757.22	0.078
757.41	0.078
757.60	0.078
757.79	0.078
757.98	0.079
758.17	0.079
758.36	0.079
758.56	0.079
758.75	0.079
758.94	0.079
759.13	0.079
759.32	0.079
759.51	0.078
759.70	0.078
759.89	0.078
760.08	0.078
760.27	0.078
760.46	0.078
760.65	0.078
760.84	0.078
761.03	0.077
761.22	0.077
761.41	0.077
761.60	0.077
761.79	0.077
761.98	0.077
762.17	0.077
762.36	0.076
762.55	0.076
762.74	0.076
762.93	0.076
763.12	0.076
763.31	0.076
763.50	0.076
763.69	0.076
763.88	0.076
764.07	0.076
764.26	0.076
764.45	0.076
764.64	0.077
764.83	0.076
765.02	0.076
765.21	0.076
765.40	0.076
765.59	0.076
765.78	0.076
765.97	0.076
766.16	0.077
766.35	0.077
766.54	0.076
766.73	0.077
766.92	0.077
767.11	0.076
767.30	0.077
767.49	0.077
767.68	0.077
767.87	0.076
768.06	0.076
768.25	0.076
768.44	0.076
768.63	0.076
768.82	0.076
769.01	0.075
769.20	0.075
769.39	0.076
769.58	0.076
769.77	0.076
769.96	0.076
770.15	0.076
770.34	0.076
770.53	0.075
770.72	0.075
770.91	0.075
771.10	0.076
771.29	0.076
771.47	0.075
771.66	0.075
771.85	0.075
772.04	0.075
772.23	0.075
772.42	0.075
772.61	0.075
772.80	0.075
772.99	0.075
773.18	0.075
773.37	0.075
773.56	0.075
773.75	0.075
773.94	0.075
774.13	0.075
774.31	0.075
774.50	0.075
774.69	0.075
774.88	0.075
775.07	0.075
775.26	0.075
775.45	0.074
775.64	0.074
775.83	0.074
776.02	0.074
776.21	0.074
776.40	0.074
776.58	0.073
776.77	0.074
776.96	0.074
777.15	0.074
777.34	0.074
777.53	0.074
777.72	0.074
777.91	0.074
778.10	0.074
778.28	0.073
778.47	0.073
778.66	0.073
778.85	0.073
779.04	0.073
779.23	0.073
779.42	0.073
779.61	0.073
779.79	0.073
779.98	0.073
780.17	0.073
780.36	0.073
780.55	0.072
780.74	0.073
780.93	0.072
781.12	0.072
781.30	0.072
781.49	0.073
781.68	0.072
781.87	0.072
782.06	0.072
782.25	0.072
782.44	0.072
782.62	0.073
782.81	0.073
783.00	0.073
783.19	0.073
783.38	0.072
783.57	0.072
783.75	0.072
783.94	0.072
784.13	0.072
784.32	0.072
784.51	0.072
784.70	0.072
784.88	0.072
785.07	0.071
785.26	0.071
785.45	0.072
785.64	0.071
785.83	0.072
786.01	0.071
786.20	0.072
786.39	0.072
786.58	0.071
786.77	0.071
786.95	0.071
787.14	0.071
787.33	0.071
787.52	0.071
787.71	0.071
787.90	0.070
788.08	0.071
788.27	0.070
788.46	0.071
788.65	0.071
788.84	0.071
789.02	0.071
789.21	0.071
789.40	0.071
789.59	0.071
789.77	0.071
789.96	0.071
790.15	0.071
790.34	0.071
790.53	0.071
790.71	0.071
790.90	0.071
791.09	0.070
791.28	0.071
791.46	0.071
791.65	0.071
791.84	0.071
792.03	0.071
792.22	0.071
792.40	0.071
792.59	0.071
792.78	0.071
792.97	0.071
793.15	0.071
793.34	0.071
793.53	0.070
793.72	0.070
793.90	0.070
794.09	0.070
794.28	0.070
794.47	0.070
794.65	0.070
794.84	0.069
795.03	0.070
795.22	0.070
795.40	0.070
795.59	0.070
795.78	0.070
795.97	0.070
796.15	0.070
796.34	0.070
796.53	0.070
796.71	0.070
796.90	0.070
797.09	0.070
797.28	0.070
797.46	0.070
797.65	0.070
797.84	0.070
798.02	0.069
798.21	0.069
798.40	0.069
798.59	0.069
798.77	0.069
798.96	0.069
799.15	0.068
799.33	0.069
799.52	0.068
799.71	0.068
799.90	0.069
800.08	0.069
800.27	0.069
800.46	0.069
800.64	0.069
800.83	0.069
801.02	0.069
801.20	0.069
801.39	0.069
801.58	0.069
801.76	0.069
801.95	0.069
802.14	0.069
802.32	0.069
802.51	0.069
802.70	0.068
802.88	0.068
803.07	0.068
803.26	0.068
803.44	0.067
803.63	0.068
803.82	0.067
804.00	0.068
804.19	0.068
804.38	0.068
804.56	0.068
804.75	0.069
804.94	0.069
805.12	0.069
805.31	0.069
805.50	0.069
805.68	0.069
805.87	0.069
806.06	0.069
806.24	0.068
806.43	0.068
806.62	0.068
806.80	0.068
806.99	0.068
807.17	0.068
807.36	0.068
807.55	0.068
807.73	0.068
807.92	0.068
808.11	0.068
808.29	0.068
808.48	0.068
808.66	0.068
808.85	0.068
809.04	0.068
809.22	0.067
809.41	0.068
809.59	0.067
809.78	0.067
809.97	0.067
810.15	0.067
810.34	0.067
810.53	0.067
810.71	0.067
810.90	0.067
811.08	0.067
811.27	0.067
811.45	0.067
811.64	0.067
811.83	0.068
812.01	0.067
812.20	0.067
812.38	0.067
812.57	0.068
812.76	0.068
812.94	0.068
813.13	0.067
813.31	0.067
813.50	0.067
813.68	0.067
813.87	0.067
814.06	0.067
814.24	0.067
814.43	0.068
814.61	0.067
814.80	0.067
814.98	0.067
815.17	0.067
815.36	0.067
815.54	0.067
815.73	0.067
815.91	0.067
816.10	0.067
816.28	0.067
816.47	0.067
816.65	0.067
816.84	0.067
817.03	0.068
817.21	0.068
817.40	0.067
817.58	0.067
817.77	0.067
817.95	0.067
818.14	0.068
818.32	0.068
818.51	0.068
818.69	0.068
818.88	0.068
819.06	0.068
819.25	0.068
819.43	0.068
819.62	0.068
819.80	0.068
819.99	0.068
820.18	0.068
820.36	0.067
820.55	0.068
820.73	0.068
820.92	0.068
821.10	0.068
821.29	0.068
821.47	0.068
821.66	0.068
821.84	0.068
822.03	0.068
822.21	0.068
822.40	0.068
822.58	0.068
822.77	0.068
822.95	0.068
823.14	0.068
823.32	0.068
823.50	0.068
823.69	0.068
823.87	0.069
824.06	0.069
824.24	0.069
824.43	0.069
824.61	0.070
824.80	0.070
824.98	0.070
825.17	0.070
825.35	0.070
825.54	0.070
825.72	0.070
825.91	0.069
826.09	0.069
826.28	0.069
826.46	0.070
826.64	0.070
826.83	0.070
827.01	0.070
827.20	0.070
827.38	0.070
827.57	0.070
827.75	0.070
827.94	0.070
828.12	0.071
828.31	0.071
828.49	0.071
828.67	0.071
828.86	0.071
829.04	0.071
829.23	0.071
829.41	0.072
829.60	0.072
829.78	0.072
829.96	0.072
830.15	0.072
830.33	0.072
830.52	0.072
830.70	0.072
830.88	0.072
831.07	0.072
831.25	0.072
831.44	0.072
831.62	0.072
831.81	0.072
831.99	0.072
832.17	0.072
832.36	0.072
832.54	0.073
832.73	0.073
832.91	0.073
833.09	0.073
833.28	0.073
833.46	0.074
833.65	0.074
833.83	0.074
834.01	0.074
834.20	0.074
834.38	0.074
834.56	0.074
834.75	0.074
834.93	0.074
835.12	0.074
835.30	0.074
835.48	0.074
835.67	0.074
835.85	0.074
836.03	0.074
836.22	0.073
836.40	0.074
836.59	0.073
836.77	0.073
836.95	0.074
837.14	0.074
837.32	0.074
837.50	0.074
837.69	0.074
837.87	0.074
838.05	0.074
838.24	0.074
838.42	0.074
838.60	0.074
838.79	0.075
838.97	0.074
839.15	0.075
839.34	0.075
839.52	0.075
839.70	0.075
839.89	0.075
840.07	0.075
840.25	0.075
840.44	0.075
840.62	0.075
840.80	0.075
840.99	0.075
841.17	0.075
841.35	0.075
841.54	0.075
841.72	0.075
841.90	0.075
842.09	0.075
842.27	0.075
842.45	0.075
842.64	0.075
842.82	0.075
843.00	0.075
843.19	0.075
843.37	0.075
843.55	0.075
843.73	0.075
843.92	0.075
844.10	0.075
844.28	0.075
844.47	0.075
844.65	0.075
844.83	0.075
845.01	0.075
845.20	0.076
845.38	0.076
845.56	0.076
845.75	0.076
845.93	0.076
846.11	0.076
846.29	0.076
846.48	0.076
846.66	0.076
846.84	0.076
847.02	0.076
847.21	0.076
847.39	0.076
847.57	0.076
847.76	0.076
847.94	0.076
848.12	0.075
848.30	0.076
848.49	0.075
848.67	0.075
848.85	0.075
849.03	0.076
849.22	0.076
849.40	0.076
849.58	0.076
849.76	0.076
849.95	0.077
850.13	0.077
850.31	0.077
850.49	0.077
850.67	0.078
850.86	0.078
851.04	0.077
851.22	0.077
851.40	0.077
851.59	0.077
851.77	0.077
851.95	0.077
852.13	0.077
852.31	0.077
852.50	0.077
852.68	0.077
852.86	0.077
853.04	0.077
853.23	0.076
853.41	0.076
853.59	0.076
853.77	0.076
853.95	0.076
854.14	0.076
854.32	0.076
854.50	0.076
854.68	0.075
854.86	0.076
855.04	0.076
855.23	0.076
855.41	0.076
855.59	0.076
855.77	0.076
855.95	0.077
856.14	0.077
856.32	0.077
856.50	0.077
856.68	0.077
856.86	0.077
857.04	0.077
857.23	0.077
857.41	0.076
857.59	0.077
857.77	0.077
857.95	0.076
858.13	0.076
858.32	0.076
858.50	0.077
858.68	0.076
858.86	0.076
859.04	0.077
859.22	0.077
859.41	0.077
859.59	0.077
859.77	0.076
859.95	0.076
860.13	0.077
860.31	0.077
860.49	0.077
860.68	0.077
860.86	0.077
861.04	0.076
861.22	0.076
861.40	0.076
861.58	0.076
861.76	0.076
861.94	0.077
862.13	0.077
862.31	0.077
862.49	0.077
862.67	0.077
862.85	0.077
863.03	0.077
863.21	0.077
863.39	0.078
863.57	0.078
863.76	0.078
863.94	0.078
864.12	0.078
864.30	0.078
864.48	0.078
864.66	0.078
864.84	0.078
865.02	0.078
865.20	0.078
865.38	0.078
865.57	0.078
865.75	0.078
865.93	0.078
866.11	0.078
866.29	0.078
866.47	0.079
866.65	0.079
866.83	0.079
867.01	0.079
867.19	0.078
867.37	0.079
867.55	0.079
867.73	0.078
867.92	0.078
868.10	0.078
868.28	0.078
868.46	0.078
868.64	0.078
868.82	0.078
869.00	0.078
869.18	0.078
869.36	0.078
869.54	0.079
869.72	0.079
869.90	0.079
870.08	0.079
870.26	0.078
870.44	0.078
870.62	0.079
870.80	0.078
870.98	0.079
871.16	0.079
871.34	0.078
871.53	0.079
871.71	0.079
871.89	0.079
872.07	0.079
872.25	0.079
872.43	0.080
872.61	0.080
872.79	0.080
872.97	0.080
873.15	0.080
873.33	0.080
873.51	0.080
873.69	0.080
873.87	0.080
874.05	0.080
874.23	0.080
874.41	0.080
874.59	0.080
874.77	0.079
874.95	0.079
875.13	0.080
875.31	0.079
875.49	0.080
875.67	0.080
875.85	0.080
876.03	0.080
876.21	0.080
876.39	0.080
876.57	0.080
876.75	0.080
876.93	0.080
877.11	0.080
877.29	0.080
877.47	0.079
877.65	0.080
877.82	0.081
878.00	0.080
878.18	0.080
878.36	0.080
878.54	0.080
878.72	0.080
878.90	0.080
879.08	0.081
879.26	0.081
879.44	0.081
879.62	0.081
879.80	0.081
879.98	0.081
880.16	0.081
880.34	0.081
880.52	0.081
880.70	0.081
880.88	0.081
881.06	0.081
881.24	0.081
881.42	0.081
881.59	0.081
881.77	0.080
881.95	0.081
882.13	0.081
882.31	0.081
882.49	0.081
882.67	0.081
882.85	0.081
883.03	0.081
883.21	0.081
883.39	0.081
883.57	0.082
883.75	0.082
883.92	0.082
884.10	0.082
884.28	0.082
884.46	0.082
884.64	0.082
884.82	0.082
885.00	0.082
885.18	0.082
885.36	0.082
885.54	0.082
885.71	0.082
885.89	0.082
886.07	0.082
886.25	0.082
886.43	0.083
886.61	0.083
886.79	0.083
886.97	0.083
887.15	0.083
887.32	0.083
887.50	0.083
887.68	0.083
887.86	0.083
888.04	0.083
888.22	0.083
888.40	0.083
888.57	0.083
888.75	0.082
888.93	0.083
889.11	0.083
889.29	0.083
889.47	0.083
889.65	0.083
889.82	0.083
890.00	0.083
890.18	0.083
890.36	0.083
890.54	0.083
890.72	0.084
890.90	0.083
891.07	0.083
891.25	0.083
891.43	0.083
891.61	0.083
891.79	0.083
891.97	0.083
892.14	0.083
892.32	0.083
892.50	0.083
892.68	0.083
892.86	0.084
893.03	0.084
893.21	0.084
893.39	0.084
893.57	0.084
893.75	0.084
893.93	0.084
894.10	0.084
894.28	0.085
894.46	0.084
894.64	0.084
894.82	0.084
894.99	0.084
895.17	0.084
895.35	0.084
895.53	0.084
895.71	0.084
895.88	0.084
896.06	0.084
896.24	0.084
896.42	0.084
896.59	0.084
896.77	0.084
896.95	0.084
897.13	0.084
897.31	0.084
897.48	0.084
897.66	0.085
897.84	0.085
898.02	0.085
898.19	0.085
898.37	0.085
898.55	0.085
898.73	0.085
898.91	0.085
899.08	0.085
899.26	0.085
899.44	0.085
899.62	0.085
899.79	0.085
899.97	0.086
900.15	0.085
900.33	0.085
900.50	0.085
900.68	0.085
900.86	0.085
901.04	0.085
901.21	0.085
901.39	0.086
901.57	0.085
901.74	0.085
901.92	0.085
902.10	0.086
902.28	0.086
902.45	0.086
902.63	0.086
902.81	0.086
902.99	0.086
903.16	0.086
903.34	0.086
903.52	0.086
903.69	0.086
903.87	0.086
904.05	0.086
904.22	0.087
904.40	0.087
904.58	0.087
904.76	0.087
904.93	0.087
905.11	0.087
905.29	0.088
905.46	0.087
905.64	0.088
905.82	0.088
905.99	0.087
906.17	0.087
906.35	0.088
906.53	0.088
906.70	0.088
906.88	0.088
907.06	0.088
907.23	0.088
907.41	0.088
907.59	0.088
907.76	0.088
907.94	0.089
908.12	0.089
908.29	0.088
908.47	0.089
908.65	0.089
908.82	0.089
909.00	0.089
909.18	0.089
909.35	0.089
909.53	0.089
909.71	0.089
909.88	0.089
910.06	0.089
910.23	0.089
910.41	0.089
910.59	0.089
910.76	0.089
910.94	0.089
911.12	0.089
911.29	0.089
911.47	0.089
911.65	0.089
911.82	0.089
912.00	0.089
912.17	0.089
912.35	0.090
912.53	0.090
912.70	0.090
912.88	0.091
913.06	0.091
913.23	0.092
913.41	0.092
913.58	0.092
913.76	0.092
913.94	0.092
914.11	0.092
914.29	0.092
914.46	0.092
914.64	0.092
914.82	0.092
914.99	0.092
915.17	0.092
915.34	0.092
915.52	0.092
915.70	0.092
915.87	0.092
916.05	0.092
916.22	0.092
916.40	0.092
916.57	0.092
916.75	0.092
916.93	0.093
917.10	0.092
917.28	0.092
917.45	0.092
917.63	0.092
917.80	0.092
917.98	0.093
918.16	0.093
918.33	0.093
918.51	0.094
918.68	0.094
918.86	0.094
919.03	0.094
919.21	0.095
919.39	0.096
919.56	0.096
919.74	0.096
919.91	0.096
920.09	0.096
920.26	0.097
920.44	0.097
920.61	0.097
920.79	0.097
920.96	0.097
921.14	0.097
921.31	0.097
921.49	0.097
921.67	0.098
921.84	0.098
922.02	0.098
922.19	0.098
922.37	0.098
922.54	0.099
922.72	0.099
922.89	0.099
923.07	0.099
923.24	0.100
923.42	0.100
923.59	0.100
923.77	0.100
923.94	0.100
924.12	0.101
924.29	0.101
924.47	0.101
924.64	0.102
924.82	0.102
924.99	0.102
925.17	0.103
925.34	0.103
925.52	0.103
925.69	0.103
925.87	0.104
926.04	0.104
926.22	0.104
926.39	0.104
926.57	0.104
926.74	0.104
926.91	0.105
927.09	0.105
927.26	0.105
927.44	0.106
927.61	0.106
927.79	0.107
927.96	0.108
928.14	0.108
928.31	0.108
928.49	0.108
928.66	0.109
928.84	0.110
929.01	0.110
929.18	0.111
929.36	0.111
929.53	0.112
929.71	0.112
929.88	0.112
930.06	0.112
930.23	0.113
930.41	0.113
930.58	0.113
930.75	0.114
930.93	0.114
931.10	0.114
931.28	0.115
931.45	0.115
931.63	0.116
931.80	0.116
931.97	0.116
932.15	0.117
932.32	0.117
932.50	0.117
932.67	0.118
932.84	0.118
933.02	0.119
933.19	0.119
933.37	0.120
933.54	0.120
933.71	0.121
933.89	0.121
934.06	0.122
934.24	0.122
934.41	0.123
934.58	0.124
934.76	0.124
934.93	0.125
935.11	0.125
935.28	0.125
935.45	0.126
935.63	0.126
935.80	0.127
935.98	0.127
936.15	0.127
936.32	0.128
936.50	0.129
936.67	0.129
936.84	0.129
937.02	0.131
937.19	0.131
937.36	0.131
937.54	0.132
937.71	0.132
937.89	0.133
938.06	0.133
938.23	0.134
938.41	0.135
938.58	0.136
938.75	0.136
938.93	0.137
939.10	0.137
939.27	0.137
939.45	0.138
939.62	0.139
939.79	0.140
939.97	0.140
940.14	0.140
940.31	0.141
940.49	0.141
940.66	0.141
940.83	0.142
941.01	0.142
941.18	0.143
941.35	0.144
941.53	0.144
941.70	0.145
941.87	0.146
942.05	0.146
942.22	0.147
942.39	0.148
942.57	0.149
942.74	0.150
942.91	0.150
943.08	0.150
943.26	0.151
943.43	0.152
943.60	0.152
943.78	0.152
943.95	0.153
944.12	0.154
944.29	0.155
944.47	0.155
944.64	0.156
944.81	0.157
944.99	0.158
945.16	0.159
945.33	0.159
945.50	0.160
945.68	0.161
945.85	0.161
946.02	0.162
946.20	0.163
946.37	0.164
946.54	0.165
946.71	0.166
946.89	0.166
947.06	0.167
947.23	0.168
947.40	0.169
947.58	0.169
947.75	0.171
947.92	0.172
948.09	0.172
948.27	0.173
948.44	0.175
948.61	0.176
948.78	0.177
948.96	0.179
949.13	0.179
949.30	0.180
949.47	0.181
949.65	0.182
949.82	0.184
949.99	0.184
950.16	0.186
950.33	0.187
950.51	0.188
950.68	0.189
950.85	0.190
951.02	0.192
951.20	0.193
951.37	0.194
951.54	0.194
951.71	0.195
951.88	0.197
952.06	0.198
952.23	0.199
952.40	0.200
952.57	0.201
952.74	0.203
952.92	0.204
953.09	0.205
953.26	0.207
953.43	0.208
953.60	0.209
953.77	0.209
953.95	0.210
954.12	0.212
954.29	0.213
954.46	0.215
954.63	0.216
954.81	0.217
954.98	0.218
955.15	0.220
955.32	0.221
955.49	0.221
955.66	0.223
955.84	0.224
956.01	0.224
956.18	0.227
956.35	0.228
956.52	0.228
956.69	0.230
956.87	0.230
957.04	0.232
957.21	0.234
957.38	0.233
957.55	0.235
957.72	0.236
957.89	0.237
958.07	0.237
958.24	0.239
958.41	0.240
958.58	0.240
958.75	0.241
958.92	0.242
959.09	0.242
959.26	0.244
959.44	0.244
959.61	0.245
959.78	0.246
959.95	0.247
960.12	0.248
960.29	0.250
960.46	0.249
960.63	0.249
960.81	0.249
960.98	0.250
961.15	0.251
961.32	0.252
961.49	0.251
961.66	0.253
961.83	0.253
962.00	0.253
962.17	0.254
962.34	0.254
962.52	0.255
962.69	0.255
962.86	0.254
963.03	0.255
963.20	0.255
963.37	0.255
963.54	0.256
963.71	0.255
963.88	0.255
964.05	0.256
964.22	0.257
964.39	0.256
964.56	0.256
964.74	0.258
964.91	0.257
965.08	0.258
965.25	0.258
965.42	0.258
965.59	0.259
965.76	0.259
965.93	0.261
966.10	0.259
966.27	0.259
966.44	0.259
966.61	0.261
966.78	0.260
966.95	0.260
967.12	0.261
967.29	0.263
967.46	0.262
967.63	0.261
967.80	0.262
967.97	0.261
968.14	0.261
968.32	0.262
968.49	0.262
968.66	0.261
968.83	0.262
969.00	0.262
969.17	0.261
969.34	0.263
969.51	0.264
969.68	0.263
969.85	0.263
970.02	0.264
970.19	0.263
970.36	0.264
970.53	0.265
970.70	0.263
970.87	0.263
971.04	0.262
971.21	0.263
971.38	0.262
971.55	0.263
971.72	0.263
971.89	0.264
972.06	0.263
972.23	0.263
972.40	0.262
972.57	0.262
972.74	0.263
972.91	0.264
973.07	0.263
973.24	0.263
973.41	0.263
973.58	0.262
973.75	0.274
973.92	0.262
974.09	0.262
974.26	0.262
974.43	0.261
974.60	0.262
974.77	0.262
974.94	0.262
975.11	0.263
975.28	0.264
975.45	0.262
975.62	0.263
975.79	0.265
975.96	0.263
976.13	0.262
976.30	0.264
976.47	0.262
976.64	0.262
976.80	0.262
976.97	0.262
977.14	0.262
977.31	0.261
977.48	0.262
977.65	0.262
977.82	0.260
977.99	0.262
978.16	0.261
978.33	0.262
978.50	0.261
978.67	0.261
978.83	0.261
979.00	0.262
979.17	0.261
979.34	0.260
979.51	0.260
979.68	0.261
979.85	0.260
980.02	0.261
980.19	0.259
980.36	0.260
980.52	0.261
980.69	0.259
980.86	0.259
981.03	0.259
981.20	0.258
981.37	0.259
981.54	0.259
981.71	0.258
981.88	0.259
982.04	0.258
982.21	0.257
982.38	0.259
982.55	0.258
982.72	0.257
982.89	0.258
983.06	0.256
983.22	0.256
983.39	0.256
983.56	0.256
983.73	0.255
983.90	0.255
984.07	0.257
984.24	0.254
984.40	0.254
984.57	0.252
984.74	0.255
984.91	0.256
985.08	0.253
985.25	0.251
985.41	0.252
985.58	0.252
985.75	0.253
985.92	0.252
986.09	0.251
986.26	0.251
986.42	0.251
986.59	0.249
986.76	0.251
986.93	0.251
987.10	0.251
987.27	0.249
987.43	0.247
987.60	0.249
987.77	0.249
987.94	0.247
988.11	0.248
988.27	0.248
988.44	0.248
988.61	0.246
988.78	0.245
988.95	0.245
989.11	0.247
989.28	0.245
989.45	0.245
989.62	0.245
989.79	0.245
989.95	0.244
990.12	0.246
990.29	0.245
990.46	0.243
990.62	0.242
990.79	0.243
990.96	0.243
991.13	0.243
991.30	0.241
991.46	0.240
991.63	0.239
991.80	0.238
991.97	0.238
992.13	0.239
992.30	0.240
992.47	0.239
992.64	0.238
992.80	0.238
992.97	0.239
993.14	0.237
993.31	0.234
993.47	0.236
993.64	0.234
993.81	0.233
993.98	0.233
994.14	0.232
994.31	0.231
994.48	0.232
994.64	0.233
994.81	0.231
994.98	0.231
995.15	0.229
995.31	0.229
995.48	0.229
995.65	0.231
995.82	0.228
995.98	0.227
996.15	0.228
996.32	0.230
996.48	0.229
996.65	0.228
996.82	0.226
996.99	0.227
997.15	0.226
997.32	0.228
997.49	0.226
997.65	0.227
997.82	0.226
997.99	0.224
998.15	0.224
998.32	0.225
998.49	0.224
998.65	0.224
998.82	0.224
998.99	0.222
999.15	0.221
999.32	0.221
999.49	0.220
999.65	0.221
999.82	0.218
999.99	0.219
1000.15	0.219
1000.32	0.219
1000.49	0.219
1000.65	0.217
1000.82	0.217
1000.99	0.218
1001.15	0.217
1001.32	0.217
1001.49	0.216
1001.65	0.216
1001.82	0.219
1001.99	0.215
1002.15	0.214
1002.32	0.214
1002.49	0.215
1002.65	0.213
1002.82	0.211
1002.99	0.211
1003.15	0.212
1003.32	0.212
1003.48	0.212
1003.65	0.211
1003.82	0.211
1003.98	0.209
1004.15	0.209
1004.32	0.210
1004.48	0.210
1004.65	0.211
1004.81	0.209
1004.98	0.207
1005.15	0.208
1005.31	0.207
1005.48	0.204
1005.64	0.204
1005.81	0.207
1005.98	0.204
1006.14	0.203
1006.31	0.204
1006.47	0.203
1006.64	0.201
1006.81	0.201
1006.97	0.201
1007.14	0.201
1007.30	0.203
1007.47	0.202
1007.63	0.200
1007.80	0.198
1007.97	0.198
1008.13	0.198
1008.30	0.197
1008.46	0.198
1008.63	0.197
1008.79	0.196
1008.96	0.197
1009.13	0.197
1009.29	0.194
1009.46	0.195
1009.62	0.195
1009.79	0.192
1009.95	0.193
1010.12	0.193
1010.28	0.193
1010.45	0.192
1010.62	0.192
1010.78	0.191
1010.95	0.190
1011.11	0.191
1011.28	0.190
1011.44	0.192
1011.61	0.190
1011.77	0.189
1011.94	0.188
1012.10	0.188
1012.27	0.188
1012.43	0.188
1012.60	0.186
1012.76	0.187
1012.93	0.186
1013.10	0.184
1013.26	0.182
1013.43	0.184
1013.59	0.191
1013.76	0.184
1013.92	0.183
1014.09	0.182
1014.25	0.183
1014.42	0.184
1014.58	0.183
1014.75	0.185
1014.91	0.184
1015.08	0.185
1015.24	0.182
1015.41	0.183
1015.57	0.183
1015.73	0.182
1015.90	0.180
1016.06	0.183
1016.23	0.181
1016.39	0.181
1016.56	0.182
1016.72	0.181
1016.89	0.181
1017.05	0.182
1017.22	0.178
1017.38	0.179
1017.55	0.177
1017.71	0.178
1017.88	0.177
1018.04	0.178
1018.21	0.175
1018.37	0.175
1018.53	0.175
1018.70	0.174
1018.86	0.174
1019.03	0.177
1019.19	0.175
1019.36	0.175
1019.52	0.177
1019.69	0.177
1019.85	0.175
1020.01	0.176
1020.18	0.175
1020.34	0.174
1020.51	0.174
1020.67	0.174
1020.84	0.171
1021.00	0.171
1021.16	0.168
1021.33	0.169
1021.49	0.167
1021.66	0.168
1021.82	0.165
1021.98	0.166
1022.15	0.165
1022.31	0.164
1022.48	0.164
1022.64	0.166
1022.80	0.165
1022.97	0.163
1023.13	0.163
1023.30	0.164
1023.46	0.164
1023.62	0.162
1023.79	0.163
1023.95	0.164
1024.12	0.163
1024.28	0.162
1024.44	0.162
1024.61	0.161
1024.77	0.160
1024.93	0.160
1025.10	0.161
1025.26	0.159
1025.43	0.159
1025.59	0.156
1025.75	0.160
1025.92	0.159
1026.08	0.159
1026.24	0.158
1026.41	0.159
1026.57	0.157
1026.73	0.155
1026.90	0.157
1027.06	0.155
1027.23	0.158
1027.39	0.157
1027.55	0.156
1027.72	0.154
1027.88	0.154
1028.04	0.155
1028.21	0.157
1028.37	0.150
1028.53	0.156
1028.70	0.153
1028.86	0.151
1029.02	0.150
1029.19	0.152
1029.35	0.149
1029.51	0.149
1029.67	0.148
1029.84	0.149
1030.00	0.143
1030.16	0.144
1030.33	0.147
1030.49	0.145
1030.65	0.143
1030.82	0.159
1030.98	0.146
1031.14	0.147
1031.31	0.147
1031.47	0.144
1031.63	0.148
1031.79	0.146
1031.96	0.148
1032.12	0.149
1032.28	0.146
1032.45	0.150
1032.61	0.149
1032.77	0.147
1032.93	0.144
1033.10	0.146
1033.26	0.148
1033.42	0.145
1033.58	0.145
1033.75	0.146
1033.91	0.145
1034.07	0.147
1034.24	0.145
1034.40	0.143
1034.56	0.143
1034.72	0.143
1034.89	0.142
1035.05	0.140
1035.21	0.141
1035.37	0.140
1035.54	0.143
1035.70	0.139
1035.86	0.138
1036.02	0.139
1036.19	0.138
1036.35	0.136
1036.51	0.141
1036.67	0.140
1036.83	0.139
1037.00	0.137
1037.16	0.137
1037.32	0.138
1037.48	0.137
1037.65	0.142
1037.81	0.137
1037.97	0.138
1038.13	0.138
1038.29	0.136
1038.46	0.132
1038.62	0.135
1038.78	0.133
1038.94	0.130
1039.10	0.133
1039.27	0.129
1039.43	0.131
1039.59	0.131
1039.75	0.130
1039.91	0.128
1040.08	0.129
1040.24	0.132
1040.40	0.134
1040.56	0.133
1040.72	0.128
1040.89	0.131
1041.05	0.132
1041.21	0.132
1041.37	0.128
1041.53	0.134
1041.69	0.130
1041.86	0.129
1042.02	0.127
1042.18	0.126
1042.34	0.129
1042.50	0.133
1042.66	0.129
1042.83	0.129
1042.99	0.130
1043.15	0.127
1043.31	0.129
1043.47	0.135
1043.63	0.132
1043.79	0.133
1043.96	0.134
1044.12	0.138
1044.28	0.135
1044.44	0.137
1044.60	0.132
1044.76	0.131
1044.92	0.134
1045.09	0.135
1045.25	0.130
1045.41	0.131
1045.57	0.126
1045.73	0.125
1045.89	0.128
1046.05	0.129
1046.21	0.130
1046.38	0.136
1046.54	0.122
1046.70	0.149
1046.86	0.120
>>>>>End Processed Spectral Data<<<<<
