SpectraSuite Data File
++++++++++++++++++++++++++++++++++++
Date: Mon May 20 12:11:53 CDT 2013
User: Students
Dark Spectrum Present: Yes
Reference Spectrum Present: Yes
Number of Sampled Component Spectra: 1
Spectrometers: USB4H00887
Integration Time (usec): 60000 (USB4H00887)
Spectra Averaged: 5 (USB4H00887)
Boxcar Smoothing: 5 (USB4H00887)
Correct for Electrical Dark: No (USB4H00887)
Strobe/Lamp Enabled: No (USB4H00887)
Correct for Detector Non-linearity: No (USB4H00887)
Correct for Stray Light: No (USB4H00887)
Number of Pixels in Processed Spectrum: 3648
>>>>>Begin Processed Spectral Data<<<<<
345.83	-0.039
346.05	-0.039
346.26	-0.039
346.48	-0.000
346.70	0.138
346.92	0.104
347.14	0.069
347.35	0.066
347.57	0.423
347.79	-0.315
348.01	-0.202
348.23	-0.285
348.44	-0.000
348.66	0.239
348.88	-0.312
349.10	-0.043
349.32	0.002
349.53	0.022
349.75	0.021
349.97	-0.001
350.19	0.069
350.41	0.056
350.62	0.085
350.84	-0.002
351.06	-0.010
351.28	-0.048
351.50	-0.195
351.71	-0.075
351.93	-0.059
352.15	-0.023
352.37	-0.041
352.58	-0.009
352.80	-0.004
353.02	0.029
353.24	0.032
353.46	0.090
353.67	-0.089
353.89	0.023
354.11	0.014
354.33	0.028
354.54	0.090
354.76	0.124
354.98	0.171
355.20	0.185
355.41	0.087
355.63	0.175
355.85	0.087
356.07	1.009
356.28	0.076
356.50	0.132
356.72	0.052
356.94	0.140
357.15	0.184
357.37	-0.000
357.59	0.084
357.81	0.009
358.02	0.030
358.24	0.023
358.46	0.061
358.68	0.028
358.89	0.020
359.11	-0.000
359.33	0.003
359.55	-0.208
359.76	0.039
359.98	0.045
360.20	0.063
360.42	0.053
360.63	0.072
360.85	0.045
361.07	0.342
361.29	0.057
361.50	0.185
361.72	0.074
361.94	0.240
362.15	0.122
362.37	0.072
362.59	0.081
362.81	0.135
363.02	0.215
363.24	0.330
363.46	0.192
363.68	0.248
363.89	0.152
364.11	0.208
364.33	0.277
364.54	0.178
364.76	0.242
364.98	0.260
365.20	0.296
365.41	0.180
365.63	0.208
365.85	0.142
366.06	0.436
366.28	0.467
366.50	0.323
366.71	0.124
366.93	0.161
367.15	0.136
367.37	0.135
367.58	0.171
367.80	0.195
368.02	0.653
368.23	0.171
368.45	0.182
368.67	0.169
368.88	0.144
369.10	-0.000
369.32	0.101
369.53	0.067
369.75	0.101
369.97	0.198
370.19	0.133
370.40	0.064
370.62	0.190
370.84	0.074
371.05	0.389
371.27	0.112
371.49	0.164
371.70	0.200
371.92	0.298
372.14	0.124
372.35	0.127
372.57	0.127
372.79	0.295
373.00	0.077
373.22	0.129
373.44	0.113
373.65	0.099
373.87	0.114
374.09	0.471
374.30	0.103
374.52	0.112
374.74	0.086
374.95	0.312
375.17	0.117
375.39	-0.000
375.60	0.141
375.82	0.235
376.04	0.089
376.25	0.116
376.47	0.072
376.68	0.158
376.90	0.098
377.12	0.185
377.33	0.123
377.55	0.289
377.77	0.131
377.98	0.195
378.20	0.128
378.42	0.168
378.63	0.213
378.85	-0.000
379.07	0.159
379.28	0.614
379.50	0.380
379.71	0.193
379.93	0.133
380.15	0.184
380.36	0.270
380.58	0.174
380.80	0.545
381.01	0.154
381.23	0.137
381.44	0.146
381.66	0.184
381.88	0.240
382.09	-0.095
382.31	0.137
382.53	0.150
382.74	1.059
382.96	0.225
383.17	0.174
383.39	0.225
383.61	0.284
383.82	0.186
384.04	0.204
384.25	0.255
384.47	0.248
384.69	0.257
384.90	0.235
385.12	0.487
385.33	0.309
385.55	0.223
385.77	0.364
385.98	0.185
386.20	0.260
386.41	0.230
386.63	0.251
386.85	0.195
387.06	0.230
387.28	0.334
387.49	0.226
387.71	0.160
387.93	0.150
388.14	0.429
388.36	0.187
388.57	0.174
388.79	0.198
389.01	1.029
389.22	0.283
389.44	0.245
389.65	0.210
389.87	0.210
390.08	0.256
390.30	0.193
390.52	0.388
390.73	0.396
390.95	0.254
391.16	0.262
391.38	-0.000
391.59	0.270
391.81	0.233
392.03	0.201
392.24	0.210
392.46	0.178
392.67	0.163
392.89	0.216
393.10	0.317
393.32	0.240
393.53	0.251
393.75	0.165
393.97	0.184
394.18	0.252
394.40	0.226
394.61	0.258
394.83	0.230
395.04	0.281
395.26	0.191
395.47	0.281
395.69	0.234
395.91	0.252
396.12	0.303
396.34	0.319
396.55	0.199
396.77	0.298
396.98	1.298
397.20	0.366
397.41	0.385
397.63	0.281
397.84	0.259
398.06	0.244
398.27	0.247
398.49	0.283
398.71	0.216
398.92	0.267
399.14	0.354
399.35	0.421
399.57	0.404
399.78	0.272
400.00	0.266
400.21	0.339
400.43	0.266
400.64	0.287
400.86	0.634
401.07	0.343
401.29	0.292
401.50	0.310
401.72	0.444
401.93	0.281
402.15	0.353
402.36	0.315
402.58	0.262
402.79	0.284
403.01	0.451
403.22	0.364
403.44	0.248
403.65	0.383
403.87	0.432
404.08	0.356
404.30	0.574
404.51	0.310
404.73	0.377
404.94	0.325
405.16	0.343
405.37	0.271
405.59	0.487
405.80	0.301
406.02	0.378
406.23	0.368
406.45	0.391
406.66	0.429
406.88	0.293
407.09	0.449
407.31	0.351
407.52	0.438
407.74	0.357
407.95	0.416
408.17	0.387
408.38	0.401
408.60	0.264
408.81	0.457
409.03	0.331
409.24	0.327
409.45	0.374
409.67	0.363
409.88	0.327
410.10	0.410
410.31	0.352
410.53	0.338
410.74	0.471
410.96	0.474
411.17	0.491
411.39	0.391
411.60	0.365
411.82	0.432
412.03	0.417
412.24	0.407
412.46	0.598
412.67	0.487
412.89	0.476
413.10	0.485
413.32	0.442
413.53	0.521
413.75	0.548
413.96	0.397
414.17	0.526
414.39	0.528
414.60	0.419
414.82	0.551
415.03	0.420
415.25	0.470
415.46	0.319
415.68	0.438
415.89	0.744
416.10	0.593
416.32	0.349
416.53	0.402
416.75	0.385
416.96	0.467
417.18	0.411
417.39	0.396
417.60	0.400
417.82	0.579
418.03	0.499
418.25	0.421
418.46	0.439
418.67	0.396
418.89	0.425
419.10	0.435
419.32	0.602
419.53	0.538
419.75	0.449
419.96	0.396
420.17	0.472
420.39	0.453
420.60	0.471
420.82	0.578
421.03	0.469
421.24	0.398
421.46	0.434
421.67	0.449
421.89	0.394
422.10	0.424
422.31	0.411
422.53	0.576
422.74	0.437
422.96	0.358
423.17	0.393
423.38	0.471
423.60	0.400
423.81	0.500
424.03	0.439
424.24	0.489
424.45	0.495
424.67	0.506
424.88	0.461
425.09	0.501
425.31	0.454
425.52	0.481
425.74	0.546
425.95	0.597
426.16	0.466
426.38	0.538
426.59	0.488
426.80	0.547
427.02	0.573
427.23	0.449
427.45	0.577
427.66	0.565
427.87	0.445
428.09	0.477
428.30	0.532
428.51	0.513
428.73	0.564
428.94	0.510
429.15	0.507
429.37	0.489
429.58	0.508
429.79	0.471
430.01	0.571
430.22	0.568
430.44	0.575
430.65	0.521
430.86	0.565
431.08	0.550
431.29	0.504
431.50	0.580
431.72	0.750
431.93	0.629
432.14	0.473
432.36	0.514
432.57	0.527
432.78	0.552
433.00	0.503
433.21	0.495
433.42	0.606
433.64	0.533
433.85	0.604
434.06	0.498
434.28	0.519
434.49	0.535
434.70	0.546
434.92	0.548
435.13	0.577
435.34	0.588
435.56	0.568
435.77	0.560
435.98	0.697
436.20	0.593
436.41	0.514
436.62	0.508
436.83	0.573
437.05	0.640
437.26	0.571
437.47	0.512
437.69	0.553
437.90	0.507
438.11	0.506
438.33	0.547
438.54	0.567
438.75	0.713
438.97	0.698
439.18	0.539
439.39	0.562
439.60	0.602
439.82	0.566
440.03	0.530
440.24	0.746
440.46	0.576
440.67	0.565
440.88	0.599
441.10	0.562
441.31	0.561
441.52	0.603
441.73	0.672
441.95	0.602
442.16	0.559
442.37	0.848
442.58	0.550
442.80	0.536
443.01	0.682
443.22	0.628
443.44	0.540
443.65	0.628
443.86	0.632
444.07	0.672
444.29	0.594
444.50	0.739
444.71	0.569
444.92	0.534
445.14	0.662
445.35	0.693
445.56	0.555
445.78	0.648
445.99	0.654
446.20	0.571
446.41	0.633
446.63	0.628
446.84	0.596
447.05	0.604
447.26	0.706
447.48	0.615
447.69	0.591
447.90	0.668
448.11	0.593
448.33	0.615
448.54	0.629
448.75	0.657
448.96	0.668
449.18	0.705
449.39	0.626
449.60	0.616
449.81	0.725
450.03	0.630
450.24	0.683
450.45	0.651
450.66	0.636
450.87	0.655
451.09	0.614
451.30	0.594
451.51	0.650
451.72	0.660
451.94	0.674
452.15	0.733
452.36	0.625
452.57	0.636
452.78	0.639
453.00	0.658
453.21	0.623
453.42	0.605
453.63	0.688
453.85	0.662
454.06	0.657
454.27	0.766
454.48	0.688
454.69	0.631
454.91	0.691
455.12	0.611
455.33	0.680
455.54	0.706
455.75	0.680
455.97	0.695
456.18	0.686
456.39	0.692
456.60	0.704
456.81	0.657
457.03	0.664
457.24	0.662
457.45	0.728
457.66	0.689
457.87	0.652
458.09	0.669
458.30	0.602
458.51	0.704
458.72	0.726
458.93	0.742
459.15	0.656
459.36	0.711
459.57	0.727
459.78	0.765
459.99	0.693
460.20	0.657
460.42	0.724
460.63	0.684
460.84	0.673
461.05	0.687
461.26	0.729
461.47	0.668
461.69	0.710
461.90	0.740
462.11	0.706
462.32	0.748
462.53	0.703
462.74	0.778
462.96	0.692
463.17	0.678
463.38	0.712
463.59	0.802
463.80	0.679
464.01	0.697
464.23	0.771
464.44	0.738
464.65	0.743
464.86	0.761
465.07	0.768
465.28	0.741
465.49	0.762
465.71	0.730
465.92	0.761
466.13	0.803
466.34	0.747
466.55	0.788
466.76	0.759
466.97	0.783
467.19	0.771
467.40	0.801
467.61	0.797
467.82	0.729
468.03	0.708
468.24	0.767
468.45	0.788
468.66	0.777
468.88	0.782
469.09	0.778
469.30	0.812
469.51	0.756
469.72	0.788
469.93	0.770
470.14	0.755
470.35	0.828
470.57	0.784
470.78	0.737
470.99	0.839
471.20	0.792
471.41	0.763
471.62	0.800
471.83	0.783
472.04	0.803
472.25	0.831
472.47	0.767
472.68	0.772
472.89	0.781
473.10	0.818
473.31	0.779
473.52	0.827
473.73	0.845
473.94	0.786
474.15	0.803
474.36	0.805
474.57	0.827
474.79	0.806
475.00	0.807
475.21	0.795
475.42	0.868
475.63	0.791
475.84	0.813
476.05	0.821
476.26	0.797
476.47	0.825
476.68	0.861
476.89	0.805
477.10	0.842
477.32	0.833
477.53	0.872
477.74	0.807
477.95	0.838
478.16	0.800
478.37	0.827
478.58	0.829
478.79	0.839
479.00	0.838
479.21	0.808
479.42	0.842
479.63	0.844
479.84	0.816
480.05	0.816
480.26	0.835
480.47	0.851
480.69	0.855
480.90	0.832
481.11	0.829
481.32	0.876
481.53	0.829
481.74	0.871
481.95	0.845
482.16	0.862
482.37	0.870
482.58	0.847
482.79	0.860
483.00	0.884
483.21	0.839
483.42	0.818
483.63	0.881
483.84	0.902
484.05	0.891
484.26	0.867
484.47	0.864
484.68	0.833
484.89	0.837
485.10	0.873
485.31	0.858
485.52	0.863
485.73	0.861
485.94	0.889
486.15	0.848
486.37	0.863
486.58	0.838
486.79	0.846
487.00	0.884
487.21	0.879
487.42	0.876
487.63	0.877
487.84	0.894
488.05	0.892
488.26	0.863
488.47	0.868
488.68	0.890
488.89	0.873
489.10	0.869
489.31	0.878
489.52	0.902
489.73	0.877
489.94	0.904
490.15	0.868
490.36	0.897
490.57	0.860
490.78	0.848
490.99	0.875
491.20	0.931
491.41	0.898
491.62	0.855
491.83	0.877
492.04	0.876
492.25	0.883
492.45	0.884
492.66	0.904
492.87	0.897
493.08	0.890
493.29	0.877
493.50	0.871
493.71	0.879
493.92	0.877
494.13	0.891
494.34	0.906
494.55	0.912
494.76	0.936
494.97	0.927
495.18	0.899
495.39	0.913
495.60	0.878
495.81	0.879
496.02	0.895
496.23	0.892
496.44	0.917
496.65	0.909
496.86	0.911
497.07	0.931
497.28	0.930
497.49	0.891
497.70	0.892
497.91	0.910
498.12	0.896
498.32	0.926
498.53	0.913
498.74	0.903
498.95	0.920
499.16	0.887
499.37	0.888
499.58	0.896
499.79	0.920
500.00	0.913
500.21	0.931
500.42	0.888
500.63	0.890
500.84	0.903
501.05	0.889
501.26	0.909
501.46	0.939
501.67	0.913
501.88	0.914
502.09	0.894
502.30	0.903
502.51	0.941
502.72	0.908
502.93	0.920
503.14	0.938
503.35	0.917
503.56	0.915
503.77	0.937
503.97	0.920
504.18	0.919
504.39	0.947
504.60	0.924
504.81	0.943
505.02	0.934
505.23	0.937
505.44	0.923
505.65	0.927
505.86	0.911
506.07	0.963
506.27	0.930
506.48	0.935
506.69	0.922
506.90	0.935
507.11	0.935
507.32	0.914
507.53	0.919
507.74	0.913
507.95	0.925
508.15	0.930
508.36	0.933
508.57	0.943
508.78	0.929
508.99	0.929
509.20	0.911
509.41	0.930
509.62	0.922
509.82	0.921
510.03	0.929
510.24	0.930
510.45	0.945
510.66	0.939
510.87	0.936
511.08	0.905
511.29	0.935
511.49	0.919
511.70	0.954
511.91	0.904
512.12	0.902
512.33	0.927
512.54	0.938
512.75	0.925
512.95	0.944
513.16	0.936
513.37	0.920
513.58	0.950
513.79	0.920
514.00	0.925
514.20	0.940
514.41	0.932
514.62	0.906
514.83	0.937
515.04	0.930
515.25	0.915
515.46	0.924
515.66	0.924
515.87	0.932
516.08	0.910
516.29	0.927
516.50	0.913
516.71	0.907
516.91	0.915
517.12	0.927
517.33	0.918
517.54	0.908
517.75	0.911
517.95	0.920
518.16	0.928
518.37	0.903
518.58	0.908
518.79	0.888
519.00	0.911
519.20	0.917
519.41	0.898
519.62	0.911
519.83	0.917
520.04	0.890
520.24	0.890
520.45	0.896
520.66	0.914
520.87	0.884
521.08	0.880
521.28	0.884
521.49	0.894
521.70	0.869
521.91	0.879
522.12	0.864
522.32	0.879
522.53	0.866
522.74	0.858
522.95	0.864
523.16	0.865
523.36	0.875
523.57	0.862
523.78	0.860
523.99	0.867
524.20	0.862
524.40	0.873
524.61	0.878
524.82	0.859
525.03	0.862
525.23	0.861
525.44	0.849
525.65	0.849
525.86	0.863
526.06	0.839
526.27	0.840
526.48	0.846
526.69	0.831
526.90	0.834
527.10	0.860
527.31	0.826
527.52	0.822
527.73	0.816
527.93	0.822
528.14	0.827
528.35	0.819
528.56	0.819
528.76	0.814
528.97	0.807
529.18	0.799
529.39	0.799
529.59	0.800
529.80	0.824
530.01	0.803
530.22	0.801
530.42	0.777
530.63	0.791
530.84	0.773
531.05	0.784
531.25	0.786
531.46	0.780
531.67	0.763
531.88	0.778
532.08	0.771
532.29	0.768
532.50	0.763
532.70	0.758
532.91	0.750
533.12	0.751
533.33	0.771
533.53	0.747
533.74	0.746
533.95	0.752
534.15	0.743
534.36	0.743
534.57	0.728
534.78	0.729
534.98	0.736
535.19	0.713
535.40	0.715
535.60	0.729
535.81	0.712
536.02	0.714
536.23	0.707
536.43	0.709
536.64	0.698
536.85	0.705
537.05	0.711
537.26	0.692
537.47	0.694
537.67	0.685
537.88	0.680
538.09	0.686
538.30	0.678
538.50	0.671
538.71	0.680
538.92	0.669
539.12	0.666
539.33	0.662
539.54	0.662
539.74	0.666
539.95	0.657
540.16	0.655
540.36	0.647
540.57	0.646
540.78	0.640
540.98	0.638
541.19	0.636
541.40	0.627
541.60	0.634
541.81	0.629
542.02	0.629
542.22	0.621
542.43	0.618
542.64	0.614
542.84	0.613
543.05	0.606
543.26	0.606
543.46	0.608
543.67	0.606
543.88	0.604
544.08	0.595
544.29	0.590
544.50	0.591
544.70	0.592
544.91	0.585
545.12	0.586
545.32	0.582
545.53	0.585
545.74	0.576
545.94	0.573
546.15	0.570
546.35	0.568
546.56	0.565
546.77	0.561
546.97	0.560
547.18	0.553
547.39	0.553
547.59	0.552
547.80	0.548
548.01	0.552
548.21	0.549
548.42	0.542
548.62	0.542
548.83	0.540
549.04	0.537
549.24	0.530
549.45	0.529
549.65	0.526
549.86	0.522
550.07	0.522
550.27	0.520
550.48	0.526
550.69	0.514
550.89	0.514
551.10	0.510
551.30	0.508
551.51	0.508
551.72	0.499
551.92	0.500
552.13	0.500
552.33	0.500
552.54	0.495
552.75	0.490
552.95	0.491
553.16	0.487
553.36	0.485
553.57	0.485
553.78	0.484
553.98	0.484
554.19	0.477
554.39	0.474
554.60	0.477
554.80	0.476
555.01	0.469
555.22	0.470
555.42	0.467
555.63	0.462
555.83	0.464
556.04	0.459
556.25	0.461
556.45	0.453
556.66	0.452
556.86	0.455
557.07	0.453
557.27	0.452
557.48	0.447
557.68	0.445
557.89	0.446
558.10	0.443
558.30	0.440
558.51	0.438
558.71	0.436
558.92	0.432
559.12	0.434
559.33	0.437
559.54	0.432
559.74	0.428
559.95	0.426
560.15	0.426
560.36	0.424
560.56	0.419
560.77	0.419
560.97	0.419
561.18	0.414
561.38	0.414
561.59	0.415
561.79	0.411
562.00	0.410
562.21	0.407
562.41	0.406
562.62	0.405
562.82	0.403
563.03	0.400
563.23	0.399
563.44	0.399
563.64	0.396
563.85	0.398
564.05	0.393
564.26	0.392
564.46	0.392
564.67	0.392
564.87	0.389
565.08	0.386
565.28	0.386
565.49	0.387
565.69	0.384
565.90	0.382
566.10	0.384
566.31	0.378
566.51	0.380
566.72	0.380
566.92	0.374
567.13	0.374
567.33	0.373
567.54	0.371
567.74	0.371
567.95	0.366
568.15	0.367
568.36	0.366
568.56	0.365
568.77	0.360
568.97	0.358
569.18	0.358
569.38	0.357
569.59	0.358
569.79	0.355
570.00	0.354
570.20	0.353
570.41	0.351
570.61	0.350
570.82	0.351
571.02	0.348
571.23	0.350
571.43	0.346
571.64	0.345
571.84	0.344
572.05	0.343
572.25	0.342
572.45	0.341
572.66	0.338
572.86	0.338
573.07	0.337
573.27	0.336
573.48	0.336
573.68	0.332
573.89	0.331
574.09	0.332
574.30	0.331
574.50	0.329
574.70	0.330
574.91	0.327
575.11	0.327
575.32	0.327
575.52	0.323
575.73	0.323
575.93	0.322
576.14	0.321
576.34	0.319
576.54	0.318
576.75	0.316
576.95	0.316
577.16	0.314
577.36	0.313
577.57	0.312
577.77	0.311
577.97	0.308
578.18	0.310
578.38	0.307
578.59	0.306
578.79	0.304
579.00	0.304
579.20	0.302
579.40	0.301
579.61	0.301
579.81	0.300
580.02	0.298
580.22	0.298
580.42	0.297
580.63	0.297
580.83	0.296
581.04	0.294
581.24	0.294
581.45	0.293
581.65	0.293
581.85	0.292
582.06	0.290
582.26	0.290
582.47	0.288
582.67	0.288
582.87	0.287
583.08	0.285
583.28	0.286
583.48	0.284
583.69	0.282
583.89	0.281
584.10	0.282
584.30	0.280
584.50	0.279
584.71	0.278
584.91	0.278
585.12	0.276
585.32	0.277
585.52	0.275
585.73	0.274
585.93	0.273
586.13	0.273
586.34	0.273
586.54	0.271
586.75	0.270
586.95	0.269
587.15	0.269
587.36	0.268
587.56	0.266
587.76	0.265
587.97	0.264
588.17	0.263
588.37	0.263
588.58	0.263
588.78	0.261
588.98	0.261
589.19	0.260
589.39	0.258
589.60	0.260
589.80	0.258
590.00	0.258
590.21	0.258
590.41	0.257
590.61	0.256
590.82	0.256
591.02	0.255
591.22	0.254
591.43	0.255
591.63	0.253
591.83	0.253
592.04	0.251
592.24	0.252
592.44	0.249
592.65	0.248
592.85	0.248
593.05	0.248
593.26	0.246
593.46	0.245
593.66	0.245
593.86	0.244
594.07	0.242
594.27	0.243
594.47	0.241
594.68	0.240
594.88	0.241
595.08	0.240
595.29	0.241
595.49	0.239
595.69	0.238
595.90	0.237
596.10	0.238
596.30	0.237
596.50	0.236
596.71	0.235
596.91	0.235
597.11	0.234
597.32	0.233
597.52	0.232
597.72	0.231
597.93	0.231
598.13	0.229
598.33	0.229
598.53	0.229
598.74	0.229
598.94	0.228
599.14	0.228
599.35	0.228
599.55	0.228
599.75	0.227
599.95	0.227
600.16	0.227
600.36	0.225
600.56	0.226
600.76	0.225
600.97	0.223
601.17	0.223
601.37	0.223
601.58	0.222
601.78	0.222
601.98	0.221
602.18	0.220
602.39	0.220
602.59	0.220
602.79	0.219
602.99	0.219
603.20	0.217
603.40	0.217
603.60	0.217
603.80	0.216
604.01	0.216
604.21	0.215
604.41	0.214
604.61	0.214
604.82	0.213
605.02	0.213
605.22	0.212
605.42	0.212
605.62	0.212
605.83	0.211
606.03	0.210
606.23	0.210
606.43	0.209
606.64	0.209
606.84	0.209
607.04	0.209
607.24	0.208
607.45	0.209
607.65	0.207
607.85	0.208
608.05	0.207
608.25	0.207
608.46	0.206
608.66	0.206
608.86	0.206
609.06	0.205
609.26	0.204
609.47	0.205
609.67	0.203
609.87	0.204
610.07	0.203
610.28	0.202
610.48	0.202
610.68	0.202
610.88	0.200
611.08	0.201
611.29	0.200
611.49	0.199
611.69	0.200
611.89	0.198
612.09	0.197
612.29	0.197
612.50	0.196
612.70	0.196
612.90	0.195
613.10	0.194
613.30	0.194
613.51	0.194
613.71	0.194
613.91	0.198
614.11	0.194
614.31	0.194
614.51	0.194
614.72	0.193
614.92	0.193
615.12	0.193
615.32	0.194
615.52	0.193
615.72	0.193
615.93	0.193
616.13	0.192
616.33	0.192
616.53	0.191
616.73	0.191
616.93	0.190
617.14	0.191
617.34	0.191
617.54	0.191
617.74	0.191
617.94	0.189
618.14	0.189
618.34	0.189
618.55	0.188
618.75	0.189
618.95	0.189
619.15	0.188
619.35	0.187
619.55	0.186
619.75	0.187
619.96	0.186
620.16	0.186
620.36	0.186
620.56	0.185
620.76	0.185
620.96	0.185
621.16	0.184
621.36	0.184
621.57	0.184
621.77	0.184
621.97	0.183
622.17	0.183
622.37	0.183
622.57	0.183
622.77	0.182
622.97	0.181
623.18	0.181
623.38	0.182
623.58	0.181
623.78	0.181
623.98	0.180
624.18	0.179
624.38	0.179
624.58	0.179
624.78	0.180
624.98	0.180
625.19	0.179
625.39	0.179
625.59	0.178
625.79	0.178
625.99	0.178
626.19	0.178
626.39	0.178
626.59	0.178
626.79	0.178
626.99	0.177
627.19	0.177
627.40	0.177
627.60	0.176
627.80	0.176
628.00	0.176
628.20	0.176
628.40	0.175
628.60	0.175
628.80	0.174
629.00	0.174
629.20	0.173
629.40	0.173
629.60	0.172
629.80	0.172
630.00	0.172
630.20	0.172
630.41	0.171
630.61	0.171
630.81	0.171
631.01	0.171
631.21	0.171
631.41	0.171
631.61	0.171
631.81	0.171
632.01	0.170
632.21	0.170
632.41	0.169
632.61	0.169
632.81	0.169
633.01	0.170
633.21	0.169
633.41	0.170
633.61	0.168
633.81	0.168
634.01	0.167
634.21	0.167
634.41	0.166
634.61	0.167
634.81	0.166
635.01	0.166
635.22	0.166
635.42	0.166
635.62	0.166
635.82	0.166
636.02	0.165
636.22	0.165
636.42	0.165
636.62	0.165
636.82	0.165
637.02	0.164
637.22	0.165
637.42	0.164
637.62	0.163
637.82	0.164
638.02	0.163
638.22	0.163
638.42	0.162
638.62	0.162
638.82	0.162
639.02	0.162
639.22	0.161
639.42	0.160
639.62	0.160
639.82	0.160
640.02	0.160
640.22	0.160
640.42	0.160
640.62	0.160
640.82	0.160
641.02	0.159
641.22	0.160
641.42	0.159
641.61	0.160
641.81	0.160
642.01	0.160
642.21	0.159
642.41	0.159
642.61	0.159
642.81	0.158
643.01	0.158
643.21	0.158
643.41	0.158
643.61	0.157
643.81	0.157
644.01	0.155
644.21	0.155
644.41	0.156
644.61	0.156
644.81	0.156
645.01	0.156
645.21	0.155
645.41	0.155
645.61	0.154
645.81	0.154
646.01	0.153
646.21	0.154
646.40	0.153
646.60	0.153
646.80	0.153
647.00	0.153
647.20	0.152
647.40	0.152
647.60	0.152
647.80	0.152
648.00	0.152
648.20	0.152
648.40	0.151
648.60	0.151
648.80	0.151
649.00	0.151
649.20	0.151
649.39	0.151
649.59	0.150
649.79	0.150
649.99	0.150
650.19	0.149
650.39	0.149
650.59	0.149
650.79	0.149
650.99	0.149
651.19	0.148
651.39	0.148
651.58	0.148
651.78	0.148
651.98	0.147
652.18	0.147
652.38	0.147
652.58	0.147
652.78	0.147
652.98	0.146
653.18	0.146
653.38	0.146
653.57	0.145
653.77	0.146
653.97	0.145
654.17	0.145
654.37	0.144
654.57	0.144
654.77	0.144
654.97	0.144
655.16	0.143
655.36	0.143
655.56	0.143
655.76	0.143
655.96	0.143
656.16	0.142
656.36	0.142
656.56	0.142
656.75	0.142
656.95	0.141
657.15	0.142
657.35	0.141
657.55	0.141
657.75	0.141
657.95	0.141
658.14	0.141
658.34	0.141
658.54	0.140
658.74	0.140
658.94	0.140
659.14	0.140
659.34	0.139
659.53	0.139
659.73	0.138
659.93	0.138
660.13	0.138
660.33	0.137
660.53	0.137
660.72	0.137
660.92	0.137
661.12	0.137
661.32	0.137
661.52	0.136
661.72	0.136
661.91	0.136
662.11	0.136
662.31	0.135
662.51	0.136
662.71	0.135
662.90	0.134
663.10	0.134
663.30	0.134
663.50	0.134
663.70	0.133
663.90	0.133
664.09	0.133
664.29	0.132
664.49	0.133
664.69	0.132
664.89	0.132
665.08	0.132
665.28	0.132
665.48	0.132
665.68	0.131
665.88	0.131
666.07	0.130
666.27	0.130
666.47	0.130
666.67	0.130
666.87	0.130
667.06	0.129
667.26	0.129
667.46	0.129
667.66	0.129
667.85	0.129
668.05	0.129
668.25	0.129
668.45	0.129
668.65	0.129
668.84	0.129
669.04	0.128
669.24	0.128
669.44	0.127
669.63	0.127
669.83	0.127
670.03	0.126
670.23	0.126
670.42	0.126
670.62	0.125
670.82	0.125
671.02	0.125
671.22	0.124
671.41	0.124
671.61	0.124
671.81	0.124
672.01	0.124
672.20	0.124
672.40	0.123
672.60	0.123
672.80	0.123
672.99	0.123
673.19	0.122
673.39	0.122
673.58	0.122
673.78	0.122
673.98	0.122
674.18	0.122
674.37	0.121
674.57	0.121
674.77	0.122
674.97	0.121
675.16	0.121
675.36	0.121
675.56	0.121
675.75	0.120
675.95	0.120
676.15	0.120
676.35	0.119
676.54	0.120
676.74	0.119
676.94	0.119
677.13	0.119
677.33	0.118
677.53	0.119
677.73	0.118
677.92	0.118
678.12	0.118
678.32	0.117
678.51	0.117
678.71	0.117
678.91	0.117
679.11	0.116
679.30	0.116
679.50	0.116
679.70	0.115
679.89	0.115
680.09	0.115
680.29	0.115
680.48	0.115
680.68	0.115
680.88	0.115
681.07	0.114
681.27	0.114
681.47	0.114
681.66	0.114
681.86	0.114
682.06	0.113
682.25	0.113
682.45	0.113
682.65	0.113
682.84	0.112
683.04	0.112
683.24	0.112
683.43	0.112
683.63	0.112
683.83	0.112
684.02	0.111
684.22	0.111
684.42	0.111
684.61	0.111
684.81	0.111
685.01	0.111
685.20	0.111
685.40	0.111
685.60	0.111
685.79	0.111
685.99	0.111
686.19	0.111
686.38	0.110
686.58	0.110
686.77	0.110
686.97	0.109
687.17	0.109
687.36	0.109
687.56	0.109
687.76	0.108
687.95	0.108
688.15	0.108
688.34	0.108
688.54	0.108
688.74	0.108
688.93	0.108
689.13	0.108
689.33	0.108
689.52	0.107
689.72	0.107
689.91	0.107
690.11	0.106
690.31	0.106
690.50	0.106
690.70	0.106
690.89	0.105
691.09	0.105
691.29	0.105
691.48	0.104
691.68	0.104
691.87	0.104
692.07	0.104
692.27	0.104
692.46	0.104
692.66	0.104
692.85	0.103
693.05	0.104
693.25	0.104
693.44	0.103
693.64	0.104
693.83	0.103
694.03	0.103
694.22	0.102
694.42	0.102
694.62	0.102
694.81	0.102
695.01	0.102
695.20	0.102
695.40	0.101
695.59	0.101
695.79	0.100
695.99	0.101
696.18	0.101
696.38	0.101
696.57	0.101
696.77	0.100
696.96	0.100
697.16	0.100
697.36	0.100
697.55	0.100
697.75	0.100
697.94	0.100
698.14	0.100
698.33	0.100
698.53	0.099
698.72	0.099
698.92	0.099
699.11	0.099
699.31	0.099
699.51	0.099
699.70	0.099
699.90	0.099
700.09	0.099
700.29	0.099
700.48	0.098
700.68	0.098
700.87	0.098
701.07	0.098
701.26	0.097
701.46	0.097
701.65	0.097
701.85	0.097
702.04	0.097
702.24	0.096
702.43	0.097
702.63	0.096
702.82	0.096
703.02	0.096
703.21	0.096
703.41	0.096
703.60	0.096
703.80	0.095
703.99	0.095
704.19	0.095
704.38	0.095
704.58	0.094
704.77	0.094
704.97	0.094
705.16	0.094
705.36	0.094
705.55	0.094
705.75	0.094
705.94	0.094
706.14	0.094
706.33	0.094
706.53	0.095
706.72	0.095
706.92	0.094
707.11	0.094
707.31	0.093
707.50	0.093
707.70	0.093
707.89	0.093
708.09	0.093
708.28	0.093
708.48	0.093
708.67	0.092
708.86	0.092
709.06	0.092
709.25	0.092
709.45	0.092
709.64	0.092
709.84	0.092
710.03	0.092
710.23	0.091
710.42	0.091
710.62	0.092
710.81	0.091
711.00	0.091
711.20	0.091
711.39	0.091
711.59	0.091
711.78	0.091
711.98	0.091
712.17	0.091
712.37	0.090
712.56	0.090
712.75	0.091
712.95	0.090
713.14	0.091
713.34	0.091
713.53	0.091
713.73	0.091
713.92	0.091
714.11	0.091
714.31	0.090
714.50	0.090
714.70	0.090
714.89	0.090
715.08	0.090
715.28	0.090
715.47	0.089
715.67	0.089
715.86	0.089
716.06	0.089
716.25	0.089
716.44	0.089
716.64	0.089
716.83	0.088
717.03	0.088
717.22	0.088
717.41	0.088
717.61	0.088
717.80	0.089
717.99	0.089
718.19	0.088
718.38	0.088
718.58	0.088
718.77	0.088
718.96	0.088
719.16	0.088
719.35	0.087
719.55	0.087
719.74	0.087
719.93	0.087
720.13	0.087
720.32	0.087
720.51	0.087
720.71	0.087
720.90	0.087
721.10	0.087
721.29	0.087
721.48	0.087
721.68	0.087
721.87	0.087
722.06	0.087
722.26	0.087
722.45	0.087
722.64	0.087
722.84	0.087
723.03	0.087
723.22	0.088
723.42	0.087
723.61	0.087
723.80	0.087
724.00	0.087
724.19	0.087
724.38	0.087
724.58	0.087
724.77	0.087
724.96	0.087
725.16	0.087
725.35	0.086
725.54	0.087
725.74	0.087
725.93	0.086
726.12	0.087
726.32	0.087
726.51	0.087
726.70	0.087
726.90	0.087
727.09	0.087
727.28	0.087
727.48	0.087
727.67	0.087
727.86	0.087
728.06	0.087
728.25	0.087
728.44	0.087
728.64	0.086
728.83	0.087
729.02	0.086
729.21	0.086
729.41	0.086
729.60	0.086
729.79	0.086
729.99	0.085
730.18	0.085
730.37	0.085
730.56	0.085
730.76	0.085
730.95	0.085
731.14	0.085
731.34	0.085
731.53	0.085
731.72	0.085
731.91	0.085
732.11	0.085
732.30	0.085
732.49	0.086
732.69	0.086
732.88	0.086
733.07	0.086
733.26	0.087
733.46	0.087
733.65	0.087
733.84	0.087
734.03	0.087
734.23	0.087
734.42	0.087
734.61	0.087
734.80	0.087
735.00	0.087
735.19	0.086
735.38	0.086
735.57	0.086
735.77	0.087
735.96	0.086
736.15	0.087
736.34	0.087
736.54	0.087
736.73	0.087
736.92	0.087
737.11	0.087
737.31	0.087
737.50	0.087
737.69	0.087
737.88	0.087
738.07	0.087
738.27	0.087
738.46	0.087
738.65	0.087
738.84	0.086
739.04	0.086
739.23	0.086
739.42	0.086
739.61	0.086
739.80	0.086
740.00	0.086
740.19	0.086
740.38	0.085
740.57	0.085
740.76	0.085
740.96	0.085
741.15	0.085
741.34	0.084
741.53	0.085
741.72	0.085
741.92	0.084
742.11	0.084
742.30	0.084
742.49	0.084
742.68	0.084
742.88	0.085
743.07	0.085
743.26	0.085
743.45	0.085
743.64	0.084
743.84	0.084
744.03	0.084
744.22	0.084
744.41	0.083
744.60	0.083
744.79	0.083
744.99	0.083
745.18	0.082
745.37	0.082
745.56	0.082
745.75	0.082
745.94	0.082
746.14	0.082
746.33	0.082
746.52	0.083
746.71	0.083
746.90	0.083
747.09	0.083
747.28	0.082
747.48	0.083
747.67	0.083
747.86	0.083
748.05	0.083
748.24	0.083
748.43	0.083
748.62	0.082
748.82	0.082
749.01	0.082
749.20	0.082
749.39	0.082
749.58	0.082
749.77	0.082
749.96	0.082
750.16	0.082
750.35	0.082
750.54	0.081
750.73	0.081
750.92	0.081
751.11	0.081
751.30	0.082
751.49	0.082
751.68	0.081
751.88	0.081
752.07	0.081
752.26	0.081
752.45	0.081
752.64	0.081
752.83	0.081
753.02	0.081
753.21	0.081
753.40	0.080
753.60	0.080
753.79	0.080
753.98	0.080
754.17	0.080
754.36	0.080
754.55	0.080
754.74	0.080
754.93	0.080
755.12	0.080
755.31	0.080
755.50	0.080
755.70	0.080
755.89	0.080
756.08	0.080
756.27	0.080
756.46	0.080
756.65	0.079
756.84	0.079
757.03	0.079
757.22	0.079
757.41	0.079
757.60	0.079
757.79	0.079
757.98	0.079
758.17	0.079
758.36	0.079
758.56	0.079
758.75	0.078
758.94	0.079
759.13	0.079
759.32	0.079
759.51	0.078
759.70	0.079
759.89	0.078
760.08	0.078
760.27	0.078
760.46	0.078
760.65	0.078
760.84	0.078
761.03	0.078
761.22	0.078
761.41	0.079
761.60	0.078
761.79	0.078
761.98	0.078
762.17	0.078
762.36	0.078
762.55	0.078
762.74	0.078
762.93	0.078
763.12	0.078
763.31	0.078
763.50	0.077
763.69	0.077
763.88	0.077
764.07	0.077
764.26	0.077
764.45	0.077
764.64	0.077
764.83	0.077
765.02	0.077
765.21	0.077
765.40	0.077
765.59	0.077
765.78	0.077
765.97	0.077
766.16	0.077
766.35	0.077
766.54	0.077
766.73	0.077
766.92	0.077
767.11	0.076
767.30	0.077
767.49	0.077
767.68	0.077
767.87	0.077
768.06	0.077
768.25	0.076
768.44	0.076
768.63	0.076
768.82	0.076
769.01	0.076
769.20	0.076
769.39	0.076
769.58	0.076
769.77	0.076
769.96	0.076
770.15	0.076
770.34	0.076
770.53	0.076
770.72	0.076
770.91	0.075
771.10	0.076
771.29	0.075
771.47	0.075
771.66	0.075
771.85	0.076
772.04	0.075
772.23	0.075
772.42	0.075
772.61	0.075
772.80	0.075
772.99	0.075
773.18	0.075
773.37	0.075
773.56	0.076
773.75	0.076
773.94	0.076
774.13	0.075
774.31	0.075
774.50	0.075
774.69	0.075
774.88	0.075
775.07	0.075
775.26	0.075
775.45	0.074
775.64	0.074
775.83	0.074
776.02	0.073
776.21	0.073
776.40	0.074
776.58	0.073
776.77	0.074
776.96	0.074
777.15	0.074
777.34	0.074
777.53	0.074
777.72	0.074
777.91	0.074
778.10	0.074
778.28	0.074
778.47	0.074
778.66	0.074
778.85	0.073
779.04	0.073
779.23	0.073
779.42	0.073
779.61	0.073
779.79	0.073
779.98	0.073
780.17	0.073
780.36	0.073
780.55	0.072
780.74	0.073
780.93	0.072
781.12	0.072
781.30	0.072
781.49	0.073
781.68	0.072
781.87	0.072
782.06	0.072
782.25	0.072
782.44	0.072
782.62	0.072
782.81	0.072
783.00	0.072
783.19	0.072
783.38	0.072
783.57	0.072
783.75	0.072
783.94	0.072
784.13	0.072
784.32	0.072
784.51	0.072
784.70	0.072
784.88	0.072
785.07	0.072
785.26	0.072
785.45	0.072
785.64	0.072
785.83	0.072
786.01	0.072
786.20	0.072
786.39	0.072
786.58	0.072
786.77	0.072
786.95	0.072
787.14	0.072
787.33	0.071
787.52	0.071
787.71	0.071
787.90	0.071
788.08	0.071
788.27	0.071
788.46	0.071
788.65	0.071
788.84	0.071
789.02	0.071
789.21	0.071
789.40	0.071
789.59	0.071
789.77	0.071
789.96	0.071
790.15	0.071
790.34	0.071
790.53	0.071
790.71	0.071
790.90	0.071
791.09	0.070
791.28	0.071
791.46	0.071
791.65	0.070
791.84	0.070
792.03	0.070
792.22	0.070
792.40	0.070
792.59	0.070
792.78	0.070
792.97	0.070
793.15	0.070
793.34	0.070
793.53	0.070
793.72	0.070
793.90	0.070
794.09	0.070
794.28	0.070
794.47	0.070
794.65	0.070
794.84	0.070
795.03	0.070
795.22	0.070
795.40	0.070
795.59	0.070
795.78	0.070
795.97	0.070
796.15	0.070
796.34	0.070
796.53	0.070
796.71	0.070
796.90	0.070
797.09	0.070
797.28	0.070
797.46	0.070
797.65	0.070
797.84	0.070
798.02	0.069
798.21	0.069
798.40	0.069
798.59	0.069
798.77	0.069
798.96	0.069
799.15	0.068
799.33	0.069
799.52	0.068
799.71	0.069
799.90	0.069
800.08	0.069
800.27	0.069
800.46	0.069
800.64	0.069
800.83	0.069
801.02	0.069
801.20	0.069
801.39	0.069
801.58	0.069
801.76	0.068
801.95	0.068
802.14	0.068
802.32	0.068
802.51	0.068
802.70	0.068
802.88	0.068
803.07	0.068
803.26	0.068
803.44	0.067
803.63	0.068
803.82	0.067
804.00	0.067
804.19	0.068
804.38	0.067
804.56	0.068
804.75	0.068
804.94	0.068
805.12	0.068
805.31	0.068
805.50	0.068
805.68	0.068
805.87	0.068
806.06	0.068
806.24	0.068
806.43	0.068
806.62	0.068
806.80	0.068
806.99	0.068
807.17	0.068
807.36	0.068
807.55	0.068
807.73	0.068
807.92	0.068
808.11	0.068
808.29	0.068
808.48	0.067
808.66	0.067
808.85	0.067
809.04	0.067
809.22	0.067
809.41	0.067
809.59	0.067
809.78	0.067
809.97	0.067
810.15	0.067
810.34	0.067
810.53	0.067
810.71	0.067
810.90	0.067
811.08	0.067
811.27	0.067
811.45	0.067
811.64	0.067
811.83	0.067
812.01	0.067
812.20	0.067
812.38	0.067
812.57	0.067
812.76	0.067
812.94	0.068
813.13	0.068
813.31	0.067
813.50	0.068
813.68	0.068
813.87	0.067
814.06	0.068
814.24	0.067
814.43	0.067
814.61	0.067
814.80	0.067
814.98	0.067
815.17	0.067
815.36	0.067
815.54	0.067
815.73	0.067
815.91	0.067
816.10	0.067
816.28	0.067
816.47	0.066
816.65	0.067
816.84	0.067
817.03	0.067
817.21	0.067
817.40	0.068
817.58	0.067
817.77	0.067
817.95	0.067
818.14	0.068
818.32	0.068
818.51	0.068
818.69	0.068
818.88	0.068
819.06	0.068
819.25	0.068
819.43	0.068
819.62	0.068
819.80	0.068
819.99	0.068
820.18	0.067
820.36	0.067
820.55	0.067
820.73	0.067
820.92	0.067
821.10	0.067
821.29	0.067
821.47	0.066
821.66	0.067
821.84	0.067
822.03	0.067
822.21	0.067
822.40	0.067
822.58	0.067
822.77	0.067
822.95	0.067
823.14	0.067
823.32	0.068
823.50	0.068
823.69	0.068
823.87	0.068
824.06	0.068
824.24	0.068
824.43	0.068
824.61	0.068
824.80	0.068
824.98	0.068
825.17	0.069
825.35	0.069
825.54	0.068
825.72	0.068
825.91	0.068
826.09	0.068
826.28	0.068
826.46	0.069
826.64	0.069
826.83	0.069
827.01	0.069
827.20	0.069
827.38	0.069
827.57	0.069
827.75	0.069
827.94	0.070
828.12	0.070
828.31	0.070
828.49	0.070
828.67	0.070
828.86	0.070
829.04	0.070
829.23	0.070
829.41	0.070
829.60	0.070
829.78	0.071
829.96	0.071
830.15	0.071
830.33	0.071
830.52	0.072
830.70	0.071
830.88	0.071
831.07	0.072
831.25	0.072
831.44	0.072
831.62	0.072
831.81	0.072
831.99	0.072
832.17	0.072
832.36	0.072
832.54	0.072
832.73	0.072
832.91	0.072
833.09	0.072
833.28	0.072
833.46	0.072
833.65	0.072
833.83	0.073
834.01	0.073
834.20	0.073
834.38	0.073
834.56	0.073
834.75	0.073
834.93	0.073
835.12	0.073
835.30	0.073
835.48	0.074
835.67	0.073
835.85	0.073
836.03	0.073
836.22	0.073
836.40	0.073
836.59	0.073
836.77	0.073
836.95	0.073
837.14	0.073
837.32	0.073
837.50	0.073
837.69	0.073
837.87	0.073
838.05	0.073
838.24	0.073
838.42	0.073
838.60	0.073
838.79	0.074
838.97	0.073
839.15	0.073
839.34	0.074
839.52	0.074
839.70	0.074
839.89	0.074
840.07	0.074
840.25	0.074
840.44	0.074
840.62	0.074
840.80	0.074
840.99	0.074
841.17	0.074
841.35	0.074
841.54	0.074
841.72	0.074
841.90	0.074
842.09	0.074
842.27	0.074
842.45	0.074
842.64	0.075
842.82	0.074
843.00	0.074
843.19	0.074
843.37	0.074
843.55	0.074
843.73	0.074
843.92	0.074
844.10	0.074
844.28	0.074
844.47	0.074
844.65	0.074
844.83	0.074
845.01	0.074
845.20	0.074
845.38	0.075
845.56	0.075
845.75	0.074
845.93	0.074
846.11	0.074
846.29	0.075
846.48	0.075
846.66	0.075
846.84	0.074
847.02	0.074
847.21	0.074
847.39	0.074
847.57	0.074
847.76	0.075
847.94	0.074
848.12	0.074
848.30	0.075
848.49	0.075
848.67	0.075
848.85	0.075
849.03	0.075
849.22	0.074
849.40	0.075
849.58	0.075
849.76	0.075
849.95	0.075
850.13	0.076
850.31	0.075
850.49	0.076
850.67	0.076
850.86	0.076
851.04	0.075
851.22	0.075
851.40	0.076
851.59	0.075
851.77	0.075
851.95	0.075
852.13	0.075
852.31	0.075
852.50	0.075
852.68	0.075
852.86	0.075
853.04	0.075
853.23	0.075
853.41	0.075
853.59	0.075
853.77	0.076
853.95	0.076
854.14	0.076
854.32	0.076
854.50	0.076
854.68	0.076
854.86	0.076
855.04	0.076
855.23	0.076
855.41	0.076
855.59	0.076
855.77	0.076
855.95	0.076
856.14	0.076
856.32	0.076
856.50	0.076
856.68	0.076
856.86	0.076
857.04	0.076
857.23	0.075
857.41	0.075
857.59	0.075
857.77	0.076
857.95	0.076
858.13	0.076
858.32	0.076
858.50	0.076
858.68	0.076
858.86	0.076
859.04	0.076
859.22	0.076
859.41	0.076
859.59	0.076
859.77	0.076
859.95	0.076
860.13	0.076
860.31	0.076
860.49	0.076
860.68	0.076
860.86	0.076
861.04	0.076
861.22	0.076
861.40	0.076
861.58	0.076
861.76	0.076
861.94	0.077
862.13	0.076
862.31	0.076
862.49	0.076
862.67	0.077
862.85	0.077
863.03	0.077
863.21	0.077
863.39	0.077
863.57	0.077
863.76	0.077
863.94	0.077
864.12	0.077
864.30	0.077
864.48	0.077
864.66	0.077
864.84	0.077
865.02	0.077
865.20	0.077
865.38	0.077
865.57	0.077
865.75	0.077
865.93	0.077
866.11	0.077
866.29	0.077
866.47	0.077
866.65	0.077
866.83	0.077
867.01	0.077
867.19	0.077
867.37	0.076
867.55	0.077
867.73	0.077
867.92	0.076
868.10	0.076
868.28	0.076
868.46	0.077
868.64	0.077
868.82	0.077
869.00	0.078
869.18	0.078
869.36	0.078
869.54	0.078
869.72	0.078
869.90	0.079
870.08	0.078
870.26	0.078
870.44	0.079
870.62	0.079
870.80	0.078
870.98	0.078
871.16	0.078
871.34	0.078
871.53	0.078
871.71	0.078
871.89	0.078
872.07	0.079
872.25	0.078
872.43	0.078
872.61	0.078
872.79	0.079
872.97	0.079
873.15	0.079
873.33	0.079
873.51	0.079
873.69	0.079
873.87	0.079
874.05	0.079
874.23	0.079
874.41	0.079
874.59	0.080
874.77	0.079
874.95	0.079
875.13	0.079
875.31	0.079
875.49	0.079
875.67	0.079
875.85	0.079
876.03	0.079
876.21	0.080
876.39	0.080
876.57	0.080
876.75	0.080
876.93	0.080
877.11	0.080
877.29	0.079
877.47	0.079
877.65	0.080
877.82	0.080
878.00	0.080
878.18	0.080
878.36	0.079
878.54	0.079
878.72	0.079
878.90	0.079
879.08	0.080
879.26	0.079
879.44	0.080
879.62	0.079
879.80	0.079
879.98	0.080
880.16	0.079
880.34	0.079
880.52	0.080
880.70	0.080
880.88	0.080
881.06	0.080
881.24	0.080
881.42	0.080
881.59	0.080
881.77	0.079
881.95	0.080
882.13	0.080
882.31	0.080
882.49	0.080
882.67	0.081
882.85	0.080
883.03	0.080
883.21	0.080
883.39	0.080
883.57	0.081
883.75	0.081
883.92	0.081
884.10	0.081
884.28	0.081
884.46	0.080
884.64	0.080
884.82	0.080
885.00	0.080
885.18	0.081
885.36	0.081
885.54	0.081
885.71	0.081
885.89	0.081
886.07	0.082
886.25	0.082
886.43	0.082
886.61	0.081
886.79	0.081
886.97	0.081
887.15	0.081
887.32	0.081
887.50	0.081
887.68	0.081
887.86	0.081
888.04	0.081
888.22	0.081
888.40	0.081
888.57	0.081
888.75	0.081
888.93	0.082
889.11	0.081
889.29	0.082
889.47	0.082
889.65	0.082
889.82	0.082
890.00	0.082
890.18	0.082
890.36	0.083
890.54	0.083
890.72	0.083
890.90	0.083
891.07	0.083
891.25	0.083
891.43	0.082
891.61	0.082
891.79	0.082
891.97	0.082
892.14	0.082
892.32	0.082
892.50	0.082
892.68	0.082
892.86	0.082
893.03	0.082
893.21	0.083
893.39	0.083
893.57	0.083
893.75	0.083
893.93	0.083
894.10	0.083
894.28	0.083
894.46	0.083
894.64	0.083
894.82	0.083
894.99	0.083
895.17	0.083
895.35	0.083
895.53	0.083
895.71	0.083
895.88	0.083
896.06	0.083
896.24	0.084
896.42	0.083
896.59	0.083
896.77	0.084
896.95	0.083
897.13	0.084
897.31	0.084
897.48	0.084
897.66	0.084
897.84	0.084
898.02	0.084
898.19	0.084
898.37	0.084
898.55	0.084
898.73	0.084
898.91	0.084
899.08	0.084
899.26	0.084
899.44	0.085
899.62	0.085
899.79	0.085
899.97	0.085
900.15	0.085
900.33	0.085
900.50	0.085
900.68	0.085
900.86	0.085
901.04	0.085
901.21	0.085
901.39	0.085
901.57	0.085
901.74	0.084
901.92	0.084
902.10	0.085
902.28	0.085
902.45	0.085
902.63	0.085
902.81	0.085
902.99	0.085
903.16	0.085
903.34	0.086
903.52	0.086
903.69	0.086
903.87	0.086
904.05	0.086
904.22	0.086
904.40	0.086
904.58	0.086
904.76	0.086
904.93	0.086
905.11	0.087
905.29	0.087
905.46	0.086
905.64	0.087
905.82	0.087
905.99	0.086
906.17	0.087
906.35	0.087
906.53	0.087
906.70	0.087
906.88	0.087
907.06	0.087
907.23	0.087
907.41	0.087
907.59	0.087
907.76	0.087
907.94	0.087
908.12	0.087
908.29	0.087
908.47	0.087
908.65	0.087
908.82	0.087
909.00	0.087
909.18	0.088
909.35	0.088
909.53	0.088
909.71	0.087
909.88	0.087
910.06	0.087
910.23	0.088
910.41	0.088
910.59	0.087
910.76	0.087
910.94	0.087
911.12	0.087
911.29	0.087
911.47	0.087
911.65	0.088
911.82	0.088
912.00	0.088
912.17	0.088
912.35	0.089
912.53	0.089
912.70	0.089
912.88	0.089
913.06	0.090
913.23	0.091
913.41	0.091
913.58	0.091
913.76	0.091
913.94	0.091
914.11	0.091
914.29	0.091
914.46	0.091
914.64	0.091
914.82	0.091
914.99	0.091
915.17	0.091
915.34	0.091
915.52	0.091
915.70	0.091
915.87	0.091
916.05	0.091
916.22	0.091
916.40	0.091
916.57	0.092
916.75	0.092
916.93	0.092
917.10	0.091
917.28	0.092
917.45	0.092
917.63	0.092
917.80	0.092
917.98	0.092
918.16	0.092
918.33	0.092
918.51	0.092
918.68	0.092
918.86	0.093
919.03	0.093
919.21	0.094
919.39	0.094
919.56	0.094
919.74	0.095
919.91	0.095
920.09	0.095
920.26	0.095
920.44	0.095
920.61	0.095
920.79	0.095
920.96	0.095
921.14	0.095
921.31	0.095
921.49	0.096
921.67	0.096
921.84	0.097
922.02	0.097
922.19	0.097
922.37	0.097
922.54	0.097
922.72	0.098
922.89	0.098
923.07	0.098
923.24	0.099
923.42	0.099
923.59	0.099
923.77	0.099
923.94	0.100
924.12	0.100
924.29	0.101
924.47	0.101
924.64	0.101
924.82	0.101
924.99	0.102
925.17	0.102
925.34	0.102
925.52	0.103
925.69	0.103
925.87	0.103
926.04	0.103
926.22	0.103
926.39	0.103
926.57	0.104
926.74	0.104
926.91	0.104
927.09	0.104
927.26	0.104
927.44	0.104
927.61	0.105
927.79	0.105
927.96	0.106
928.14	0.107
928.31	0.107
928.49	0.107
928.66	0.108
928.84	0.109
929.01	0.109
929.18	0.110
929.36	0.110
929.53	0.111
929.71	0.111
929.88	0.111
930.06	0.111
930.23	0.112
930.41	0.112
930.58	0.113
930.75	0.113
930.93	0.114
931.10	0.114
931.28	0.114
931.45	0.115
931.63	0.115
931.80	0.115
931.97	0.116
932.15	0.117
932.32	0.117
932.50	0.117
932.67	0.118
932.84	0.118
933.02	0.119
933.19	0.119
933.37	0.120
933.54	0.121
933.71	0.121
933.89	0.122
934.06	0.122
934.24	0.123
934.41	0.123
934.58	0.123
934.76	0.123
934.93	0.124
935.11	0.124
935.28	0.124
935.45	0.125
935.63	0.125
935.80	0.126
935.98	0.127
936.15	0.126
936.32	0.127
936.50	0.128
936.67	0.128
936.84	0.128
937.02	0.130
937.19	0.130
937.36	0.131
937.54	0.131
937.71	0.131
937.89	0.132
938.06	0.132
938.23	0.132
938.41	0.133
938.58	0.134
938.75	0.134
938.93	0.135
939.10	0.135
939.27	0.135
939.45	0.136
939.62	0.137
939.79	0.138
939.97	0.138
940.14	0.139
940.31	0.140
940.49	0.140
940.66	0.140
940.83	0.141
941.01	0.142
941.18	0.143
941.35	0.143
941.53	0.144
941.70	0.145
941.87	0.145
942.05	0.146
942.22	0.147
942.39	0.148
942.57	0.149
942.74	0.149
942.91	0.149
943.08	0.150
943.26	0.150
943.43	0.151
943.60	0.152
943.78	0.152
943.95	0.153
944.12	0.153
944.29	0.154
944.47	0.154
944.64	0.155
944.81	0.156
944.99	0.157
945.16	0.157
945.33	0.158
945.50	0.159
945.68	0.160
945.85	0.160
946.02	0.162
946.20	0.163
946.37	0.164
946.54	0.164
946.71	0.165
946.89	0.166
947.06	0.167
947.23	0.167
947.40	0.169
947.58	0.169
947.75	0.170
947.92	0.171
948.09	0.171
948.27	0.173
948.44	0.174
948.61	0.175
948.78	0.176
948.96	0.177
949.13	0.178
949.30	0.178
949.47	0.179
949.65	0.180
949.82	0.182
949.99	0.182
950.16	0.184
950.33	0.185
950.51	0.186
950.68	0.188
950.85	0.189
951.02	0.190
951.20	0.191
951.37	0.192
951.54	0.193
951.71	0.194
951.88	0.196
952.06	0.197
952.23	0.198
952.40	0.199
952.57	0.200
952.74	0.201
952.92	0.202
953.09	0.203
953.26	0.205
953.43	0.206
953.60	0.207
953.77	0.208
953.95	0.209
954.12	0.211
954.29	0.212
954.46	0.214
954.63	0.215
954.81	0.216
954.98	0.217
955.15	0.219
955.32	0.221
955.49	0.221
955.66	0.222
955.84	0.224
956.01	0.223
956.18	0.225
956.35	0.227
956.52	0.228
956.69	0.230
956.87	0.230
957.04	0.231
957.21	0.233
957.38	0.233
957.55	0.234
957.72	0.235
957.89	0.236
958.07	0.236
958.24	0.239
958.41	0.240
958.58	0.239
958.75	0.240
958.92	0.241
959.09	0.241
959.26	0.242
959.44	0.243
959.61	0.244
959.78	0.244
959.95	0.246
960.12	0.246
960.29	0.248
960.46	0.247
960.63	0.248
960.81	0.248
960.98	0.249
961.15	0.249
961.32	0.250
961.49	0.249
961.66	0.251
961.83	0.251
962.00	0.250
962.17	0.252
962.34	0.252
962.52	0.253
962.69	0.254
962.86	0.253
963.03	0.254
963.20	0.255
963.37	0.254
963.54	0.255
963.71	0.255
963.88	0.255
964.05	0.255
964.22	0.257
964.39	0.256
964.56	0.256
964.74	0.257
964.91	0.257
965.08	0.257
965.25	0.257
965.42	0.257
965.59	0.258
965.76	0.258
965.93	0.260
966.10	0.258
966.27	0.259
966.44	0.259
966.61	0.260
966.78	0.259
966.95	0.258
967.12	0.260
967.29	0.262
967.46	0.262
967.63	0.261
967.80	0.262
967.97	0.261
968.14	0.261
968.32	0.262
968.49	0.262
968.66	0.261
968.83	0.262
969.00	0.262
969.17	0.261
969.34	0.262
969.51	0.263
969.68	0.261
969.85	0.262
970.02	0.262
970.19	0.262
970.36	0.263
970.53	0.262
970.70	0.261
970.87	0.262
971.04	0.261
971.21	0.261
971.38	0.261
971.55	0.262
971.72	0.261
971.89	0.263
972.06	0.262
972.23	0.262
972.40	0.262
972.57	0.261
972.74	0.261
972.91	0.263
973.07	0.263
973.24	0.262
973.41	0.263
973.58	0.262
973.75	0.274
973.92	0.262
974.09	0.262
974.26	0.262
974.43	0.262
974.60	0.263
974.77	0.263
974.94	0.262
975.11	0.263
975.28	0.263
975.45	0.261
975.62	0.262
975.79	0.264
975.96	0.262
976.13	0.261
976.30	0.263
976.47	0.262
976.64	0.262
976.80	0.262
976.97	0.262
977.14	0.262
977.31	0.263
977.48	0.263
977.65	0.263
977.82	0.262
977.99	0.263
978.16	0.263
978.33	0.262
978.50	0.262
978.67	0.262
978.83	0.262
979.00	0.262
979.17	0.261
979.34	0.260
979.51	0.259
979.68	0.260
979.85	0.259
980.02	0.260
980.19	0.257
980.36	0.259
980.52	0.260
980.69	0.258
980.86	0.258
981.03	0.258
981.20	0.256
981.37	0.258
981.54	0.258
981.71	0.257
981.88	0.257
982.04	0.257
982.21	0.256
982.38	0.257
982.55	0.256
982.72	0.255
982.89	0.256
983.06	0.255
983.22	0.254
983.39	0.255
983.56	0.255
983.73	0.253
983.90	0.253
984.07	0.255
984.24	0.253
984.40	0.253
984.57	0.252
984.74	0.254
984.91	0.255
985.08	0.253
985.25	0.251
985.41	0.252
985.58	0.253
985.75	0.254
985.92	0.252
986.09	0.251
986.26	0.251
986.42	0.250
986.59	0.249
986.76	0.250
986.93	0.249
987.10	0.249
987.27	0.247
987.43	0.245
987.60	0.247
987.77	0.247
987.94	0.246
988.11	0.247
988.27	0.248
988.44	0.248
988.61	0.247
988.78	0.245
988.95	0.246
989.11	0.247
989.28	0.245
989.45	0.244
989.62	0.244
989.79	0.244
989.95	0.242
990.12	0.244
990.29	0.244
990.46	0.241
990.62	0.240
990.79	0.240
990.96	0.241
991.13	0.241
991.30	0.240
991.46	0.239
991.63	0.237
991.80	0.236
991.97	0.236
992.13	0.236
992.30	0.237
992.47	0.236
992.64	0.236
992.80	0.236
992.97	0.236
993.14	0.234
993.31	0.232
993.47	0.235
993.64	0.233
993.81	0.232
993.98	0.233
994.14	0.232
994.31	0.231
994.48	0.231
994.64	0.231
994.81	0.231
994.98	0.231
995.15	0.228
995.31	0.229
995.48	0.228
995.65	0.231
995.82	0.228
995.98	0.228
996.15	0.230
996.32	0.231
996.48	0.230
996.65	0.229
996.82	0.227
996.99	0.227
997.15	0.226
997.32	0.227
997.49	0.225
997.65	0.226
997.82	0.225
997.99	0.223
998.15	0.223
998.32	0.225
998.49	0.224
998.65	0.224
998.82	0.224
998.99	0.222
999.15	0.223
999.32	0.222
999.49	0.222
999.65	0.222
999.82	0.219
999.99	0.219
1000.15	0.219
1000.32	0.219
1000.49	0.219
1000.65	0.217
1000.82	0.216
1000.99	0.216
1001.15	0.216
1001.32	0.215
1001.49	0.215
1001.65	0.216
1001.82	0.218
1001.99	0.215
1002.15	0.214
1002.32	0.214
1002.49	0.215
1002.65	0.214
1002.82	0.213
1002.99	0.212
1003.15	0.213
1003.32	0.212
1003.48	0.213
1003.65	0.212
1003.82	0.210
1003.98	0.208
1004.15	0.207
1004.32	0.208
1004.48	0.209
1004.65	0.210
1004.81	0.207
1004.98	0.206
1005.15	0.207
1005.31	0.206
1005.48	0.204
1005.64	0.205
1005.81	0.207
1005.98	0.204
1006.14	0.204
1006.31	0.204
1006.47	0.202
1006.64	0.201
1006.81	0.200
1006.97	0.201
1007.14	0.201
1007.30	0.202
1007.47	0.202
1007.63	0.199
1007.80	0.198
1007.97	0.197
1008.13	0.197
1008.30	0.197
1008.46	0.197
1008.63	0.196
1008.79	0.196
1008.96	0.195
1009.13	0.196
1009.29	0.194
1009.46	0.194
1009.62	0.193
1009.79	0.191
1009.95	0.192
1010.12	0.192
1010.28	0.193
1010.45	0.191
1010.62	0.191
1010.78	0.190
1010.95	0.189
1011.11	0.189
1011.28	0.189
1011.44	0.191
1011.61	0.190
1011.77	0.189
1011.94	0.188
1012.10	0.189
1012.27	0.189
1012.43	0.190
1012.60	0.188
1012.76	0.188
1012.93	0.187
1013.10	0.186
1013.26	0.183
1013.43	0.184
1013.59	0.192
1013.76	0.184
1013.92	0.183
1014.09	0.182
1014.25	0.182
1014.42	0.183
1014.58	0.183
1014.75	0.185
1014.91	0.184
1015.08	0.187
1015.24	0.183
1015.41	0.185
1015.57	0.184
1015.73	0.183
1015.90	0.181
1016.06	0.184
1016.23	0.181
1016.39	0.181
1016.56	0.181
1016.72	0.180
1016.89	0.180
1017.05	0.182
1017.22	0.178
1017.38	0.179
1017.55	0.177
1017.71	0.178
1017.88	0.177
1018.04	0.177
1018.21	0.175
1018.37	0.175
1018.53	0.175
1018.70	0.173
1018.86	0.173
1019.03	0.175
1019.19	0.173
1019.36	0.173
1019.52	0.173
1019.69	0.174
1019.85	0.173
1020.01	0.173
1020.18	0.172
1020.34	0.172
1020.51	0.172
1020.67	0.173
1020.84	0.170
1021.00	0.171
1021.16	0.169
1021.33	0.169
1021.49	0.168
1021.66	0.168
1021.82	0.166
1021.98	0.166
1022.15	0.165
1022.31	0.164
1022.48	0.162
1022.64	0.164
1022.80	0.163
1022.97	0.161
1023.13	0.161
1023.30	0.161
1023.46	0.163
1023.62	0.160
1023.79	0.162
1023.95	0.163
1024.12	0.163
1024.28	0.162
1024.44	0.161
1024.61	0.161
1024.77	0.160
1024.93	0.159
1025.10	0.160
1025.26	0.158
1025.43	0.158
1025.59	0.154
1025.75	0.158
1025.92	0.156
1026.08	0.155
1026.24	0.155
1026.41	0.156
1026.57	0.155
1026.73	0.153
1026.90	0.156
1027.06	0.153
1027.23	0.155
1027.39	0.155
1027.55	0.155
1027.72	0.154
1027.88	0.154
1028.04	0.155
1028.21	0.155
1028.37	0.149
1028.53	0.154
1028.70	0.153
1028.86	0.151
1029.02	0.152
1029.19	0.152
1029.35	0.150
1029.51	0.149
1029.67	0.149
1029.84	0.149
1030.00	0.144
1030.16	0.145
1030.33	0.147
1030.49	0.144
1030.65	0.142
1030.82	0.156
1030.98	0.144
1031.14	0.143
1031.31	0.144
1031.47	0.142
1031.63	0.146
1031.79	0.144
1031.96	0.145
1032.12	0.145
1032.28	0.143
1032.45	0.147
1032.61	0.146
1032.77	0.144
1032.93	0.143
1033.10	0.145
1033.26	0.146
1033.42	0.144
1033.58	0.143
1033.75	0.144
1033.91	0.143
1034.07	0.146
1034.24	0.144
1034.40	0.141
1034.56	0.142
1034.72	0.142
1034.89	0.141
1035.05	0.140
1035.21	0.139
1035.37	0.138
1035.54	0.143
1035.70	0.140
1035.86	0.139
1036.02	0.141
1036.19	0.139
1036.35	0.138
1036.51	0.141
1036.67	0.139
1036.83	0.138
1037.00	0.138
1037.16	0.138
1037.32	0.137
1037.48	0.136
1037.65	0.141
1037.81	0.137
1037.97	0.137
1038.13	0.135
1038.29	0.134
1038.46	0.130
1038.62	0.135
1038.78	0.132
1038.94	0.129
1039.10	0.134
1039.27	0.130
1039.43	0.131
1039.59	0.130
1039.75	0.130
1039.91	0.130
1040.08	0.129
1040.24	0.133
1040.40	0.135
1040.56	0.134
1040.72	0.129
1040.89	0.132
1041.05	0.134
1041.21	0.134
1041.37	0.133
1041.53	0.139
1041.69	0.137
1041.86	0.136
1042.02	0.132
1042.18	0.131
1042.34	0.133
1042.50	0.137
1042.66	0.133
1042.83	0.132
1042.99	0.134
1043.15	0.128
1043.31	0.129
1043.47	0.133
1043.63	0.130
1043.79	0.130
1043.96	0.131
1044.12	0.135
1044.28	0.131
1044.44	0.133
1044.60	0.128
1044.76	0.127
1044.92	0.130
1045.09	0.130
1045.25	0.127
1045.41	0.128
1045.57	0.124
1045.73	0.124
1045.89	0.124
1046.05	0.127
1046.21	0.128
1046.38	0.135
1046.54	0.127
1046.70	0.125
1046.86	0.132
>>>>>End Processed Spectral Data<<<<<
