SpectraSuite Data File
++++++++++++++++++++++++++++++++++++
Date: Mon May 20 12:11:04 CDT 2013
User: Students
Dark Spectrum Present: Yes
Reference Spectrum Present: Yes
Number of Sampled Component Spectra: 1
Spectrometers: USB4H00887
Integration Time (usec): 60000 (USB4H00887)
Spectra Averaged: 5 (USB4H00887)
Boxcar Smoothing: 5 (USB4H00887)
Correct for Electrical Dark: No (USB4H00887)
Strobe/Lamp Enabled: No (USB4H00887)
Correct for Detector Non-linearity: No (USB4H00887)
Correct for Stray Light: No (USB4H00887)
Number of Pixels in Processed Spectrum: 3648
>>>>>Begin Processed Spectral Data<<<<<
345.83	-0.000
346.05	-0.000
346.26	-0.000
346.48	-0.000
346.70	0.112
346.92	0.062
347.14	0.048
347.35	0.055
347.57	0.329
347.79	-0.202
348.01	-0.141
348.23	-0.216
348.44	-0.000
348.66	0.130
348.88	-0.246
349.10	-0.103
349.32	0.049
349.53	0.007
349.75	0.014
349.97	-0.003
350.19	-0.010
350.41	-0.038
350.62	0.323
350.84	-0.020
351.06	-0.010
351.28	-0.020
351.50	-0.100
351.71	0.007
351.93	0.010
352.15	0.011
352.37	0.111
352.58	0.065
352.80	0.079
353.02	0.137
353.24	0.190
353.46	-0.000
353.67	-0.267
353.89	0.096
354.11	0.069
354.33	0.067
354.54	0.110
354.76	0.174
354.98	0.220
355.20	0.145
355.41	0.070
355.63	0.117
355.85	0.073
356.07	0.420
356.28	0.051
356.50	0.092
356.72	0.018
356.94	0.044
357.15	0.060
357.37	-0.000
357.59	0.043
357.81	0.007
358.02	0.031
358.24	0.018
358.46	0.097
358.68	0.085
358.89	0.056
359.11	-0.000
359.33	0.065
359.55	-0.525
359.76	0.096
359.98	0.110
360.20	0.107
360.42	0.091
360.63	0.103
360.85	0.062
361.07	0.325
361.29	0.067
361.50	0.241
361.72	0.092
361.94	0.332
362.15	0.140
362.37	0.090
362.59	0.099
362.81	0.162
363.02	0.283
363.24	0.420
363.46	0.212
363.68	0.273
363.89	0.166
364.11	0.227
364.33	0.297
364.54	0.194
364.76	0.234
364.98	0.228
365.20	0.240
365.41	0.130
365.63	0.184
365.85	0.133
366.06	0.309
366.28	0.313
366.50	0.190
366.71	0.076
366.93	0.095
367.15	0.082
367.37	0.090
367.58	0.131
367.80	0.162
368.02	0.361
368.23	0.111
368.45	0.131
368.67	0.125
368.88	0.132
369.10	-0.000
369.32	0.117
369.53	0.066
369.75	0.106
369.97	0.224
370.19	0.142
370.40	0.054
370.62	0.126
370.84	0.065
371.05	0.294
371.27	0.084
371.49	0.107
371.70	0.127
371.92	0.220
372.14	0.105
372.35	0.114
372.57	0.116
372.79	0.293
373.00	0.086
373.22	0.107
373.44	0.085
373.65	0.077
373.87	0.092
374.09	0.412
374.30	0.094
374.52	0.100
374.74	0.075
374.95	0.273
375.17	0.092
375.39	-0.000
375.60	0.135
375.82	0.278
376.04	0.124
376.25	0.156
376.47	0.085
376.68	0.236
376.90	0.124
377.12	0.254
377.33	0.163
377.55	0.463
377.77	0.217
377.98	0.331
378.20	0.183
378.42	0.225
378.63	0.287
378.85	-0.000
379.07	0.188
379.28	1.697
379.50	0.531
379.71	0.235
379.93	0.148
380.15	0.188
380.36	0.275
380.58	0.172
380.80	0.423
381.01	0.128
381.23	0.097
381.44	0.112
381.66	0.117
381.88	0.131
382.09	-0.065
382.31	0.096
382.53	0.098
382.74	0.431
382.96	0.143
383.17	0.118
383.39	0.170
383.61	0.238
383.82	0.168
384.04	0.206
384.25	0.275
384.47	0.262
384.69	0.257
384.90	0.251
385.12	0.583
385.33	0.335
385.55	0.256
385.77	0.409
385.98	0.196
386.20	0.255
386.41	0.209
386.63	0.232
386.85	0.193
387.06	0.237
387.28	0.350
387.49	0.220
387.71	0.158
387.93	0.141
388.14	0.367
388.36	0.165
388.57	0.140
388.79	0.164
389.01	0.679
389.22	0.207
389.44	0.182
389.65	0.160
389.87	0.157
390.08	0.187
390.30	0.143
390.52	0.254
390.73	0.246
390.95	0.196
391.16	0.175
391.38	-0.000
391.59	0.198
391.81	0.176
392.03	0.158
392.24	0.177
392.46	0.149
392.67	0.141
392.89	0.196
393.10	0.316
393.32	0.212
393.53	0.246
393.75	0.163
393.97	0.183
394.18	0.220
394.40	0.200
394.61	0.221
394.83	0.195
395.04	0.216
395.26	0.157
395.47	0.222
395.69	0.191
395.91	0.223
396.12	0.271
396.34	0.252
396.55	0.173
396.77	0.255
396.98	0.662
397.20	0.276
397.41	0.322
397.63	0.231
397.84	0.207
398.06	0.196
398.27	0.180
398.49	0.208
398.71	0.162
398.92	0.195
399.14	0.232
399.35	0.307
399.57	0.291
399.78	0.209
400.00	0.203
400.21	0.257
400.43	0.210
400.64	0.230
400.86	0.458
401.07	0.280
401.29	0.243
401.50	0.266
401.72	0.329
401.93	0.230
402.15	0.259
402.36	0.234
402.58	0.191
402.79	0.219
403.01	0.335
403.22	0.266
403.44	0.184
403.65	0.279
403.87	0.298
404.08	0.267
404.30	0.408
404.51	0.250
404.73	0.299
404.94	0.269
405.16	0.269
405.37	0.210
405.59	0.361
405.80	0.244
406.02	0.294
406.23	0.294
406.45	0.311
406.66	0.323
406.88	0.225
407.09	0.311
407.31	0.252
407.52	0.296
407.74	0.258
407.95	0.287
408.17	0.263
408.38	0.285
408.60	0.199
408.81	0.316
409.03	0.240
409.24	0.236
409.45	0.272
409.67	0.258
409.88	0.230
410.10	0.270
410.31	0.235
410.53	0.227
410.74	0.282
410.96	0.270
411.17	0.281
411.39	0.225
411.60	0.214
411.82	0.246
412.03	0.245
412.24	0.232
412.46	0.305
412.67	0.277
412.89	0.279
413.10	0.285
413.32	0.270
413.53	0.299
413.75	0.310
413.96	0.246
414.17	0.300
414.39	0.294
414.60	0.266
414.82	0.330
415.03	0.264
415.25	0.279
415.46	0.203
415.68	0.261
415.89	0.399
416.10	0.359
416.32	0.225
416.53	0.255
416.75	0.242
416.96	0.276
417.18	0.250
417.39	0.235
417.60	0.233
417.82	0.296
418.03	0.273
418.25	0.235
418.46	0.237
418.67	0.221
418.89	0.244
419.10	0.251
419.32	0.304
419.53	0.284
419.75	0.254
419.96	0.240
420.17	0.282
420.39	0.258
420.60	0.270
420.82	0.312
421.03	0.271
421.24	0.232
421.46	0.250
421.67	0.260
421.89	0.231
422.10	0.247
422.31	0.233
422.53	0.302
422.74	0.257
422.96	0.217
423.17	0.236
423.38	0.275
423.60	0.245
423.81	0.284
424.03	0.264
424.24	0.288
424.45	0.284
424.67	0.286
424.88	0.262
425.09	0.280
425.31	0.257
425.52	0.264
425.74	0.288
425.95	0.303
426.16	0.263
426.38	0.283
426.59	0.269
426.80	0.295
427.02	0.307
427.23	0.253
427.45	0.303
427.66	0.304
427.87	0.260
428.09	0.273
428.30	0.296
428.51	0.287
428.73	0.308
428.94	0.275
429.15	0.276
429.37	0.269
429.58	0.282
429.79	0.263
430.01	0.296
430.22	0.295
430.44	0.298
430.65	0.274
430.86	0.288
431.08	0.284
431.29	0.272
431.50	0.300
431.72	0.351
431.93	0.314
432.14	0.258
432.36	0.276
432.57	0.279
432.78	0.286
433.00	0.268
433.21	0.267
433.42	0.307
433.64	0.282
433.85	0.308
434.06	0.270
434.28	0.279
434.49	0.287
434.70	0.290
434.92	0.294
435.13	0.305
435.34	0.312
435.56	0.301
435.77	0.304
435.98	0.351
436.20	0.310
436.41	0.277
436.62	0.277
436.83	0.303
437.05	0.327
437.26	0.299
437.47	0.273
437.69	0.290
437.90	0.274
438.11	0.268
438.33	0.287
438.54	0.301
438.75	0.352
438.97	0.345
439.18	0.289
439.39	0.298
439.60	0.313
439.82	0.305
440.03	0.289
440.24	0.361
440.46	0.304
440.67	0.298
440.88	0.304
441.10	0.292
441.31	0.290
441.52	0.307
441.73	0.331
441.95	0.305
442.16	0.286
442.37	0.368
442.58	0.283
442.80	0.281
443.01	0.324
443.22	0.313
443.44	0.284
443.65	0.317
443.86	0.314
444.07	0.324
444.29	0.300
444.50	0.343
444.71	0.288
444.92	0.274
445.14	0.320
445.35	0.336
445.56	0.292
445.78	0.321
445.99	0.320
446.20	0.293
446.41	0.319
446.63	0.319
446.84	0.311
447.05	0.317
447.26	0.355
447.48	0.322
447.69	0.311
447.90	0.337
448.11	0.312
448.33	0.321
448.54	0.328
448.75	0.335
448.96	0.337
449.18	0.351
449.39	0.327
449.60	0.323
449.81	0.358
450.03	0.330
450.24	0.346
450.45	0.339
450.66	0.335
450.87	0.344
451.09	0.331
451.30	0.328
451.51	0.346
451.72	0.350
451.94	0.357
452.15	0.374
452.36	0.336
452.57	0.340
452.78	0.338
453.00	0.348
453.21	0.333
453.42	0.327
453.63	0.354
453.85	0.344
454.06	0.340
454.27	0.371
454.48	0.351
454.69	0.333
454.91	0.353
455.12	0.325
455.33	0.349
455.54	0.357
455.75	0.348
455.97	0.355
456.18	0.353
456.39	0.357
456.60	0.362
456.81	0.345
457.03	0.347
457.24	0.346
457.45	0.370
457.66	0.356
457.87	0.343
458.09	0.345
458.30	0.324
458.51	0.358
458.72	0.363
458.93	0.369
459.15	0.344
459.36	0.362
459.57	0.370
459.78	0.380
459.99	0.356
460.20	0.347
460.42	0.369
460.63	0.355
460.84	0.352
461.05	0.359
461.26	0.374
461.47	0.352
461.69	0.366
461.90	0.377
462.11	0.367
462.32	0.383
462.53	0.370
462.74	0.396
462.96	0.368
463.17	0.364
463.38	0.374
463.59	0.399
463.80	0.361
464.01	0.369
464.23	0.389
464.44	0.382
464.65	0.384
464.86	0.388
465.07	0.390
465.28	0.379
465.49	0.386
465.71	0.375
465.92	0.389
466.13	0.402
466.34	0.385
466.55	0.397
466.76	0.386
466.97	0.392
467.19	0.391
467.40	0.400
467.61	0.401
467.82	0.383
468.03	0.378
468.24	0.395
468.45	0.402
468.66	0.399
468.88	0.403
469.09	0.405
469.30	0.415
469.51	0.398
469.72	0.408
469.93	0.403
470.14	0.396
470.35	0.419
470.57	0.408
470.78	0.395
470.99	0.427
471.20	0.413
471.41	0.403
471.62	0.416
471.83	0.410
472.04	0.420
472.25	0.430
472.47	0.410
472.68	0.412
472.89	0.413
473.10	0.422
473.31	0.410
473.52	0.424
473.73	0.429
473.94	0.410
474.15	0.418
474.36	0.416
474.57	0.423
474.79	0.420
475.00	0.419
475.21	0.417
475.42	0.439
475.63	0.416
475.84	0.424
476.05	0.427
476.26	0.420
476.47	0.427
476.68	0.439
476.89	0.423
477.10	0.434
477.32	0.432
477.53	0.444
477.74	0.426
477.95	0.437
478.16	0.426
478.37	0.435
478.58	0.436
478.79	0.440
479.00	0.439
479.21	0.429
479.42	0.439
479.63	0.439
479.84	0.430
480.05	0.430
480.26	0.436
480.47	0.439
480.69	0.440
480.90	0.435
481.11	0.436
481.32	0.450
481.53	0.437
481.74	0.450
481.95	0.442
482.16	0.447
482.37	0.451
482.58	0.446
482.79	0.450
483.00	0.458
483.21	0.444
483.42	0.436
483.63	0.455
483.84	0.461
484.05	0.457
484.26	0.453
484.47	0.451
484.68	0.442
484.89	0.443
485.10	0.454
485.31	0.449
485.52	0.451
485.73	0.451
485.94	0.458
486.15	0.448
486.37	0.452
486.58	0.444
486.79	0.448
487.00	0.458
487.21	0.458
487.42	0.457
487.63	0.458
487.84	0.463
488.05	0.464
488.26	0.456
488.47	0.457
488.68	0.465
488.89	0.460
489.10	0.460
489.31	0.463
489.52	0.470
489.73	0.464
489.94	0.472
490.15	0.462
490.36	0.471
490.57	0.461
490.78	0.457
490.99	0.466
491.20	0.481
491.41	0.472
491.62	0.458
491.83	0.465
492.04	0.465
492.25	0.467
492.45	0.467
492.66	0.472
492.87	0.470
493.08	0.467
493.29	0.464
493.50	0.463
493.71	0.467
493.92	0.466
494.13	0.468
494.34	0.472
494.55	0.475
494.76	0.481
494.97	0.480
495.18	0.472
495.39	0.476
495.60	0.464
495.81	0.465
496.02	0.469
496.23	0.469
496.44	0.477
496.65	0.476
496.86	0.475
497.07	0.480
497.28	0.479
497.49	0.469
497.70	0.469
497.91	0.474
498.12	0.470
498.32	0.478
498.53	0.474
498.74	0.473
498.95	0.477
499.16	0.469
499.37	0.472
499.58	0.475
499.79	0.482
500.00	0.483
500.21	0.488
500.42	0.476
500.63	0.477
500.84	0.482
501.05	0.477
501.26	0.483
501.46	0.491
501.67	0.483
501.88	0.483
502.09	0.477
502.30	0.479
502.51	0.490
502.72	0.480
502.93	0.485
503.14	0.489
503.35	0.483
503.56	0.482
503.77	0.488
503.97	0.484
504.18	0.484
504.39	0.492
504.60	0.484
504.81	0.491
505.02	0.490
505.23	0.490
505.44	0.487
505.65	0.489
505.86	0.485
506.07	0.498
506.27	0.490
506.48	0.492
506.69	0.488
506.90	0.494
507.11	0.492
507.32	0.487
507.53	0.489
507.74	0.486
507.95	0.490
508.15	0.491
508.36	0.492
508.57	0.494
508.78	0.491
508.99	0.491
509.20	0.485
509.41	0.490
509.62	0.487
509.82	0.485
510.03	0.488
510.24	0.488
510.45	0.493
510.66	0.491
510.87	0.490
511.08	0.481
511.29	0.491
511.49	0.486
511.70	0.496
511.91	0.482
512.12	0.483
512.33	0.490
512.54	0.493
512.75	0.490
512.95	0.495
513.16	0.493
513.37	0.488
513.58	0.495
513.79	0.488
514.00	0.489
514.20	0.493
514.41	0.490
514.62	0.483
514.83	0.493
515.04	0.490
515.25	0.487
515.46	0.490
515.66	0.490
515.87	0.493
516.08	0.485
516.29	0.490
516.50	0.486
516.71	0.484
516.91	0.487
517.12	0.490
517.33	0.487
517.54	0.484
517.75	0.485
517.95	0.488
518.16	0.491
518.37	0.485
518.58	0.486
518.79	0.480
519.00	0.487
519.20	0.488
519.41	0.482
519.62	0.487
519.83	0.488
520.04	0.480
520.24	0.479
520.45	0.482
520.66	0.486
520.87	0.477
521.08	0.477
521.28	0.478
521.49	0.481
521.70	0.474
521.91	0.476
522.12	0.471
522.32	0.476
522.53	0.472
522.74	0.469
522.95	0.472
523.16	0.473
523.36	0.474
523.57	0.470
523.78	0.469
523.99	0.472
524.20	0.470
524.40	0.473
524.61	0.475
524.82	0.469
525.03	0.470
525.23	0.469
525.44	0.465
525.65	0.465
525.86	0.470
526.06	0.463
526.27	0.463
526.48	0.466
526.69	0.461
526.90	0.462
527.10	0.469
527.31	0.458
527.52	0.455
527.73	0.454
527.93	0.456
528.14	0.457
528.35	0.454
528.56	0.454
528.76	0.452
528.97	0.450
529.18	0.448
529.39	0.448
529.59	0.449
529.80	0.458
530.01	0.451
530.22	0.451
530.42	0.443
530.63	0.448
530.84	0.441
531.05	0.445
531.25	0.446
531.46	0.443
531.67	0.437
531.88	0.442
532.08	0.440
532.29	0.438
532.50	0.436
532.70	0.433
532.91	0.430
533.12	0.432
533.33	0.438
533.53	0.430
533.74	0.430
533.95	0.432
534.15	0.430
534.36	0.430
534.57	0.425
534.78	0.426
534.98	0.429
535.19	0.421
535.40	0.421
535.60	0.428
535.81	0.421
536.02	0.422
536.23	0.420
536.43	0.420
536.64	0.416
536.85	0.419
537.05	0.422
537.26	0.414
537.47	0.415
537.67	0.411
537.88	0.409
538.09	0.412
538.30	0.408
538.50	0.405
538.71	0.409
538.92	0.405
539.12	0.404
539.33	0.403
539.54	0.403
539.74	0.406
539.95	0.403
540.16	0.402
540.36	0.399
540.57	0.399
540.78	0.397
540.98	0.398
541.19	0.397
541.40	0.393
541.60	0.397
541.81	0.395
542.02	0.395
542.22	0.392
542.43	0.391
542.64	0.389
542.84	0.390
543.05	0.387
543.26	0.387
543.46	0.389
543.67	0.389
543.88	0.388
544.08	0.385
544.29	0.383
544.50	0.383
544.70	0.384
544.91	0.381
545.12	0.382
545.32	0.380
545.53	0.382
545.74	0.378
545.94	0.376
546.15	0.375
546.35	0.374
546.56	0.372
546.77	0.371
546.97	0.371
547.18	0.367
547.39	0.368
547.59	0.368
547.80	0.367
548.01	0.370
548.21	0.369
548.42	0.365
548.62	0.366
548.83	0.365
549.04	0.364
549.24	0.361
549.45	0.361
549.65	0.360
549.86	0.358
550.07	0.358
550.27	0.357
550.48	0.361
550.69	0.355
550.89	0.356
551.10	0.355
551.30	0.355
551.51	0.355
551.72	0.351
551.92	0.352
552.13	0.352
552.33	0.353
552.54	0.351
552.75	0.348
552.95	0.350
553.16	0.347
553.36	0.346
553.57	0.346
553.78	0.344
553.98	0.345
554.19	0.341
554.39	0.339
554.60	0.341
554.80	0.341
555.01	0.338
555.22	0.339
555.42	0.338
555.63	0.335
555.83	0.338
556.04	0.335
556.25	0.337
556.45	0.332
556.66	0.332
556.86	0.334
557.07	0.334
557.27	0.334
557.48	0.332
557.68	0.331
557.89	0.332
558.10	0.330
558.30	0.329
558.51	0.328
558.71	0.327
558.92	0.325
559.12	0.326
559.33	0.329
559.54	0.326
559.74	0.324
559.95	0.324
560.15	0.324
560.36	0.324
560.56	0.321
560.77	0.322
560.97	0.323
561.18	0.320
561.38	0.320
561.59	0.323
561.79	0.320
562.00	0.320
562.21	0.319
562.41	0.318
562.62	0.318
562.82	0.317
563.03	0.315
563.23	0.315
563.44	0.316
563.64	0.314
563.85	0.315
564.05	0.311
564.26	0.311
564.46	0.311
564.67	0.313
564.87	0.310
565.08	0.308
565.28	0.309
565.49	0.310
565.69	0.308
565.90	0.307
566.10	0.309
566.31	0.305
566.51	0.307
566.72	0.307
566.92	0.303
567.13	0.304
567.33	0.303
567.54	0.303
567.74	0.302
567.95	0.300
568.15	0.301
568.36	0.301
568.56	0.301
568.77	0.298
568.97	0.298
569.18	0.298
569.38	0.298
569.59	0.299
569.79	0.298
570.00	0.297
570.20	0.296
570.41	0.295
570.61	0.295
570.82	0.296
571.02	0.294
571.23	0.296
571.43	0.293
571.64	0.292
571.84	0.292
572.05	0.291
572.25	0.291
572.45	0.290
572.66	0.288
572.86	0.288
573.07	0.288
573.27	0.288
573.48	0.288
573.68	0.285
573.89	0.285
574.09	0.286
574.30	0.285
574.50	0.285
574.70	0.286
574.91	0.284
575.11	0.285
575.32	0.285
575.52	0.282
575.73	0.283
575.93	0.283
576.14	0.282
576.34	0.282
576.54	0.281
576.75	0.280
576.95	0.280
577.16	0.279
577.36	0.278
577.57	0.279
577.77	0.277
577.97	0.276
578.18	0.278
578.38	0.276
578.59	0.275
578.79	0.274
579.00	0.275
579.20	0.273
579.40	0.273
579.61	0.273
579.81	0.272
580.02	0.270
580.22	0.270
580.42	0.270
580.63	0.270
580.83	0.269
581.04	0.269
581.24	0.269
581.45	0.268
581.65	0.268
581.85	0.268
582.06	0.267
582.26	0.267
582.47	0.267
582.67	0.267
582.87	0.267
583.08	0.265
583.28	0.266
583.48	0.265
583.69	0.263
583.89	0.264
584.10	0.265
584.30	0.263
584.50	0.263
584.71	0.262
584.91	0.262
585.12	0.261
585.32	0.263
585.52	0.261
585.73	0.260
585.93	0.260
586.13	0.260
586.34	0.259
586.54	0.259
586.75	0.258
586.95	0.258
587.15	0.258
587.36	0.257
587.56	0.256
587.76	0.255
587.97	0.255
588.17	0.255
588.37	0.255
588.58	0.256
588.78	0.254
588.98	0.255
589.19	0.254
589.39	0.252
589.60	0.255
589.80	0.252
590.00	0.252
590.21	0.252
590.41	0.251
590.61	0.251
590.82	0.250
591.02	0.250
591.22	0.248
591.43	0.249
591.63	0.248
591.83	0.248
592.04	0.247
592.24	0.248
592.44	0.245
592.65	0.245
592.85	0.246
593.05	0.246
593.26	0.245
593.46	0.245
593.66	0.245
593.86	0.244
594.07	0.243
594.27	0.243
594.47	0.242
594.68	0.242
594.88	0.243
595.08	0.243
595.29	0.243
595.49	0.241
595.69	0.241
595.90	0.241
596.10	0.242
596.30	0.241
596.50	0.240
596.71	0.240
596.91	0.240
597.11	0.240
597.32	0.240
597.52	0.240
597.72	0.240
597.93	0.240
598.13	0.238
598.33	0.239
598.53	0.238
598.74	0.238
598.94	0.237
599.14	0.237
599.35	0.237
599.55	0.237
599.75	0.236
599.95	0.235
600.16	0.236
600.36	0.234
600.56	0.235
600.76	0.234
600.97	0.233
601.17	0.233
601.37	0.233
601.58	0.232
601.78	0.233
601.98	0.232
602.18	0.231
602.39	0.231
602.59	0.232
602.79	0.231
602.99	0.231
603.20	0.230
603.40	0.230
603.60	0.230
603.80	0.230
604.01	0.230
604.21	0.229
604.41	0.229
604.61	0.228
604.82	0.228
605.02	0.229
605.22	0.228
605.42	0.228
605.62	0.228
605.83	0.227
606.03	0.226
606.23	0.226
606.43	0.226
606.64	0.226
606.84	0.226
607.04	0.225
607.24	0.225
607.45	0.225
607.65	0.224
607.85	0.226
608.05	0.224
608.25	0.224
608.46	0.223
608.66	0.224
608.86	0.223
609.06	0.222
609.26	0.221
609.47	0.222
609.67	0.220
609.87	0.222
610.07	0.221
610.28	0.220
610.48	0.220
610.68	0.220
610.88	0.219
611.08	0.220
611.29	0.219
611.49	0.219
611.69	0.220
611.89	0.218
612.09	0.217
612.29	0.217
612.50	0.217
612.70	0.217
612.90	0.216
613.10	0.215
613.30	0.215
613.51	0.215
613.71	0.215
613.91	0.220
614.11	0.214
614.31	0.215
614.51	0.215
614.72	0.214
614.92	0.214
615.12	0.213
615.32	0.214
615.52	0.214
615.72	0.214
615.93	0.214
616.13	0.214
616.33	0.213
616.53	0.213
616.73	0.213
616.93	0.211
617.14	0.213
617.34	0.212
617.54	0.212
617.74	0.213
617.94	0.211
618.14	0.211
618.34	0.210
618.55	0.210
618.75	0.211
618.95	0.211
619.15	0.211
619.35	0.210
619.55	0.209
619.75	0.210
619.96	0.209
620.16	0.210
620.36	0.210
620.56	0.209
620.76	0.209
620.96	0.208
621.16	0.208
621.36	0.208
621.57	0.208
621.77	0.208
621.97	0.207
622.17	0.207
622.37	0.207
622.57	0.207
622.77	0.206
622.97	0.205
623.18	0.205
623.38	0.206
623.58	0.205
623.78	0.204
623.98	0.204
624.18	0.203
624.38	0.203
624.58	0.202
624.78	0.203
624.98	0.203
625.19	0.202
625.39	0.202
625.59	0.201
625.79	0.202
625.99	0.202
626.19	0.202
626.39	0.202
626.59	0.202
626.79	0.202
626.99	0.202
627.19	0.202
627.40	0.203
627.60	0.201
627.80	0.201
628.00	0.201
628.20	0.200
628.40	0.200
628.60	0.199
628.80	0.198
629.00	0.198
629.20	0.198
629.40	0.198
629.60	0.196
629.80	0.197
630.00	0.197
630.20	0.197
630.41	0.196
630.61	0.196
630.81	0.196
631.01	0.196
631.21	0.195
631.41	0.195
631.61	0.196
631.81	0.195
632.01	0.195
632.21	0.195
632.41	0.194
632.61	0.193
632.81	0.193
633.01	0.194
633.21	0.193
633.41	0.194
633.61	0.192
633.81	0.192
634.01	0.192
634.21	0.192
634.41	0.192
634.61	0.192
634.81	0.191
635.01	0.191
635.22	0.191
635.42	0.191
635.62	0.191
635.82	0.191
636.02	0.191
636.22	0.190
636.42	0.190
636.62	0.190
636.82	0.190
637.02	0.190
637.22	0.190
637.42	0.190
637.62	0.189
637.82	0.189
638.02	0.188
638.22	0.188
638.42	0.187
638.62	0.187
638.82	0.187
639.02	0.187
639.22	0.186
639.42	0.185
639.62	0.185
639.82	0.185
640.02	0.185
640.22	0.185
640.42	0.185
640.62	0.185
640.82	0.185
641.02	0.184
641.22	0.185
641.42	0.184
641.61	0.184
641.81	0.184
642.01	0.184
642.21	0.184
642.41	0.184
642.61	0.183
642.81	0.182
643.01	0.182
643.21	0.181
643.41	0.181
643.61	0.181
643.81	0.181
644.01	0.179
644.21	0.179
644.41	0.179
644.61	0.179
644.81	0.179
645.01	0.179
645.21	0.179
645.41	0.179
645.61	0.179
645.81	0.178
646.01	0.178
646.21	0.179
646.40	0.178
646.60	0.179
646.80	0.179
647.00	0.178
647.20	0.177
647.40	0.177
647.60	0.177
647.80	0.176
648.00	0.177
648.20	0.176
648.40	0.176
648.60	0.175
648.80	0.175
649.00	0.175
649.20	0.176
649.39	0.175
649.59	0.174
649.79	0.174
649.99	0.174
650.19	0.173
650.39	0.173
650.59	0.173
650.79	0.172
650.99	0.172
651.19	0.171
651.39	0.171
651.58	0.171
651.78	0.170
651.98	0.170
652.18	0.170
652.38	0.169
652.58	0.170
652.78	0.169
652.98	0.169
653.18	0.169
653.38	0.169
653.57	0.169
653.77	0.169
653.97	0.168
654.17	0.168
654.37	0.167
654.57	0.168
654.77	0.167
654.97	0.167
655.16	0.167
655.36	0.166
655.56	0.166
655.76	0.165
655.96	0.166
656.16	0.164
656.36	0.165
656.56	0.164
656.75	0.164
656.95	0.164
657.15	0.164
657.35	0.163
657.55	0.163
657.75	0.163
657.95	0.163
658.14	0.163
658.34	0.163
658.54	0.162
658.74	0.162
658.94	0.161
659.14	0.161
659.34	0.161
659.53	0.160
659.73	0.160
659.93	0.160
660.13	0.159
660.33	0.160
660.53	0.159
660.72	0.160
660.92	0.159
661.12	0.159
661.32	0.159
661.52	0.158
661.72	0.158
661.91	0.158
662.11	0.158
662.31	0.157
662.51	0.157
662.71	0.157
662.90	0.156
663.10	0.156
663.30	0.155
663.50	0.155
663.70	0.155
663.90	0.154
664.09	0.154
664.29	0.154
664.49	0.154
664.69	0.154
664.89	0.153
665.08	0.153
665.28	0.153
665.48	0.153
665.68	0.152
665.88	0.152
666.07	0.152
666.27	0.152
666.47	0.151
666.67	0.151
666.87	0.151
667.06	0.150
667.26	0.150
667.46	0.149
667.66	0.149
667.85	0.149
668.05	0.149
668.25	0.149
668.45	0.149
668.65	0.149
668.84	0.148
669.04	0.148
669.24	0.147
669.44	0.147
669.63	0.146
669.83	0.147
670.03	0.146
670.23	0.145
670.42	0.145
670.62	0.144
670.82	0.144
671.02	0.144
671.22	0.143
671.41	0.143
671.61	0.144
671.81	0.144
672.01	0.143
672.20	0.143
672.40	0.142
672.60	0.142
672.80	0.142
672.99	0.142
673.19	0.142
673.39	0.141
673.58	0.141
673.78	0.140
673.98	0.140
674.18	0.140
674.37	0.139
674.57	0.139
674.77	0.139
674.97	0.139
675.16	0.139
675.36	0.139
675.56	0.138
675.75	0.139
675.95	0.138
676.15	0.138
676.35	0.138
676.54	0.138
676.74	0.137
676.94	0.137
677.13	0.137
677.33	0.136
677.53	0.136
677.73	0.136
677.92	0.135
678.12	0.135
678.32	0.135
678.51	0.135
678.71	0.134
678.91	0.134
679.11	0.133
679.30	0.133
679.50	0.133
679.70	0.132
679.89	0.132
680.09	0.132
680.29	0.132
680.48	0.132
680.68	0.131
680.88	0.132
681.07	0.132
681.27	0.132
681.47	0.131
681.66	0.131
681.86	0.131
682.06	0.131
682.25	0.130
682.45	0.130
682.65	0.130
682.84	0.129
683.04	0.129
683.24	0.128
683.43	0.129
683.63	0.129
683.83	0.129
684.02	0.128
684.22	0.128
684.42	0.128
684.61	0.128
684.81	0.128
685.01	0.127
685.20	0.127
685.40	0.127
685.60	0.127
685.79	0.126
685.99	0.126
686.19	0.126
686.38	0.126
686.58	0.127
686.77	0.126
686.97	0.126
687.17	0.126
687.36	0.126
687.56	0.125
687.76	0.125
687.95	0.125
688.15	0.125
688.34	0.124
688.54	0.124
688.74	0.123
688.93	0.122
689.13	0.122
689.33	0.122
689.52	0.121
689.72	0.122
689.91	0.121
690.11	0.120
690.31	0.120
690.50	0.120
690.70	0.120
690.89	0.120
691.09	0.119
691.29	0.119
691.48	0.119
691.68	0.119
691.87	0.119
692.07	0.119
692.27	0.119
692.46	0.119
692.66	0.118
692.85	0.118
693.05	0.118
693.25	0.118
693.44	0.117
693.64	0.117
693.83	0.117
694.03	0.117
694.22	0.116
694.42	0.116
694.62	0.117
694.81	0.117
695.01	0.117
695.20	0.116
695.40	0.115
695.59	0.116
695.79	0.115
695.99	0.115
696.18	0.115
696.38	0.115
696.57	0.115
696.77	0.114
696.96	0.115
697.16	0.114
697.36	0.114
697.55	0.114
697.75	0.114
697.94	0.113
698.14	0.113
698.33	0.113
698.53	0.113
698.72	0.112
698.92	0.112
699.11	0.112
699.31	0.112
699.51	0.112
699.70	0.111
699.90	0.111
700.09	0.111
700.29	0.111
700.48	0.111
700.68	0.111
700.87	0.111
701.07	0.110
701.26	0.109
701.46	0.109
701.65	0.109
701.85	0.109
702.04	0.109
702.24	0.108
702.43	0.108
702.63	0.108
702.82	0.108
703.02	0.107
703.21	0.108
703.41	0.107
703.60	0.107
703.80	0.107
703.99	0.107
704.19	0.107
704.38	0.106
704.58	0.105
704.77	0.106
704.97	0.105
705.16	0.105
705.36	0.106
705.55	0.106
705.75	0.105
705.94	0.106
706.14	0.106
706.33	0.105
706.53	0.106
706.72	0.106
706.92	0.105
707.11	0.105
707.31	0.105
707.50	0.104
707.70	0.105
707.89	0.104
708.09	0.104
708.28	0.104
708.48	0.104
708.67	0.103
708.86	0.103
709.06	0.103
709.25	0.103
709.45	0.103
709.64	0.103
709.84	0.102
710.03	0.102
710.23	0.102
710.42	0.102
710.62	0.102
710.81	0.102
711.00	0.102
711.20	0.102
711.39	0.101
711.59	0.101
711.78	0.101
711.98	0.101
712.17	0.101
712.37	0.100
712.56	0.100
712.75	0.100
712.95	0.100
713.14	0.100
713.34	0.100
713.53	0.101
713.73	0.100
713.92	0.100
714.11	0.100
714.31	0.100
714.50	0.100
714.70	0.100
714.89	0.100
715.08	0.100
715.28	0.100
715.47	0.099
715.67	0.099
715.86	0.099
716.06	0.099
716.25	0.099
716.44	0.099
716.64	0.098
716.83	0.098
717.03	0.098
717.22	0.097
717.41	0.097
717.61	0.097
717.80	0.097
717.99	0.097
718.19	0.097
718.38	0.098
718.58	0.097
718.77	0.097
718.96	0.097
719.16	0.097
719.35	0.097
719.55	0.096
719.74	0.097
719.93	0.096
720.13	0.096
720.32	0.096
720.51	0.096
720.71	0.096
720.90	0.096
721.10	0.096
721.29	0.095
721.48	0.096
721.68	0.096
721.87	0.096
722.06	0.095
722.26	0.096
722.45	0.095
722.64	0.095
722.84	0.095
723.03	0.095
723.22	0.095
723.42	0.096
723.61	0.096
723.80	0.095
724.00	0.095
724.19	0.095
724.38	0.095
724.58	0.095
724.77	0.095
724.96	0.095
725.16	0.095
725.35	0.095
725.54	0.095
725.74	0.095
725.93	0.094
726.12	0.094
726.32	0.094
726.51	0.095
726.70	0.094
726.90	0.095
727.09	0.094
727.28	0.094
727.48	0.095
727.67	0.094
727.86	0.094
728.06	0.094
728.25	0.094
728.44	0.094
728.64	0.094
728.83	0.094
729.02	0.094
729.21	0.094
729.41	0.094
729.60	0.093
729.79	0.094
729.99	0.093
730.18	0.093
730.37	0.093
730.56	0.092
730.76	0.092
730.95	0.092
731.14	0.092
731.34	0.092
731.53	0.092
731.72	0.092
731.91	0.092
732.11	0.092
732.30	0.092
732.49	0.092
732.69	0.093
732.88	0.092
733.07	0.092
733.26	0.093
733.46	0.092
733.65	0.092
733.84	0.092
734.03	0.092
734.23	0.092
734.42	0.092
734.61	0.092
734.80	0.092
735.00	0.093
735.19	0.092
735.38	0.092
735.57	0.093
735.77	0.092
735.96	0.092
736.15	0.092
736.34	0.092
736.54	0.092
736.73	0.093
736.92	0.092
737.11	0.092
737.31	0.092
737.50	0.092
737.69	0.092
737.88	0.092
738.07	0.092
738.27	0.092
738.46	0.092
738.65	0.091
738.84	0.091
739.04	0.091
739.23	0.092
739.42	0.091
739.61	0.091
739.80	0.091
740.00	0.091
740.19	0.091
740.38	0.091
740.57	0.091
740.76	0.090
740.96	0.090
741.15	0.090
741.34	0.090
741.53	0.090
741.72	0.090
741.92	0.090
742.11	0.089
742.30	0.089
742.49	0.089
742.68	0.089
742.88	0.090
743.07	0.090
743.26	0.089
743.45	0.090
743.64	0.089
743.84	0.088
744.03	0.088
744.22	0.089
744.41	0.088
744.60	0.088
744.79	0.088
744.99	0.088
745.18	0.088
745.37	0.088
745.56	0.088
745.75	0.088
745.94	0.088
746.14	0.088
746.33	0.088
746.52	0.088
746.71	0.088
746.90	0.087
747.09	0.087
747.28	0.086
747.48	0.086
747.67	0.086
747.86	0.086
748.05	0.086
748.24	0.086
748.43	0.086
748.62	0.086
748.82	0.086
749.01	0.086
749.20	0.085
749.39	0.086
749.58	0.086
749.77	0.086
749.96	0.086
750.16	0.086
750.35	0.086
750.54	0.086
750.73	0.085
750.92	0.086
751.11	0.086
751.30	0.086
751.49	0.086
751.68	0.085
751.88	0.085
752.07	0.084
752.26	0.085
752.45	0.084
752.64	0.084
752.83	0.084
753.02	0.084
753.21	0.083
753.40	0.083
753.60	0.083
753.79	0.084
753.98	0.084
754.17	0.084
754.36	0.083
754.55	0.083
754.74	0.083
754.93	0.083
755.12	0.083
755.31	0.083
755.50	0.083
755.70	0.083
755.89	0.082
756.08	0.082
756.27	0.082
756.46	0.082
756.65	0.082
756.84	0.082
757.03	0.082
757.22	0.081
757.41	0.082
757.60	0.081
757.79	0.082
757.98	0.082
758.17	0.082
758.36	0.082
758.56	0.081
758.75	0.081
758.94	0.081
759.13	0.081
759.32	0.081
759.51	0.081
759.70	0.081
759.89	0.081
760.08	0.081
760.27	0.080
760.46	0.080
760.65	0.080
760.84	0.080
761.03	0.081
761.22	0.081
761.41	0.081
761.60	0.080
761.79	0.080
761.98	0.080
762.17	0.080
762.36	0.080
762.55	0.080
762.74	0.080
762.93	0.079
763.12	0.079
763.31	0.079
763.50	0.079
763.69	0.079
763.88	0.079
764.07	0.079
764.26	0.079
764.45	0.079
764.64	0.079
764.83	0.079
765.02	0.079
765.21	0.079
765.40	0.080
765.59	0.079
765.78	0.079
765.97	0.079
766.16	0.079
766.35	0.079
766.54	0.079
766.73	0.079
766.92	0.079
767.11	0.079
767.30	0.079
767.49	0.078
767.68	0.079
767.87	0.078
768.06	0.078
768.25	0.078
768.44	0.078
768.63	0.078
768.82	0.077
769.01	0.077
769.20	0.077
769.39	0.077
769.58	0.078
769.77	0.078
769.96	0.078
770.15	0.078
770.34	0.077
770.53	0.077
770.72	0.077
770.91	0.077
771.10	0.077
771.29	0.077
771.47	0.076
771.66	0.076
771.85	0.076
772.04	0.077
772.23	0.076
772.42	0.076
772.61	0.076
772.80	0.077
772.99	0.077
773.18	0.076
773.37	0.077
773.56	0.077
773.75	0.077
773.94	0.077
774.13	0.076
774.31	0.076
774.50	0.076
774.69	0.075
774.88	0.075
775.07	0.075
775.26	0.075
775.45	0.074
775.64	0.075
775.83	0.075
776.02	0.074
776.21	0.074
776.40	0.075
776.58	0.075
776.77	0.075
776.96	0.075
777.15	0.075
777.34	0.075
777.53	0.076
777.72	0.076
777.91	0.076
778.10	0.076
778.28	0.076
778.47	0.076
778.66	0.075
778.85	0.075
779.04	0.075
779.23	0.074
779.42	0.074
779.61	0.074
779.79	0.074
779.98	0.074
780.17	0.074
780.36	0.074
780.55	0.073
780.74	0.073
780.93	0.073
781.12	0.073
781.30	0.073
781.49	0.073
781.68	0.073
781.87	0.073
782.06	0.073
782.25	0.073
782.44	0.073
782.62	0.073
782.81	0.074
783.00	0.074
783.19	0.073
783.38	0.073
783.57	0.073
783.75	0.072
783.94	0.073
784.13	0.073
784.32	0.072
784.51	0.072
784.70	0.072
784.88	0.072
785.07	0.072
785.26	0.072
785.45	0.072
785.64	0.072
785.83	0.072
786.01	0.072
786.20	0.072
786.39	0.072
786.58	0.072
786.77	0.072
786.95	0.072
787.14	0.072
787.33	0.072
787.52	0.072
787.71	0.072
787.90	0.072
788.08	0.072
788.27	0.072
788.46	0.072
788.65	0.072
788.84	0.072
789.02	0.072
789.21	0.072
789.40	0.072
789.59	0.072
789.77	0.072
789.96	0.071
790.15	0.072
790.34	0.071
790.53	0.071
790.71	0.070
790.90	0.070
791.09	0.070
791.28	0.070
791.46	0.070
791.65	0.070
791.84	0.070
792.03	0.070
792.22	0.070
792.40	0.070
792.59	0.070
792.78	0.070
792.97	0.070
793.15	0.070
793.34	0.070
793.53	0.070
793.72	0.070
793.90	0.069
794.09	0.069
794.28	0.069
794.47	0.069
794.65	0.069
794.84	0.069
795.03	0.069
795.22	0.069
795.40	0.069
795.59	0.069
795.78	0.069
795.97	0.069
796.15	0.069
796.34	0.069
796.53	0.069
796.71	0.070
796.90	0.070
797.09	0.070
797.28	0.070
797.46	0.069
797.65	0.069
797.84	0.069
798.02	0.069
798.21	0.069
798.40	0.069
798.59	0.068
798.77	0.068
798.96	0.068
799.15	0.068
799.33	0.068
799.52	0.068
799.71	0.068
799.90	0.068
800.08	0.068
800.27	0.068
800.46	0.068
800.64	0.068
800.83	0.068
801.02	0.068
801.20	0.068
801.39	0.068
801.58	0.068
801.76	0.068
801.95	0.068
802.14	0.067
802.32	0.068
802.51	0.068
802.70	0.067
802.88	0.067
803.07	0.067
803.26	0.067
803.44	0.067
803.63	0.067
803.82	0.067
804.00	0.067
804.19	0.068
804.38	0.068
804.56	0.068
804.75	0.068
804.94	0.068
805.12	0.068
805.31	0.068
805.50	0.068
805.68	0.068
805.87	0.068
806.06	0.068
806.24	0.068
806.43	0.068
806.62	0.068
806.80	0.067
806.99	0.067
807.17	0.067
807.36	0.067
807.55	0.068
807.73	0.067
807.92	0.068
808.11	0.067
808.29	0.067
808.48	0.067
808.66	0.067
808.85	0.066
809.04	0.066
809.22	0.066
809.41	0.067
809.59	0.066
809.78	0.067
809.97	0.066
810.15	0.066
810.34	0.066
810.53	0.066
810.71	0.066
810.90	0.066
811.08	0.066
811.27	0.066
811.45	0.066
811.64	0.066
811.83	0.066
812.01	0.066
812.20	0.066
812.38	0.066
812.57	0.066
812.76	0.066
812.94	0.066
813.13	0.066
813.31	0.066
813.50	0.066
813.68	0.066
813.87	0.066
814.06	0.066
814.24	0.066
814.43	0.066
814.61	0.066
814.80	0.065
814.98	0.066
815.17	0.065
815.36	0.065
815.54	0.066
815.73	0.065
815.91	0.065
816.10	0.065
816.28	0.066
816.47	0.066
816.65	0.066
816.84	0.066
817.03	0.067
817.21	0.067
817.40	0.067
817.58	0.067
817.77	0.067
817.95	0.067
818.14	0.067
818.32	0.067
818.51	0.067
818.69	0.067
818.88	0.066
819.06	0.066
819.25	0.066
819.43	0.066
819.62	0.066
819.80	0.066
819.99	0.066
820.18	0.066
820.36	0.066
820.55	0.066
820.73	0.066
820.92	0.066
821.10	0.066
821.29	0.066
821.47	0.066
821.66	0.066
821.84	0.066
822.03	0.066
822.21	0.066
822.40	0.066
822.58	0.066
822.77	0.066
822.95	0.066
823.14	0.066
823.32	0.066
823.50	0.066
823.69	0.066
823.87	0.066
824.06	0.066
824.24	0.066
824.43	0.066
824.61	0.066
824.80	0.067
824.98	0.067
825.17	0.067
825.35	0.067
825.54	0.067
825.72	0.067
825.91	0.067
826.09	0.067
826.28	0.067
826.46	0.067
826.64	0.067
826.83	0.067
827.01	0.067
827.20	0.067
827.38	0.067
827.57	0.068
827.75	0.068
827.94	0.069
828.12	0.069
828.31	0.069
828.49	0.069
828.67	0.069
828.86	0.069
829.04	0.069
829.23	0.069
829.41	0.070
829.60	0.070
829.78	0.070
829.96	0.070
830.15	0.070
830.33	0.070
830.52	0.070
830.70	0.070
830.88	0.070
831.07	0.070
831.25	0.070
831.44	0.070
831.62	0.070
831.81	0.070
831.99	0.070
832.17	0.070
832.36	0.070
832.54	0.070
832.73	0.070
832.91	0.071
833.09	0.070
833.28	0.070
833.46	0.071
833.65	0.071
833.83	0.071
834.01	0.071
834.20	0.071
834.38	0.071
834.56	0.071
834.75	0.071
834.93	0.071
835.12	0.071
835.30	0.071
835.48	0.071
835.67	0.071
835.85	0.071
836.03	0.071
836.22	0.071
836.40	0.071
836.59	0.072
836.77	0.071
836.95	0.072
837.14	0.072
837.32	0.071
837.50	0.072
837.69	0.072
837.87	0.072
838.05	0.072
838.24	0.072
838.42	0.072
838.60	0.072
838.79	0.073
838.97	0.072
839.15	0.072
839.34	0.072
839.52	0.072
839.70	0.072
839.89	0.072
840.07	0.073
840.25	0.073
840.44	0.073
840.62	0.073
840.80	0.073
840.99	0.073
841.17	0.073
841.35	0.073
841.54	0.073
841.72	0.073
841.90	0.073
842.09	0.073
842.27	0.073
842.45	0.073
842.64	0.073
842.82	0.073
843.00	0.073
843.19	0.073
843.37	0.073
843.55	0.073
843.73	0.073
843.92	0.073
844.10	0.073
844.28	0.074
844.47	0.074
844.65	0.073
844.83	0.074
845.01	0.074
845.20	0.074
845.38	0.074
845.56	0.074
845.75	0.074
845.93	0.074
846.11	0.073
846.29	0.074
846.48	0.074
846.66	0.074
846.84	0.074
847.02	0.073
847.21	0.073
847.39	0.073
847.57	0.073
847.76	0.073
847.94	0.073
848.12	0.073
848.30	0.073
848.49	0.073
848.67	0.073
848.85	0.073
849.03	0.074
849.22	0.073
849.40	0.074
849.58	0.074
849.76	0.074
849.95	0.074
850.13	0.074
850.31	0.074
850.49	0.074
850.67	0.074
850.86	0.075
851.04	0.074
851.22	0.074
851.40	0.074
851.59	0.074
851.77	0.074
851.95	0.074
852.13	0.074
852.31	0.074
852.50	0.074
852.68	0.074
852.86	0.074
853.04	0.074
853.23	0.074
853.41	0.074
853.59	0.074
853.77	0.074
853.95	0.074
854.14	0.074
854.32	0.074
854.50	0.073
854.68	0.073
854.86	0.073
855.04	0.073
855.23	0.073
855.41	0.073
855.59	0.074
855.77	0.074
855.95	0.074
856.14	0.074
856.32	0.074
856.50	0.074
856.68	0.074
856.86	0.074
857.04	0.074
857.23	0.074
857.41	0.074
857.59	0.073
857.77	0.073
857.95	0.073
858.13	0.073
858.32	0.073
858.50	0.074
858.68	0.073
858.86	0.074
859.04	0.074
859.22	0.074
859.41	0.074
859.59	0.074
859.77	0.074
859.95	0.074
860.13	0.075
860.31	0.075
860.49	0.074
860.68	0.075
860.86	0.075
861.04	0.075
861.22	0.074
861.40	0.075
861.58	0.074
861.76	0.074
861.94	0.074
862.13	0.074
862.31	0.074
862.49	0.074
862.67	0.074
862.85	0.075
863.03	0.075
863.21	0.075
863.39	0.075
863.57	0.075
863.76	0.076
863.94	0.075
864.12	0.076
864.30	0.076
864.48	0.075
864.66	0.075
864.84	0.075
865.02	0.076
865.20	0.075
865.38	0.075
865.57	0.075
865.75	0.076
865.93	0.076
866.11	0.075
866.29	0.075
866.47	0.076
866.65	0.075
866.83	0.075
867.01	0.075
867.19	0.075
867.37	0.075
867.55	0.075
867.73	0.075
867.92	0.075
868.10	0.076
868.28	0.076
868.46	0.076
868.64	0.075
868.82	0.076
869.00	0.076
869.18	0.076
869.36	0.076
869.54	0.076
869.72	0.076
869.90	0.076
870.08	0.075
870.26	0.076
870.44	0.076
870.62	0.076
870.80	0.076
870.98	0.076
871.16	0.076
871.34	0.076
871.53	0.076
871.71	0.076
871.89	0.076
872.07	0.076
872.25	0.076
872.43	0.076
872.61	0.076
872.79	0.077
872.97	0.077
873.15	0.077
873.33	0.077
873.51	0.077
873.69	0.077
873.87	0.077
874.05	0.077
874.23	0.077
874.41	0.077
874.59	0.077
874.77	0.077
874.95	0.077
875.13	0.077
875.31	0.077
875.49	0.077
875.67	0.077
875.85	0.077
876.03	0.078
876.21	0.078
876.39	0.078
876.57	0.078
876.75	0.078
876.93	0.078
877.11	0.078
877.29	0.077
877.47	0.077
877.65	0.078
877.82	0.078
878.00	0.078
878.18	0.078
878.36	0.078
878.54	0.078
878.72	0.078
878.90	0.078
879.08	0.078
879.26	0.078
879.44	0.078
879.62	0.078
879.80	0.078
879.98	0.078
880.16	0.078
880.34	0.077
880.52	0.078
880.70	0.078
880.88	0.078
881.06	0.078
881.24	0.077
881.42	0.077
881.59	0.077
881.77	0.077
881.95	0.077
882.13	0.077
882.31	0.077
882.49	0.077
882.67	0.078
882.85	0.078
883.03	0.078
883.21	0.078
883.39	0.078
883.57	0.079
883.75	0.079
883.92	0.079
884.10	0.079
884.28	0.079
884.46	0.079
884.64	0.079
884.82	0.079
885.00	0.079
885.18	0.080
885.36	0.080
885.54	0.079
885.71	0.080
885.89	0.080
886.07	0.079
886.25	0.079
886.43	0.079
886.61	0.079
886.79	0.079
886.97	0.079
887.15	0.079
887.32	0.079
887.50	0.079
887.68	0.079
887.86	0.079
888.04	0.080
888.22	0.080
888.40	0.080
888.57	0.080
888.75	0.080
888.93	0.080
889.11	0.080
889.29	0.080
889.47	0.080
889.65	0.080
889.82	0.080
890.00	0.081
890.18	0.080
890.36	0.080
890.54	0.081
890.72	0.081
890.90	0.081
891.07	0.081
891.25	0.080
891.43	0.080
891.61	0.080
891.79	0.080
891.97	0.080
892.14	0.080
892.32	0.080
892.50	0.080
892.68	0.080
892.86	0.081
893.03	0.081
893.21	0.081
893.39	0.081
893.57	0.081
893.75	0.082
893.93	0.082
894.10	0.082
894.28	0.082
894.46	0.082
894.64	0.082
894.82	0.082
894.99	0.082
895.17	0.082
895.35	0.082
895.53	0.082
895.71	0.081
895.88	0.082
896.06	0.081
896.24	0.082
896.42	0.082
896.59	0.082
896.77	0.082
896.95	0.082
897.13	0.082
897.31	0.082
897.48	0.082
897.66	0.083
897.84	0.082
898.02	0.083
898.19	0.083
898.37	0.083
898.55	0.083
898.73	0.083
898.91	0.083
899.08	0.083
899.26	0.083
899.44	0.083
899.62	0.083
899.79	0.083
899.97	0.083
900.15	0.083
900.33	0.083
900.50	0.082
900.68	0.082
900.86	0.083
901.04	0.083
901.21	0.083
901.39	0.083
901.57	0.083
901.74	0.083
901.92	0.083
902.10	0.083
902.28	0.083
902.45	0.083
902.63	0.083
902.81	0.083
902.99	0.083
903.16	0.083
903.34	0.083
903.52	0.083
903.69	0.083
903.87	0.083
904.05	0.083
904.22	0.084
904.40	0.084
904.58	0.084
904.76	0.085
904.93	0.085
905.11	0.085
905.29	0.085
905.46	0.085
905.64	0.085
905.82	0.085
905.99	0.085
906.17	0.085
906.35	0.085
906.53	0.085
906.70	0.085
906.88	0.085
907.06	0.085
907.23	0.085
907.41	0.085
907.59	0.085
907.76	0.086
907.94	0.086
908.12	0.086
908.29	0.086
908.47	0.086
908.65	0.086
908.82	0.086
909.00	0.086
909.18	0.086
909.35	0.086
909.53	0.086
909.71	0.086
909.88	0.086
910.06	0.086
910.23	0.086
910.41	0.086
910.59	0.086
910.76	0.086
910.94	0.086
911.12	0.086
911.29	0.086
911.47	0.086
911.65	0.087
911.82	0.087
912.00	0.087
912.17	0.087
912.35	0.087
912.53	0.087
912.70	0.087
912.88	0.087
913.06	0.088
913.23	0.088
913.41	0.088
913.58	0.088
913.76	0.088
913.94	0.088
914.11	0.089
914.29	0.089
914.46	0.089
914.64	0.089
914.82	0.089
914.99	0.089
915.17	0.089
915.34	0.089
915.52	0.089
915.70	0.090
915.87	0.090
916.05	0.090
916.22	0.090
916.40	0.090
916.57	0.090
916.75	0.090
916.93	0.090
917.10	0.090
917.28	0.090
917.45	0.090
917.63	0.090
917.80	0.090
917.98	0.090
918.16	0.091
918.33	0.091
918.51	0.091
918.68	0.091
918.86	0.091
919.03	0.091
919.21	0.092
919.39	0.092
919.56	0.093
919.74	0.093
919.91	0.093
920.09	0.093
920.26	0.093
920.44	0.094
920.61	0.094
920.79	0.094
920.96	0.094
921.14	0.094
921.31	0.094
921.49	0.094
921.67	0.094
921.84	0.094
922.02	0.094
922.19	0.095
922.37	0.095
922.54	0.096
922.72	0.096
922.89	0.096
923.07	0.097
923.24	0.097
923.42	0.097
923.59	0.098
923.77	0.098
923.94	0.098
924.12	0.098
924.29	0.099
924.47	0.099
924.64	0.099
924.82	0.100
924.99	0.100
925.17	0.100
925.34	0.101
925.52	0.101
925.69	0.101
925.87	0.102
926.04	0.102
926.22	0.102
926.39	0.102
926.57	0.103
926.74	0.103
926.91	0.103
927.09	0.104
927.26	0.104
927.44	0.104
927.61	0.104
927.79	0.104
927.96	0.105
928.14	0.105
928.31	0.105
928.49	0.105
928.66	0.106
928.84	0.106
929.01	0.107
929.18	0.107
929.36	0.108
929.53	0.108
929.71	0.108
929.88	0.109
930.06	0.109
930.23	0.109
930.41	0.110
930.58	0.111
930.75	0.111
930.93	0.111
931.10	0.111
931.28	0.112
931.45	0.112
931.63	0.112
931.80	0.113
931.97	0.113
932.15	0.114
932.32	0.114
932.50	0.114
932.67	0.115
932.84	0.116
933.02	0.116
933.19	0.116
933.37	0.117
933.54	0.117
933.71	0.118
933.89	0.119
934.06	0.119
934.24	0.119
934.41	0.120
934.58	0.120
934.76	0.121
934.93	0.121
935.11	0.121
935.28	0.122
935.45	0.122
935.63	0.123
935.80	0.123
935.98	0.124
936.15	0.124
936.32	0.125
936.50	0.126
936.67	0.126
936.84	0.127
937.02	0.128
937.19	0.129
937.36	0.129
937.54	0.129
937.71	0.130
937.89	0.130
938.06	0.131
938.23	0.131
938.41	0.132
938.58	0.132
938.75	0.133
938.93	0.133
939.10	0.133
939.27	0.134
939.45	0.135
939.62	0.135
939.79	0.136
939.97	0.137
940.14	0.137
940.31	0.138
940.49	0.138
940.66	0.138
940.83	0.139
941.01	0.140
941.18	0.141
941.35	0.141
941.53	0.142
941.70	0.142
941.87	0.143
942.05	0.143
942.22	0.144
942.39	0.146
942.57	0.146
942.74	0.147
942.91	0.147
943.08	0.147
943.26	0.147
943.43	0.148
943.60	0.149
943.78	0.149
943.95	0.150
944.12	0.150
944.29	0.151
944.47	0.151
944.64	0.152
944.81	0.153
944.99	0.154
945.16	0.155
945.33	0.155
945.50	0.156
945.68	0.157
945.85	0.158
946.02	0.160
946.20	0.161
946.37	0.162
946.54	0.163
946.71	0.164
946.89	0.164
947.06	0.164
947.23	0.165
947.40	0.166
947.58	0.167
947.75	0.168
947.92	0.168
948.09	0.169
948.27	0.170
948.44	0.171
948.61	0.172
948.78	0.173
948.96	0.175
949.13	0.175
949.30	0.177
949.47	0.177
949.65	0.179
949.82	0.181
949.99	0.181
950.16	0.183
950.33	0.184
950.51	0.185
950.68	0.187
950.85	0.188
951.02	0.189
951.20	0.190
951.37	0.192
951.54	0.192
951.71	0.193
951.88	0.195
952.06	0.196
952.23	0.196
952.40	0.198
952.57	0.199
952.74	0.200
952.92	0.201
953.09	0.202
953.26	0.204
953.43	0.205
953.60	0.206
953.77	0.207
953.95	0.208
954.12	0.210
954.29	0.210
954.46	0.212
954.63	0.213
954.81	0.214
954.98	0.215
955.15	0.217
955.32	0.218
955.49	0.218
955.66	0.219
955.84	0.221
956.01	0.221
956.18	0.223
956.35	0.225
956.52	0.225
956.69	0.227
956.87	0.227
957.04	0.228
957.21	0.231
957.38	0.230
957.55	0.232
957.72	0.233
957.89	0.234
958.07	0.234
958.24	0.236
958.41	0.238
958.58	0.237
958.75	0.238
958.92	0.239
959.09	0.239
959.26	0.240
959.44	0.241
959.61	0.242
959.78	0.242
959.95	0.244
960.12	0.244
960.29	0.246
960.46	0.246
960.63	0.246
960.81	0.247
960.98	0.247
961.15	0.248
961.32	0.249
961.49	0.248
961.66	0.249
961.83	0.250
962.00	0.250
962.17	0.251
962.34	0.250
962.52	0.251
962.69	0.252
962.86	0.251
963.03	0.252
963.20	0.252
963.37	0.252
963.54	0.253
963.71	0.253
963.88	0.253
964.05	0.254
964.22	0.255
964.39	0.254
964.56	0.255
964.74	0.256
964.91	0.256
965.08	0.256
965.25	0.257
965.42	0.257
965.59	0.258
965.76	0.257
965.93	0.259
966.10	0.257
966.27	0.257
966.44	0.257
966.61	0.258
966.78	0.257
966.95	0.256
967.12	0.257
967.29	0.259
967.46	0.259
967.63	0.259
967.80	0.259
967.97	0.259
968.14	0.259
968.32	0.260
968.49	0.260
968.66	0.259
968.83	0.260
969.00	0.260
969.17	0.260
969.34	0.261
969.51	0.261
969.68	0.260
969.85	0.261
970.02	0.261
970.19	0.261
970.36	0.261
970.53	0.262
970.70	0.260
970.87	0.261
971.04	0.260
971.21	0.261
971.38	0.260
971.55	0.261
971.72	0.261
971.89	0.262
972.06	0.261
972.23	0.261
972.40	0.261
972.57	0.260
972.74	0.260
972.91	0.262
973.07	0.261
973.24	0.261
973.41	0.261
973.58	0.260
973.75	0.272
973.92	0.260
974.09	0.259
974.26	0.259
974.43	0.259
974.60	0.260
974.77	0.260
974.94	0.259
975.11	0.260
975.28	0.261
975.45	0.259
975.62	0.260
975.79	0.262
975.96	0.261
976.13	0.260
976.30	0.262
976.47	0.260
976.64	0.261
976.80	0.261
976.97	0.261
977.14	0.261
977.31	0.261
977.48	0.261
977.65	0.260
977.82	0.259
977.99	0.261
978.16	0.261
978.33	0.260
978.50	0.259
978.67	0.259
978.83	0.259
979.00	0.259
979.17	0.259
979.34	0.257
979.51	0.257
979.68	0.258
979.85	0.257
980.02	0.257
980.19	0.255
980.36	0.257
980.52	0.258
980.69	0.256
980.86	0.256
981.03	0.256
981.20	0.255
981.37	0.256
981.54	0.256
981.71	0.255
981.88	0.255
982.04	0.255
982.21	0.255
982.38	0.256
982.55	0.255
982.72	0.253
982.89	0.254
983.06	0.253
983.22	0.253
983.39	0.253
983.56	0.252
983.73	0.252
983.90	0.251
984.07	0.253
984.24	0.251
984.40	0.251
984.57	0.250
984.74	0.252
984.91	0.253
985.08	0.251
985.25	0.249
985.41	0.250
985.58	0.250
985.75	0.251
985.92	0.250
986.09	0.249
986.26	0.249
986.42	0.248
986.59	0.246
986.76	0.248
986.93	0.248
987.10	0.248
987.27	0.246
987.43	0.244
987.60	0.246
987.77	0.246
987.94	0.244
988.11	0.246
988.27	0.246
988.44	0.245
988.61	0.244
988.78	0.242
988.95	0.243
989.11	0.245
989.28	0.243
989.45	0.242
989.62	0.241
989.79	0.242
989.95	0.241
990.12	0.242
990.29	0.242
990.46	0.240
990.62	0.239
990.79	0.239
990.96	0.239
991.13	0.240
991.30	0.238
991.46	0.237
991.63	0.236
991.80	0.235
991.97	0.235
992.13	0.236
992.30	0.237
992.47	0.234
992.64	0.234
992.80	0.234
992.97	0.234
993.14	0.232
993.31	0.230
993.47	0.232
993.64	0.230
993.81	0.229
993.98	0.230
994.14	0.228
994.31	0.228
994.48	0.229
994.64	0.229
994.81	0.227
994.98	0.228
995.15	0.226
995.31	0.227
995.48	0.226
995.65	0.228
995.82	0.225
995.98	0.225
996.15	0.226
996.32	0.227
996.48	0.227
996.65	0.227
996.82	0.224
996.99	0.224
997.15	0.224
997.32	0.226
997.49	0.225
997.65	0.226
997.82	0.225
997.99	0.224
998.15	0.224
998.32	0.225
998.49	0.223
998.65	0.223
998.82	0.222
998.99	0.220
999.15	0.220
999.32	0.219
999.49	0.219
999.65	0.219
999.82	0.217
999.99	0.217
1000.15	0.216
1000.32	0.216
1000.49	0.217
1000.65	0.215
1000.82	0.215
1000.99	0.215
1001.15	0.215
1001.32	0.215
1001.49	0.215
1001.65	0.214
1001.82	0.217
1001.99	0.214
1002.15	0.212
1002.32	0.212
1002.49	0.213
1002.65	0.211
1002.82	0.209
1002.99	0.208
1003.15	0.209
1003.32	0.208
1003.48	0.208
1003.65	0.208
1003.82	0.207
1003.98	0.205
1004.15	0.205
1004.32	0.205
1004.48	0.205
1004.65	0.206
1004.81	0.204
1004.98	0.203
1005.15	0.204
1005.31	0.204
1005.48	0.202
1005.64	0.202
1005.81	0.205
1005.98	0.202
1006.14	0.202
1006.31	0.203
1006.47	0.201
1006.64	0.201
1006.81	0.200
1006.97	0.200
1007.14	0.199
1007.30	0.200
1007.47	0.200
1007.63	0.197
1007.80	0.195
1007.97	0.195
1008.13	0.195
1008.30	0.195
1008.46	0.194
1008.63	0.193
1008.79	0.194
1008.96	0.194
1009.13	0.195
1009.29	0.192
1009.46	0.192
1009.62	0.192
1009.79	0.190
1009.95	0.190
1010.12	0.190
1010.28	0.190
1010.45	0.190
1010.62	0.189
1010.78	0.187
1010.95	0.186
1011.11	0.187
1011.28	0.186
1011.44	0.189
1011.61	0.187
1011.77	0.186
1011.94	0.186
1012.10	0.185
1012.27	0.185
1012.43	0.185
1012.60	0.184
1012.76	0.184
1012.93	0.184
1013.10	0.182
1013.26	0.180
1013.43	0.181
1013.59	0.189
1013.76	0.181
1013.92	0.180
1014.09	0.179
1014.25	0.180
1014.42	0.181
1014.58	0.181
1014.75	0.183
1014.91	0.181
1015.08	0.183
1015.24	0.180
1015.41	0.181
1015.57	0.181
1015.73	0.180
1015.90	0.179
1016.06	0.181
1016.23	0.179
1016.39	0.179
1016.56	0.179
1016.72	0.179
1016.89	0.178
1017.05	0.180
1017.22	0.177
1017.38	0.177
1017.55	0.175
1017.71	0.175
1017.88	0.175
1018.04	0.176
1018.21	0.172
1018.37	0.173
1018.53	0.172
1018.70	0.171
1018.86	0.170
1019.03	0.172
1019.19	0.170
1019.36	0.170
1019.52	0.171
1019.69	0.172
1019.85	0.171
1020.01	0.171
1020.18	0.169
1020.34	0.170
1020.51	0.169
1020.67	0.169
1020.84	0.167
1021.00	0.168
1021.16	0.165
1021.33	0.167
1021.49	0.165
1021.66	0.165
1021.82	0.164
1021.98	0.164
1022.15	0.162
1022.31	0.162
1022.48	0.161
1022.64	0.163
1022.80	0.162
1022.97	0.161
1023.13	0.160
1023.30	0.160
1023.46	0.161
1023.62	0.159
1023.79	0.159
1023.95	0.161
1024.12	0.161
1024.28	0.160
1024.44	0.160
1024.61	0.159
1024.77	0.159
1024.93	0.159
1025.10	0.160
1025.26	0.158
1025.43	0.158
1025.59	0.155
1025.75	0.158
1025.92	0.157
1026.08	0.157
1026.24	0.156
1026.41	0.157
1026.57	0.155
1026.73	0.153
1026.90	0.155
1027.06	0.153
1027.23	0.155
1027.39	0.155
1027.55	0.155
1027.72	0.153
1027.88	0.153
1028.04	0.153
1028.21	0.153
1028.37	0.147
1028.53	0.152
1028.70	0.149
1028.86	0.148
1029.02	0.148
1029.19	0.148
1029.35	0.146
1029.51	0.146
1029.67	0.146
1029.84	0.148
1030.00	0.143
1030.16	0.145
1030.33	0.146
1030.49	0.145
1030.65	0.142
1030.82	0.156
1030.98	0.144
1031.14	0.144
1031.31	0.143
1031.47	0.141
1031.63	0.143
1031.79	0.142
1031.96	0.143
1032.12	0.143
1032.28	0.140
1032.45	0.145
1032.61	0.143
1032.77	0.143
1032.93	0.141
1033.10	0.142
1033.26	0.144
1033.42	0.141
1033.58	0.142
1033.75	0.144
1033.91	0.143
1034.07	0.146
1034.24	0.144
1034.40	0.142
1034.56	0.140
1034.72	0.141
1034.89	0.141
1035.05	0.139
1035.21	0.139
1035.37	0.138
1035.54	0.141
1035.70	0.138
1035.86	0.136
1036.02	0.137
1036.19	0.135
1036.35	0.135
1036.51	0.138
1036.67	0.136
1036.83	0.135
1037.00	0.134
1037.16	0.134
1037.32	0.135
1037.48	0.134
1037.65	0.138
1037.81	0.134
1037.97	0.135
1038.13	0.135
1038.29	0.133
1038.46	0.130
1038.62	0.135
1038.78	0.134
1038.94	0.130
1039.10	0.134
1039.27	0.130
1039.43	0.133
1039.59	0.132
1039.75	0.131
1039.91	0.130
1040.08	0.131
1040.24	0.134
1040.40	0.136
1040.56	0.134
1040.72	0.129
1040.89	0.132
1041.05	0.135
1041.21	0.133
1041.37	0.131
1041.53	0.138
1041.69	0.135
1041.86	0.135
1042.02	0.131
1042.18	0.130
1042.34	0.130
1042.50	0.134
1042.66	0.131
1042.83	0.128
1042.99	0.132
1043.15	0.127
1043.31	0.127
1043.47	0.130
1043.63	0.127
1043.79	0.127
1043.96	0.128
1044.12	0.132
1044.28	0.129
1044.44	0.132
1044.60	0.128
1044.76	0.127
1044.92	0.131
1045.09	0.130
1045.25	0.127
1045.41	0.127
1045.57	0.123
1045.73	0.123
1045.89	0.124
1046.05	0.125
1046.21	0.123
1046.38	0.127
1046.54	0.131
1046.70	0.123
1046.86	0.121
>>>>>End Processed Spectral Data<<<<<
