SpectraSuite Data File
++++++++++++++++++++++++++++++++++++
Date: Mon May 20 12:13:06 CDT 2013
User: Students
Dark Spectrum Present: Yes
Reference Spectrum Present: Yes
Number of Sampled Component Spectra: 1
Spectrometers: USB4H00887
Integration Time (usec): 60000 (USB4H00887)
Spectra Averaged: 5 (USB4H00887)
Boxcar Smoothing: 5 (USB4H00887)
Correct for Electrical Dark: No (USB4H00887)
Strobe/Lamp Enabled: No (USB4H00887)
Correct for Detector Non-linearity: No (USB4H00887)
Correct for Stray Light: No (USB4H00887)
Number of Pixels in Processed Spectrum: 3648
>>>>>Begin Processed Spectral Data<<<<<
345.83	0.262
346.05	0.262
346.26	0.262
346.48	-0.186
346.70	0.104
346.92	0.039
347.14	0.057
347.35	0.061
347.57	0.414
347.79	-0.281
348.01	-0.215
348.23	-0.359
348.44	-0.000
348.66	0.249
348.88	-0.302
349.10	-0.095
349.32	0.005
349.53	0.041
349.75	0.051
349.97	0.043
350.19	0.024
350.41	0.068
350.62	-0.183
350.84	-0.004
351.06	-0.005
351.28	-0.040
351.50	-0.210
351.71	-0.128
351.93	-0.076
352.15	-0.007
352.37	-0.002
352.58	0.023
352.80	0.020
353.02	0.054
353.24	0.103
353.46	0.365
353.67	-0.186
353.89	0.075
354.11	0.060
354.33	0.045
354.54	0.065
354.76	0.073
354.98	0.125
355.20	0.142
355.41	0.055
355.63	0.087
355.85	0.056
356.07	0.248
356.28	0.049
356.50	0.069
356.72	0.017
356.94	0.017
357.15	0.044
357.37	-0.000
357.59	0.060
357.81	0.021
358.02	0.039
358.24	0.044
358.46	0.128
358.68	0.098
358.89	0.060
359.11	-0.000
359.33	0.090
359.55	-0.564
359.76	0.102
359.98	0.091
360.20	0.105
360.42	0.100
360.63	0.109
360.85	0.056
361.07	0.192
361.29	0.043
361.50	0.148
361.72	0.065
361.94	0.226
362.15	0.135
362.37	0.078
362.59	0.081
362.81	0.135
363.02	0.200
363.24	0.369
363.46	0.217
363.68	0.288
363.89	0.174
364.11	0.195
364.33	0.245
364.54	0.144
364.76	0.160
364.98	0.161
365.20	0.180
365.41	0.109
365.63	0.139
365.85	0.106
366.06	0.279
366.28	0.301
366.50	0.241
366.71	0.109
366.93	0.136
367.15	0.146
367.37	0.138
367.58	0.171
367.80	0.195
368.02	0.434
368.23	0.136
368.45	0.155
368.67	0.152
368.88	0.176
369.10	-0.000
369.32	0.184
369.53	0.088
369.75	0.154
369.97	0.327
370.19	0.212
370.40	0.105
370.62	0.319
370.84	0.110
371.05	0.670
371.27	0.133
371.49	0.153
371.70	0.165
371.92	0.341
372.14	0.141
372.35	0.164
372.57	0.207
372.79	0.615
373.00	0.126
373.22	0.242
373.44	0.203
373.65	0.139
373.87	0.205
374.09	2.034
374.30	0.133
374.52	0.137
374.74	0.094
374.95	0.379
375.17	0.110
375.39	-0.000
375.60	0.120
375.82	0.205
376.04	0.107
376.25	0.138
376.47	0.084
376.68	0.259
376.90	0.146
377.12	0.350
377.33	0.160
377.55	0.443
377.77	0.213
377.98	0.278
378.20	0.165
378.42	0.188
378.63	0.235
378.85	-0.000
379.07	0.147
379.28	0.587
379.50	0.343
379.71	0.173
379.93	0.116
380.15	0.167
380.36	0.264
380.58	0.191
380.80	0.591
381.01	0.173
381.23	0.138
381.44	0.166
381.66	0.186
381.88	0.207
382.09	-0.092
382.31	0.146
382.53	0.136
382.74	0.792
382.96	0.185
383.17	0.143
383.39	0.176
383.61	0.236
383.82	0.162
384.04	0.188
384.25	0.245
384.47	0.229
384.69	0.214
384.90	0.207
385.12	0.381
385.33	0.254
385.55	0.205
385.77	0.307
385.98	0.159
386.20	0.225
386.41	0.209
386.63	0.237
386.85	0.178
387.06	0.238
387.28	0.363
387.49	0.256
387.71	0.182
387.93	0.162
388.14	0.486
388.36	0.209
388.57	0.183
388.79	0.192
389.01	0.910
389.22	0.268
389.44	0.222
389.65	0.194
389.87	0.182
390.08	0.213
390.30	0.167
390.52	0.326
390.73	0.304
390.95	0.219
391.16	0.214
391.38	-0.000
391.59	0.230
391.81	0.186
392.03	0.169
392.24	0.206
392.46	0.186
392.67	0.164
392.89	0.233
393.10	0.394
393.32	0.279
393.53	0.323
393.75	0.216
393.97	0.242
394.18	0.351
394.40	0.301
394.61	0.326
394.83	0.269
395.04	0.324
395.26	0.209
395.47	0.296
395.69	0.239
395.91	0.258
396.12	0.311
396.34	0.305
396.55	0.195
396.77	0.293
396.98	0.953
397.20	0.337
397.41	0.376
397.63	0.276
397.84	0.261
398.06	0.239
398.27	0.251
398.49	0.286
398.71	0.213
398.92	0.260
399.14	0.328
399.35	0.418
399.57	0.402
399.78	0.263
400.00	0.248
400.21	0.301
400.43	0.247
400.64	0.249
400.86	0.541
401.07	0.326
401.29	0.277
401.50	0.310
401.72	0.443
401.93	0.270
402.15	0.337
402.36	0.301
402.58	0.249
402.79	0.280
403.01	0.468
403.22	0.346
403.44	0.234
403.65	0.368
403.87	0.398
404.08	0.316
404.30	0.533
404.51	0.294
404.73	0.372
404.94	0.318
405.16	0.320
405.37	0.257
405.59	0.469
405.80	0.300
406.02	0.368
406.23	0.360
406.45	0.404
406.66	0.431
406.88	0.287
407.09	0.423
407.31	0.349
407.52	0.434
407.74	0.354
407.95	0.422
408.17	0.391
408.38	0.419
408.60	0.276
408.81	0.462
409.03	0.344
409.24	0.341
409.45	0.394
409.67	0.371
409.88	0.342
410.10	0.423
410.31	0.348
410.53	0.327
410.74	0.439
410.96	0.441
411.17	0.460
411.39	0.354
411.60	0.335
411.82	0.389
412.03	0.365
412.24	0.353
412.46	0.496
412.67	0.418
412.89	0.417
413.10	0.420
413.32	0.369
413.53	0.420
413.75	0.428
413.96	0.321
414.17	0.409
414.39	0.429
414.60	0.360
414.82	0.467
415.03	0.370
415.25	0.416
415.46	0.293
415.68	0.413
415.89	0.743
416.10	0.634
416.32	0.361
416.53	0.427
416.75	0.405
416.96	0.474
417.18	0.415
417.39	0.393
417.60	0.385
417.82	0.553
418.03	0.492
418.25	0.410
418.46	0.417
418.67	0.391
418.89	0.430
419.10	0.441
419.32	0.592
419.53	0.526
419.75	0.457
419.96	0.401
420.17	0.480
420.39	0.445
420.60	0.456
420.82	0.554
421.03	0.448
421.24	0.376
421.46	0.422
421.67	0.454
421.89	0.398
422.10	0.432
422.31	0.428
422.53	0.596
422.74	0.454
422.96	0.367
423.17	0.412
423.38	0.509
423.60	0.427
423.81	0.502
424.03	0.435
424.24	0.481
424.45	0.468
424.67	0.473
424.88	0.428
425.09	0.463
425.31	0.426
425.52	0.443
425.74	0.492
425.95	0.539
426.16	0.434
426.38	0.494
426.59	0.458
426.80	0.518
427.02	0.531
427.23	0.433
427.45	0.546
427.66	0.547
427.87	0.443
428.09	0.461
428.30	0.511
428.51	0.507
428.73	0.557
428.94	0.492
429.15	0.478
429.37	0.470
429.58	0.484
429.79	0.455
430.01	0.533
430.22	0.516
430.44	0.524
430.65	0.467
430.86	0.504
431.08	0.497
431.29	0.465
431.50	0.548
431.72	0.694
431.93	0.579
432.14	0.443
432.36	0.478
432.57	0.492
432.78	0.516
433.00	0.484
433.21	0.468
433.42	0.562
433.64	0.498
433.85	0.550
434.06	0.459
434.28	0.485
434.49	0.495
434.70	0.511
434.92	0.518
435.13	0.548
435.34	0.550
435.56	0.529
435.77	0.526
435.98	0.653
436.20	0.569
436.41	0.495
436.62	0.487
436.83	0.548
437.05	0.606
437.26	0.538
437.47	0.484
437.69	0.522
437.90	0.483
438.11	0.481
438.33	0.516
438.54	0.521
438.75	0.646
438.97	0.642
439.18	0.504
439.39	0.522
439.60	0.563
439.82	0.530
440.03	0.495
440.24	0.680
440.46	0.529
440.67	0.512
440.88	0.550
441.10	0.518
441.31	0.510
441.52	0.553
441.73	0.614
441.95	0.552
442.16	0.519
442.37	0.754
442.58	0.507
442.80	0.502
443.01	0.633
443.22	0.583
443.44	0.504
443.65	0.583
443.86	0.577
444.07	0.615
444.29	0.542
444.50	0.665
444.71	0.528
444.92	0.501
445.14	0.614
445.35	0.645
445.56	0.526
445.78	0.609
445.99	0.611
446.20	0.531
446.41	0.590
446.63	0.591
446.84	0.562
447.05	0.565
447.26	0.665
447.48	0.582
447.69	0.557
447.90	0.627
448.11	0.564
448.33	0.585
448.54	0.610
448.75	0.640
448.96	0.647
449.18	0.676
449.39	0.612
449.60	0.597
449.81	0.702
450.03	0.614
450.24	0.656
450.45	0.625
450.66	0.611
450.87	0.633
451.09	0.587
451.30	0.570
451.51	0.628
451.72	0.638
451.94	0.649
452.15	0.695
452.36	0.597
452.57	0.613
452.78	0.612
453.00	0.636
453.21	0.605
453.42	0.588
453.63	0.664
453.85	0.637
454.06	0.627
454.27	0.715
454.48	0.644
454.69	0.595
454.91	0.642
455.12	0.573
455.33	0.632
455.54	0.644
455.75	0.625
455.97	0.640
456.18	0.636
456.39	0.645
456.60	0.662
456.81	0.625
457.03	0.634
457.24	0.635
457.45	0.700
457.66	0.662
457.87	0.626
458.09	0.641
458.30	0.580
458.51	0.667
458.72	0.685
458.93	0.705
459.15	0.624
459.36	0.671
459.57	0.688
459.78	0.717
459.99	0.654
460.20	0.628
460.42	0.683
460.63	0.650
460.84	0.638
461.05	0.650
461.26	0.684
461.47	0.633
461.69	0.671
461.90	0.702
462.11	0.673
462.32	0.709
462.53	0.668
462.74	0.738
462.96	0.654
463.17	0.647
463.38	0.676
463.59	0.753
463.80	0.648
464.01	0.661
464.23	0.721
464.44	0.693
464.65	0.702
464.86	0.714
465.07	0.718
465.28	0.691
465.49	0.708
465.71	0.676
465.92	0.708
466.13	0.738
466.34	0.693
466.55	0.725
466.76	0.696
466.97	0.712
467.19	0.707
467.40	0.736
467.61	0.740
467.82	0.682
468.03	0.669
468.24	0.717
468.45	0.737
468.66	0.728
468.88	0.739
469.09	0.742
469.30	0.770
469.51	0.720
469.72	0.748
469.93	0.731
470.14	0.717
470.35	0.781
470.57	0.745
470.78	0.704
470.99	0.799
471.20	0.756
471.41	0.726
471.62	0.765
471.83	0.744
472.04	0.762
472.25	0.790
472.47	0.733
472.68	0.738
472.89	0.744
473.10	0.779
473.31	0.740
473.52	0.781
473.73	0.798
473.94	0.743
474.15	0.766
474.36	0.767
474.57	0.784
474.79	0.765
475.00	0.767
475.21	0.758
475.42	0.822
475.63	0.752
475.84	0.776
476.05	0.778
476.26	0.755
476.47	0.776
476.68	0.809
476.89	0.759
477.10	0.796
477.32	0.785
477.53	0.821
477.74	0.762
477.95	0.792
478.16	0.757
478.37	0.788
478.58	0.794
478.79	0.800
479.00	0.800
479.21	0.773
479.42	0.801
479.63	0.806
479.84	0.781
480.05	0.783
480.26	0.804
480.47	0.816
480.69	0.817
480.90	0.793
481.11	0.792
481.32	0.838
481.53	0.796
481.74	0.831
481.95	0.805
482.16	0.818
482.37	0.821
482.58	0.797
482.79	0.808
483.00	0.826
483.21	0.788
483.42	0.769
483.63	0.818
483.84	0.834
484.05	0.827
484.26	0.809
484.47	0.805
484.68	0.781
484.89	0.786
485.10	0.820
485.31	0.806
485.52	0.810
485.73	0.811
485.94	0.837
486.15	0.801
486.37	0.813
486.58	0.791
486.79	0.801
487.00	0.834
487.21	0.830
487.42	0.824
487.63	0.829
487.84	0.842
488.05	0.840
488.26	0.815
488.47	0.822
488.68	0.842
488.89	0.826
489.10	0.819
489.31	0.825
489.52	0.849
489.73	0.827
489.94	0.851
490.15	0.825
490.36	0.853
490.57	0.823
490.78	0.811
490.99	0.837
491.20	0.886
491.41	0.859
491.62	0.823
491.83	0.839
492.04	0.838
492.25	0.843
492.45	0.841
492.66	0.855
492.87	0.845
493.08	0.839
493.29	0.826
493.50	0.823
493.71	0.827
493.92	0.823
494.13	0.834
494.34	0.850
494.55	0.855
494.76	0.876
494.97	0.871
495.18	0.849
495.39	0.859
495.60	0.828
495.81	0.828
496.02	0.842
496.23	0.840
496.44	0.862
496.65	0.854
496.86	0.858
497.07	0.875
497.28	0.872
497.49	0.839
497.70	0.840
497.91	0.854
498.12	0.844
498.32	0.873
498.53	0.862
498.74	0.853
498.95	0.868
499.16	0.837
499.37	0.838
499.58	0.846
499.79	0.866
500.00	0.864
500.21	0.883
500.42	0.845
500.63	0.848
500.84	0.862
501.05	0.849
501.26	0.868
501.46	0.895
501.67	0.870
501.88	0.871
502.09	0.855
502.30	0.858
502.51	0.889
502.72	0.858
502.93	0.866
503.14	0.880
503.35	0.861
503.56	0.860
503.77	0.881
503.97	0.867
504.18	0.866
504.39	0.889
504.60	0.870
504.81	0.890
505.02	0.883
505.23	0.886
505.44	0.874
505.65	0.878
505.86	0.863
506.07	0.906
506.27	0.879
506.48	0.883
506.69	0.870
506.90	0.882
507.11	0.880
507.32	0.864
507.53	0.870
507.74	0.862
507.95	0.871
508.15	0.876
508.36	0.877
508.57	0.885
508.78	0.873
508.99	0.874
509.20	0.858
509.41	0.874
509.62	0.865
509.82	0.862
510.03	0.871
510.24	0.872
510.45	0.887
510.66	0.883
510.87	0.880
511.08	0.853
511.29	0.883
511.49	0.869
511.70	0.900
511.91	0.857
512.12	0.856
512.33	0.877
512.54	0.889
512.75	0.877
512.95	0.892
513.16	0.886
513.37	0.869
513.58	0.892
513.79	0.870
514.00	0.874
514.20	0.886
514.41	0.879
514.62	0.856
514.83	0.881
515.04	0.876
515.25	0.863
515.46	0.872
515.66	0.873
515.87	0.880
516.08	0.859
516.29	0.874
516.50	0.861
516.71	0.856
516.91	0.861
517.12	0.872
517.33	0.862
517.54	0.853
517.75	0.854
517.95	0.863
518.16	0.874
518.37	0.851
518.58	0.854
518.79	0.838
519.00	0.859
519.20	0.866
519.41	0.850
519.62	0.863
519.83	0.870
520.04	0.846
520.24	0.844
520.45	0.849
520.66	0.864
520.87	0.840
521.08	0.836
521.28	0.838
521.49	0.848
521.70	0.828
521.91	0.838
522.12	0.824
522.32	0.839
522.53	0.827
522.74	0.819
522.95	0.825
523.16	0.826
523.36	0.833
523.57	0.821
523.78	0.816
523.99	0.818
524.20	0.811
524.40	0.819
524.61	0.822
524.82	0.805
525.03	0.808
525.23	0.808
525.44	0.798
525.65	0.795
525.86	0.810
526.06	0.792
526.27	0.794
526.48	0.802
526.69	0.790
526.90	0.794
527.10	0.816
527.31	0.786
527.52	0.781
527.73	0.775
527.93	0.783
528.14	0.785
528.35	0.778
528.56	0.778
528.76	0.771
528.97	0.764
529.18	0.758
529.39	0.757
529.59	0.758
529.80	0.779
530.01	0.761
530.22	0.759
530.42	0.739
530.63	0.749
530.84	0.733
531.05	0.743
531.25	0.745
531.46	0.738
531.67	0.724
531.88	0.737
532.08	0.732
532.29	0.728
532.50	0.722
532.70	0.717
532.91	0.710
533.12	0.713
533.33	0.730
533.53	0.709
533.74	0.708
533.95	0.713
534.15	0.704
534.36	0.705
534.57	0.693
534.78	0.695
534.98	0.702
535.19	0.681
535.40	0.682
535.60	0.695
535.81	0.680
536.02	0.683
536.23	0.675
536.43	0.678
536.64	0.669
536.85	0.675
537.05	0.681
537.26	0.663
537.47	0.665
537.67	0.657
537.88	0.654
538.09	0.659
538.30	0.651
538.50	0.644
538.71	0.653
538.92	0.642
539.12	0.639
539.33	0.635
539.54	0.637
539.74	0.641
539.95	0.633
540.16	0.629
540.36	0.623
540.57	0.623
540.78	0.618
540.98	0.616
541.19	0.616
541.40	0.606
541.60	0.614
541.81	0.610
542.02	0.609
542.22	0.601
542.43	0.597
542.64	0.594
542.84	0.594
543.05	0.587
543.26	0.588
543.46	0.590
543.67	0.589
543.88	0.585
544.08	0.577
544.29	0.572
544.50	0.572
544.70	0.573
544.91	0.565
545.12	0.567
545.32	0.563
545.53	0.565
545.74	0.556
545.94	0.554
546.15	0.551
546.35	0.548
546.56	0.546
546.77	0.544
546.97	0.543
547.18	0.537
547.39	0.537
547.59	0.535
547.80	0.533
548.01	0.537
548.21	0.533
548.42	0.527
548.62	0.528
548.83	0.526
549.04	0.523
549.24	0.517
549.45	0.517
549.65	0.515
549.86	0.512
550.07	0.511
550.27	0.509
550.48	0.516
550.69	0.504
550.89	0.504
551.10	0.501
551.30	0.500
551.51	0.500
551.72	0.492
551.92	0.492
552.13	0.491
552.33	0.492
552.54	0.487
552.75	0.481
552.95	0.483
553.16	0.479
553.36	0.478
553.57	0.476
553.78	0.474
553.98	0.474
554.19	0.466
554.39	0.464
554.60	0.467
554.80	0.467
555.01	0.461
555.22	0.462
555.42	0.459
555.63	0.454
555.83	0.457
556.04	0.452
556.25	0.454
556.45	0.446
556.66	0.445
556.86	0.448
557.07	0.445
557.27	0.445
557.48	0.440
557.68	0.439
557.89	0.439
558.10	0.436
558.30	0.434
558.51	0.433
558.71	0.431
558.92	0.427
559.12	0.429
559.33	0.433
559.54	0.428
559.74	0.423
559.95	0.422
560.15	0.422
560.36	0.420
560.56	0.416
560.77	0.415
560.97	0.415
561.18	0.411
561.38	0.409
561.59	0.412
561.79	0.408
562.00	0.407
562.21	0.404
562.41	0.403
562.62	0.402
562.82	0.401
563.03	0.398
563.23	0.398
563.44	0.398
563.64	0.395
563.85	0.396
564.05	0.390
564.26	0.389
564.46	0.389
564.67	0.390
564.87	0.386
565.08	0.383
565.28	0.384
565.49	0.384
565.69	0.382
565.90	0.379
566.10	0.382
566.31	0.377
566.51	0.378
566.72	0.379
566.92	0.373
567.13	0.373
567.33	0.372
567.54	0.370
567.74	0.369
567.95	0.366
568.15	0.367
568.36	0.366
568.56	0.365
568.77	0.361
568.97	0.360
569.18	0.360
569.38	0.358
569.59	0.359
569.79	0.357
570.00	0.355
570.20	0.354
570.41	0.352
570.61	0.350
570.82	0.351
571.02	0.347
571.23	0.349
571.43	0.344
571.64	0.343
571.84	0.342
572.05	0.340
572.25	0.340
572.45	0.338
572.66	0.336
572.86	0.335
573.07	0.334
573.27	0.334
573.48	0.333
573.68	0.330
573.89	0.329
574.09	0.331
574.30	0.330
574.50	0.328
574.70	0.329
574.91	0.327
575.11	0.327
575.32	0.327
575.52	0.324
575.73	0.324
575.93	0.324
576.14	0.323
576.34	0.321
576.54	0.320
576.75	0.318
576.95	0.317
577.16	0.316
577.36	0.315
577.57	0.314
577.77	0.312
577.97	0.309
578.18	0.311
578.38	0.307
578.59	0.306
578.79	0.305
579.00	0.305
579.20	0.304
579.40	0.303
579.61	0.302
579.81	0.302
580.02	0.300
580.22	0.300
580.42	0.300
580.63	0.300
580.83	0.299
581.04	0.298
581.24	0.297
581.45	0.296
581.65	0.296
581.85	0.295
582.06	0.293
582.26	0.293
582.47	0.291
582.67	0.291
582.87	0.290
583.08	0.288
583.28	0.288
583.48	0.287
583.69	0.284
583.89	0.284
584.10	0.285
584.30	0.283
584.50	0.282
584.71	0.281
584.91	0.280
585.12	0.279
585.32	0.280
585.52	0.277
585.73	0.277
585.93	0.276
586.13	0.276
586.34	0.274
586.54	0.274
586.75	0.273
586.95	0.272
587.15	0.272
587.36	0.271
587.56	0.270
587.76	0.269
587.97	0.268
588.17	0.267
588.37	0.267
588.58	0.267
588.78	0.265
588.98	0.266
589.19	0.264
589.39	0.262
589.60	0.264
589.80	0.261
590.00	0.260
590.21	0.260
590.41	0.258
590.61	0.258
590.82	0.258
591.02	0.257
591.22	0.255
591.43	0.256
591.63	0.254
591.83	0.254
592.04	0.252
592.24	0.253
592.44	0.251
592.65	0.250
592.85	0.250
593.05	0.251
593.26	0.250
593.46	0.250
593.66	0.249
593.86	0.249
594.07	0.247
594.27	0.247
594.47	0.246
594.68	0.246
594.88	0.247
595.08	0.246
595.29	0.246
595.49	0.243
595.69	0.242
595.90	0.241
596.10	0.242
596.30	0.241
596.50	0.240
596.71	0.240
596.91	0.239
597.11	0.238
597.32	0.238
597.52	0.237
597.72	0.236
597.93	0.236
598.13	0.235
598.33	0.235
598.53	0.233
598.74	0.233
598.94	0.232
599.14	0.232
599.35	0.232
599.55	0.232
599.75	0.231
599.95	0.231
600.16	0.231
600.36	0.229
600.56	0.229
600.76	0.228
600.97	0.227
601.17	0.226
601.37	0.227
601.58	0.226
601.78	0.226
601.98	0.225
602.18	0.224
602.39	0.224
602.59	0.224
602.79	0.223
602.99	0.223
603.20	0.222
603.40	0.222
603.60	0.222
603.80	0.221
604.01	0.221
604.21	0.220
604.41	0.219
604.61	0.219
604.82	0.218
605.02	0.219
605.22	0.218
605.42	0.218
605.62	0.218
605.83	0.217
606.03	0.216
606.23	0.216
606.43	0.216
606.64	0.215
606.84	0.214
607.04	0.214
607.24	0.214
607.45	0.214
607.65	0.212
607.85	0.213
608.05	0.212
608.25	0.212
608.46	0.211
608.66	0.212
608.86	0.211
609.06	0.210
609.26	0.209
609.47	0.210
609.67	0.208
609.87	0.209
610.07	0.209
610.28	0.207
610.48	0.207
610.68	0.207
610.88	0.206
611.08	0.206
611.29	0.205
611.49	0.204
611.69	0.205
611.89	0.203
612.09	0.203
612.29	0.203
612.50	0.202
612.70	0.202
612.90	0.201
613.10	0.201
613.30	0.201
613.51	0.201
613.71	0.200
613.91	0.204
614.11	0.199
614.31	0.199
614.51	0.199
614.72	0.198
614.92	0.198
615.12	0.197
615.32	0.197
615.52	0.197
615.72	0.197
615.93	0.197
616.13	0.196
616.33	0.196
616.53	0.196
616.73	0.196
616.93	0.195
617.14	0.196
617.34	0.196
617.54	0.196
617.74	0.196
617.94	0.195
618.14	0.194
618.34	0.193
618.55	0.193
618.75	0.193
618.95	0.193
619.15	0.192
619.35	0.191
619.55	0.191
619.75	0.192
619.96	0.191
620.16	0.191
620.36	0.192
620.56	0.191
620.76	0.191
620.96	0.190
621.16	0.190
621.36	0.190
621.57	0.190
621.77	0.190
621.97	0.189
622.17	0.189
622.37	0.189
622.57	0.189
622.77	0.188
622.97	0.187
623.18	0.187
623.38	0.188
623.58	0.187
623.78	0.187
623.98	0.187
624.18	0.186
624.38	0.186
624.58	0.186
624.78	0.186
624.98	0.185
625.19	0.185
625.39	0.185
625.59	0.184
625.79	0.185
625.99	0.184
626.19	0.184
626.39	0.183
626.59	0.183
626.79	0.183
626.99	0.183
627.19	0.183
627.40	0.183
627.60	0.182
627.80	0.182
628.00	0.182
628.20	0.181
628.40	0.181
628.60	0.181
628.80	0.180
629.00	0.180
629.20	0.179
629.40	0.180
629.60	0.179
629.80	0.179
630.00	0.179
630.20	0.179
630.41	0.177
630.61	0.177
630.81	0.177
631.01	0.178
631.21	0.176
631.41	0.176
631.61	0.176
631.81	0.176
632.01	0.175
632.21	0.175
632.41	0.174
632.61	0.174
632.81	0.174
633.01	0.174
633.21	0.173
633.41	0.174
633.61	0.172
633.81	0.172
634.01	0.172
634.21	0.172
634.41	0.171
634.61	0.172
634.81	0.171
635.01	0.171
635.22	0.171
635.42	0.171
635.62	0.171
635.82	0.171
636.02	0.170
636.22	0.170
636.42	0.169
636.62	0.170
636.82	0.169
637.02	0.169
637.22	0.170
637.42	0.169
637.62	0.168
637.82	0.169
638.02	0.168
638.22	0.168
638.42	0.167
638.62	0.167
638.82	0.167
639.02	0.167
639.22	0.167
639.42	0.166
639.62	0.166
639.82	0.165
640.02	0.165
640.22	0.165
640.42	0.165
640.62	0.165
640.82	0.164
641.02	0.164
641.22	0.164
641.42	0.163
641.61	0.164
641.81	0.164
642.01	0.164
642.21	0.164
642.41	0.164
642.61	0.163
642.81	0.163
643.01	0.163
643.21	0.163
643.41	0.163
643.61	0.162
643.81	0.162
644.01	0.160
644.21	0.160
644.41	0.161
644.61	0.160
644.81	0.160
645.01	0.160
645.21	0.159
645.41	0.160
645.61	0.159
645.81	0.159
646.01	0.159
646.21	0.160
646.40	0.159
646.60	0.159
646.80	0.159
647.00	0.158
647.20	0.157
647.40	0.158
647.60	0.157
647.80	0.157
648.00	0.157
648.20	0.157
648.40	0.157
648.60	0.157
648.80	0.156
649.00	0.157
649.20	0.157
649.39	0.157
649.59	0.156
649.79	0.156
649.99	0.156
650.19	0.155
650.39	0.155
650.59	0.155
650.79	0.154
650.99	0.154
651.19	0.153
651.39	0.153
651.58	0.152
651.78	0.151
651.98	0.151
652.18	0.151
652.38	0.150
652.58	0.151
652.78	0.150
652.98	0.150
653.18	0.150
653.38	0.151
653.57	0.151
653.77	0.151
653.97	0.151
654.17	0.151
654.37	0.150
654.57	0.151
654.77	0.150
654.97	0.149
655.16	0.149
655.36	0.148
655.56	0.148
655.76	0.147
655.96	0.147
656.16	0.146
656.36	0.146
656.56	0.146
656.75	0.145
656.95	0.145
657.15	0.145
657.35	0.145
657.55	0.145
657.75	0.146
657.95	0.146
658.14	0.145
658.34	0.146
658.54	0.145
658.74	0.145
658.94	0.145
659.14	0.145
659.34	0.144
659.53	0.144
659.73	0.144
659.93	0.143
660.13	0.143
660.33	0.143
660.53	0.142
660.72	0.143
660.92	0.142
661.12	0.142
661.32	0.142
661.52	0.141
661.72	0.141
661.91	0.140
662.11	0.140
662.31	0.140
662.51	0.140
662.71	0.140
662.90	0.139
663.10	0.139
663.30	0.139
663.50	0.139
663.70	0.138
663.90	0.138
664.09	0.138
664.29	0.138
664.49	0.137
664.69	0.137
664.89	0.137
665.08	0.137
665.28	0.137
665.48	0.137
665.68	0.136
665.88	0.136
666.07	0.136
666.27	0.136
666.47	0.135
666.67	0.135
666.87	0.136
667.06	0.135
667.26	0.135
667.46	0.134
667.66	0.135
667.85	0.135
668.05	0.135
668.25	0.135
668.45	0.135
668.65	0.134
668.84	0.135
669.04	0.134
669.24	0.134
669.44	0.133
669.63	0.133
669.83	0.133
670.03	0.131
670.23	0.131
670.42	0.131
670.62	0.130
670.82	0.130
671.02	0.129
671.22	0.129
671.41	0.129
671.61	0.129
671.81	0.129
672.01	0.129
672.20	0.129
672.40	0.128
672.60	0.128
672.80	0.128
672.99	0.128
673.19	0.128
673.39	0.128
673.58	0.127
673.78	0.127
673.98	0.126
674.18	0.126
674.37	0.126
674.57	0.125
674.77	0.126
674.97	0.125
675.16	0.125
675.36	0.124
675.56	0.124
675.75	0.124
675.95	0.124
676.15	0.124
676.35	0.124
676.54	0.124
676.74	0.124
676.94	0.124
677.13	0.123
677.33	0.122
677.53	0.123
677.73	0.122
677.92	0.122
678.12	0.122
678.32	0.121
678.51	0.121
678.71	0.121
678.91	0.120
679.11	0.120
679.30	0.120
679.50	0.120
679.70	0.120
679.89	0.120
680.09	0.120
680.29	0.119
680.48	0.119
680.68	0.119
680.88	0.119
681.07	0.119
681.27	0.119
681.47	0.118
681.66	0.118
681.86	0.118
682.06	0.118
682.25	0.118
682.45	0.118
682.65	0.117
682.84	0.117
683.04	0.117
683.24	0.116
683.43	0.117
683.63	0.116
683.83	0.116
684.02	0.116
684.22	0.116
684.42	0.115
684.61	0.115
684.81	0.115
685.01	0.115
685.20	0.115
685.40	0.115
685.60	0.114
685.79	0.114
685.99	0.114
686.19	0.114
686.38	0.114
686.58	0.115
686.77	0.114
686.97	0.114
687.17	0.114
687.36	0.113
687.56	0.113
687.76	0.113
687.95	0.113
688.15	0.112
688.34	0.113
688.54	0.111
688.74	0.111
688.93	0.110
689.13	0.110
689.33	0.110
689.52	0.110
689.72	0.110
689.91	0.109
690.11	0.109
690.31	0.109
690.50	0.109
690.70	0.109
690.89	0.109
691.09	0.109
691.29	0.109
691.48	0.108
691.68	0.108
691.87	0.108
692.07	0.109
692.27	0.108
692.46	0.108
692.66	0.108
692.85	0.108
693.05	0.108
693.25	0.108
693.44	0.107
693.64	0.108
693.83	0.108
694.03	0.107
694.22	0.106
694.42	0.106
694.62	0.107
694.81	0.107
695.01	0.107
695.20	0.106
695.40	0.106
695.59	0.106
695.79	0.105
695.99	0.106
696.18	0.105
696.38	0.106
696.57	0.105
696.77	0.105
696.96	0.105
697.16	0.105
697.36	0.105
697.55	0.105
697.75	0.104
697.94	0.104
698.14	0.104
698.33	0.104
698.53	0.103
698.72	0.103
698.92	0.103
699.11	0.103
699.31	0.103
699.51	0.103
699.70	0.103
699.90	0.103
700.09	0.103
700.29	0.103
700.48	0.102
700.68	0.102
700.87	0.102
701.07	0.102
701.26	0.101
701.46	0.101
701.65	0.101
701.85	0.101
702.04	0.100
702.24	0.100
702.43	0.100
702.63	0.100
702.82	0.100
703.02	0.100
703.21	0.100
703.41	0.100
703.60	0.100
703.80	0.099
703.99	0.099
704.19	0.100
704.38	0.099
704.58	0.098
704.77	0.099
704.97	0.098
705.16	0.099
705.36	0.098
705.55	0.098
705.75	0.098
705.94	0.098
706.14	0.098
706.33	0.098
706.53	0.098
706.72	0.098
706.92	0.098
707.11	0.098
707.31	0.097
707.50	0.097
707.70	0.098
707.89	0.098
708.09	0.097
708.28	0.097
708.48	0.097
708.67	0.096
708.86	0.097
709.06	0.097
709.25	0.096
709.45	0.097
709.64	0.096
709.84	0.096
710.03	0.096
710.23	0.096
710.42	0.096
710.62	0.096
710.81	0.096
711.00	0.096
711.20	0.095
711.39	0.095
711.59	0.095
711.78	0.095
711.98	0.095
712.17	0.095
712.37	0.095
712.56	0.095
712.75	0.095
712.95	0.095
713.14	0.095
713.34	0.095
713.53	0.095
713.73	0.095
713.92	0.095
714.11	0.095
714.31	0.095
714.50	0.095
714.70	0.095
714.89	0.095
715.08	0.095
715.28	0.095
715.47	0.094
715.67	0.094
715.86	0.094
716.06	0.094
716.25	0.094
716.44	0.093
716.64	0.093
716.83	0.093
717.03	0.093
717.22	0.093
717.41	0.092
717.61	0.092
717.80	0.093
717.99	0.093
718.19	0.093
718.38	0.093
718.58	0.093
718.77	0.092
718.96	0.092
719.16	0.092
719.35	0.092
719.55	0.091
719.74	0.091
719.93	0.091
720.13	0.091
720.32	0.090
720.51	0.090
720.71	0.091
720.90	0.091
721.10	0.091
721.29	0.091
721.48	0.091
721.68	0.091
721.87	0.091
722.06	0.091
722.26	0.091
722.45	0.091
722.64	0.091
722.84	0.091
723.03	0.091
723.22	0.091
723.42	0.091
723.61	0.091
723.80	0.091
724.00	0.091
724.19	0.091
724.38	0.091
724.58	0.091
724.77	0.091
724.96	0.091
725.16	0.091
725.35	0.091
725.54	0.091
725.74	0.091
725.93	0.091
726.12	0.091
726.32	0.091
726.51	0.091
726.70	0.091
726.90	0.091
727.09	0.090
727.28	0.090
727.48	0.090
727.67	0.090
727.86	0.091
728.06	0.091
728.25	0.091
728.44	0.091
728.64	0.091
728.83	0.091
729.02	0.090
729.21	0.091
729.41	0.091
729.60	0.091
729.79	0.091
729.99	0.090
730.18	0.090
730.37	0.090
730.56	0.089
730.76	0.090
730.95	0.090
731.14	0.089
731.34	0.089
731.53	0.089
731.72	0.089
731.91	0.090
732.11	0.089
732.30	0.090
732.49	0.090
732.69	0.090
732.88	0.090
733.07	0.090
733.26	0.090
733.46	0.090
733.65	0.090
733.84	0.090
734.03	0.090
734.23	0.090
734.42	0.091
734.61	0.090
734.80	0.090
735.00	0.090
735.19	0.090
735.38	0.090
735.57	0.090
735.77	0.090
735.96	0.090
736.15	0.090
736.34	0.089
736.54	0.090
736.73	0.089
736.92	0.090
737.11	0.090
737.31	0.090
737.50	0.090
737.69	0.090
737.88	0.090
738.07	0.090
738.27	0.090
738.46	0.090
738.65	0.089
738.84	0.089
739.04	0.089
739.23	0.089
739.42	0.089
739.61	0.089
739.80	0.089
740.00	0.089
740.19	0.089
740.38	0.089
740.57	0.089
740.76	0.089
740.96	0.089
741.15	0.089
741.34	0.089
741.53	0.089
741.72	0.089
741.92	0.088
742.11	0.088
742.30	0.088
742.49	0.089
742.68	0.089
742.88	0.089
743.07	0.089
743.26	0.089
743.45	0.089
743.64	0.088
743.84	0.088
744.03	0.088
744.22	0.088
744.41	0.088
744.60	0.087
744.79	0.087
744.99	0.087
745.18	0.087
745.37	0.086
745.56	0.086
745.75	0.086
745.94	0.086
746.14	0.086
746.33	0.086
746.52	0.086
746.71	0.086
746.90	0.086
747.09	0.086
747.28	0.086
747.48	0.087
747.67	0.086
747.86	0.087
748.05	0.087
748.24	0.087
748.43	0.087
748.62	0.086
748.82	0.086
749.01	0.086
749.20	0.086
749.39	0.086
749.58	0.086
749.77	0.086
749.96	0.085
750.16	0.086
750.35	0.085
750.54	0.085
750.73	0.086
750.92	0.086
751.11	0.085
751.30	0.085
751.49	0.085
751.68	0.085
751.88	0.085
752.07	0.084
752.26	0.085
752.45	0.084
752.64	0.084
752.83	0.084
753.02	0.084
753.21	0.084
753.40	0.084
753.60	0.084
753.79	0.084
753.98	0.084
754.17	0.084
754.36	0.084
754.55	0.084
754.74	0.084
754.93	0.084
755.12	0.083
755.31	0.084
755.50	0.084
755.70	0.083
755.89	0.083
756.08	0.083
756.27	0.083
756.46	0.084
756.65	0.084
756.84	0.083
757.03	0.083
757.22	0.083
757.41	0.083
757.60	0.083
757.79	0.083
757.98	0.083
758.17	0.083
758.36	0.083
758.56	0.082
758.75	0.082
758.94	0.082
759.13	0.082
759.32	0.082
759.51	0.082
759.70	0.082
759.89	0.082
760.08	0.082
760.27	0.082
760.46	0.082
760.65	0.082
760.84	0.081
761.03	0.081
761.22	0.081
761.41	0.082
761.60	0.082
761.79	0.081
761.98	0.082
762.17	0.082
762.36	0.081
762.55	0.081
762.74	0.081
762.93	0.081
763.12	0.081
763.31	0.081
763.50	0.080
763.69	0.081
763.88	0.081
764.07	0.080
764.26	0.080
764.45	0.081
764.64	0.081
764.83	0.081
765.02	0.081
765.21	0.081
765.40	0.081
765.59	0.081
765.78	0.081
765.97	0.081
766.16	0.081
766.35	0.081
766.54	0.080
766.73	0.080
766.92	0.080
767.11	0.080
767.30	0.080
767.49	0.080
767.68	0.080
767.87	0.080
768.06	0.080
768.25	0.080
768.44	0.080
768.63	0.080
768.82	0.080
769.01	0.080
769.20	0.080
769.39	0.080
769.58	0.080
769.77	0.080
769.96	0.080
770.15	0.080
770.34	0.080
770.53	0.079
770.72	0.079
770.91	0.079
771.10	0.079
771.29	0.079
771.47	0.079
771.66	0.078
771.85	0.079
772.04	0.079
772.23	0.079
772.42	0.078
772.61	0.079
772.80	0.079
772.99	0.079
773.18	0.078
773.37	0.079
773.56	0.079
773.75	0.079
773.94	0.079
774.13	0.078
774.31	0.078
774.50	0.078
774.69	0.078
774.88	0.078
775.07	0.078
775.26	0.078
775.45	0.077
775.64	0.077
775.83	0.077
776.02	0.077
776.21	0.077
776.40	0.077
776.58	0.077
776.77	0.077
776.96	0.078
777.15	0.078
777.34	0.078
777.53	0.078
777.72	0.078
777.91	0.078
778.10	0.078
778.28	0.078
778.47	0.078
778.66	0.078
778.85	0.077
779.04	0.077
779.23	0.077
779.42	0.077
779.61	0.077
779.79	0.077
779.98	0.076
780.17	0.076
780.36	0.076
780.55	0.075
780.74	0.075
780.93	0.075
781.12	0.076
781.30	0.076
781.49	0.076
781.68	0.076
781.87	0.076
782.06	0.076
782.25	0.076
782.44	0.076
782.62	0.076
782.81	0.077
783.00	0.076
783.19	0.076
783.38	0.076
783.57	0.076
783.75	0.075
783.94	0.075
784.13	0.076
784.32	0.076
784.51	0.075
784.70	0.076
784.88	0.075
785.07	0.075
785.26	0.075
785.45	0.075
785.64	0.075
785.83	0.075
786.01	0.075
786.20	0.075
786.39	0.075
786.58	0.075
786.77	0.074
786.95	0.074
787.14	0.075
787.33	0.075
787.52	0.075
787.71	0.075
787.90	0.074
788.08	0.074
788.27	0.074
788.46	0.074
788.65	0.074
788.84	0.074
789.02	0.074
789.21	0.074
789.40	0.074
789.59	0.074
789.77	0.074
789.96	0.074
790.15	0.074
790.34	0.074
790.53	0.074
790.71	0.074
790.90	0.074
791.09	0.074
791.28	0.075
791.46	0.075
791.65	0.074
791.84	0.074
792.03	0.074
792.22	0.074
792.40	0.074
792.59	0.074
792.78	0.074
792.97	0.074
793.15	0.074
793.34	0.074
793.53	0.074
793.72	0.074
793.90	0.074
794.09	0.074
794.28	0.074
794.47	0.074
794.65	0.073
794.84	0.073
795.03	0.073
795.22	0.073
795.40	0.073
795.59	0.073
795.78	0.073
795.97	0.073
796.15	0.073
796.34	0.073
796.53	0.073
796.71	0.073
796.90	0.073
797.09	0.073
797.28	0.073
797.46	0.073
797.65	0.073
797.84	0.073
798.02	0.073
798.21	0.073
798.40	0.073
798.59	0.073
798.77	0.073
798.96	0.072
799.15	0.072
799.33	0.072
799.52	0.072
799.71	0.072
799.90	0.072
800.08	0.072
800.27	0.072
800.46	0.072
800.64	0.072
800.83	0.072
801.02	0.072
801.20	0.072
801.39	0.072
801.58	0.072
801.76	0.071
801.95	0.071
802.14	0.071
802.32	0.071
802.51	0.071
802.70	0.071
802.88	0.071
803.07	0.071
803.26	0.071
803.44	0.071
803.63	0.071
803.82	0.071
804.00	0.071
804.19	0.071
804.38	0.072
804.56	0.072
804.75	0.072
804.94	0.072
805.12	0.073
805.31	0.072
805.50	0.073
805.68	0.072
805.87	0.073
806.06	0.072
806.24	0.072
806.43	0.072
806.62	0.072
806.80	0.072
806.99	0.072
807.17	0.071
807.36	0.072
807.55	0.072
807.73	0.071
807.92	0.072
808.11	0.072
808.29	0.071
808.48	0.071
808.66	0.071
808.85	0.071
809.04	0.070
809.22	0.070
809.41	0.071
809.59	0.070
809.78	0.070
809.97	0.070
810.15	0.070
810.34	0.070
810.53	0.070
810.71	0.070
810.90	0.070
811.08	0.070
811.27	0.070
811.45	0.070
811.64	0.070
811.83	0.070
812.01	0.070
812.20	0.070
812.38	0.070
812.57	0.071
812.76	0.070
812.94	0.070
813.13	0.070
813.31	0.070
813.50	0.070
813.68	0.070
813.87	0.070
814.06	0.071
814.24	0.071
814.43	0.071
814.61	0.070
814.80	0.070
814.98	0.071
815.17	0.071
815.36	0.071
815.54	0.071
815.73	0.071
815.91	0.070
816.10	0.070
816.28	0.070
816.47	0.070
816.65	0.070
816.84	0.070
817.03	0.070
817.21	0.071
817.40	0.071
817.58	0.071
817.77	0.071
817.95	0.071
818.14	0.071
818.32	0.071
818.51	0.071
818.69	0.071
818.88	0.071
819.06	0.071
819.25	0.071
819.43	0.071
819.62	0.071
819.80	0.071
819.99	0.071
820.18	0.071
820.36	0.071
820.55	0.071
820.73	0.071
820.92	0.071
821.10	0.070
821.29	0.070
821.47	0.070
821.66	0.070
821.84	0.070
822.03	0.070
822.21	0.070
822.40	0.070
822.58	0.070
822.77	0.070
822.95	0.070
823.14	0.070
823.32	0.071
823.50	0.071
823.69	0.071
823.87	0.071
824.06	0.072
824.24	0.072
824.43	0.072
824.61	0.072
824.80	0.072
824.98	0.072
825.17	0.073
825.35	0.073
825.54	0.073
825.72	0.073
825.91	0.073
826.09	0.072
826.28	0.072
826.46	0.073
826.64	0.073
826.83	0.073
827.01	0.073
827.20	0.073
827.38	0.073
827.57	0.073
827.75	0.073
827.94	0.073
828.12	0.073
828.31	0.073
828.49	0.073
828.67	0.073
828.86	0.073
829.04	0.073
829.23	0.073
829.41	0.074
829.60	0.074
829.78	0.074
829.96	0.074
830.15	0.074
830.33	0.075
830.52	0.075
830.70	0.075
830.88	0.075
831.07	0.075
831.25	0.075
831.44	0.076
831.62	0.076
831.81	0.076
831.99	0.076
832.17	0.076
832.36	0.076
832.54	0.076
832.73	0.076
832.91	0.076
833.09	0.076
833.28	0.076
833.46	0.076
833.65	0.076
833.83	0.076
834.01	0.076
834.20	0.077
834.38	0.076
834.56	0.077
834.75	0.077
834.93	0.077
835.12	0.077
835.30	0.077
835.48	0.077
835.67	0.077
835.85	0.077
836.03	0.077
836.22	0.076
836.40	0.077
836.59	0.077
836.77	0.077
836.95	0.077
837.14	0.077
837.32	0.077
837.50	0.077
837.69	0.077
837.87	0.077
838.05	0.077
838.24	0.077
838.42	0.077
838.60	0.077
838.79	0.078
838.97	0.077
839.15	0.078
839.34	0.078
839.52	0.078
839.70	0.078
839.89	0.078
840.07	0.078
840.25	0.078
840.44	0.078
840.62	0.077
840.80	0.077
840.99	0.077
841.17	0.077
841.35	0.077
841.54	0.077
841.72	0.077
841.90	0.077
842.09	0.077
842.27	0.077
842.45	0.077
842.64	0.077
842.82	0.077
843.00	0.078
843.19	0.078
843.37	0.077
843.55	0.078
843.73	0.078
843.92	0.078
844.10	0.078
844.28	0.078
844.47	0.079
844.65	0.078
844.83	0.079
845.01	0.079
845.20	0.079
845.38	0.079
845.56	0.079
845.75	0.079
845.93	0.079
846.11	0.078
846.29	0.078
846.48	0.078
846.66	0.078
846.84	0.078
847.02	0.078
847.21	0.078
847.39	0.078
847.57	0.078
847.76	0.078
847.94	0.077
848.12	0.078
848.30	0.078
848.49	0.078
848.67	0.078
848.85	0.078
849.03	0.079
849.22	0.079
849.40	0.080
849.58	0.080
849.76	0.080
849.95	0.080
850.13	0.081
850.31	0.080
850.49	0.080
850.67	0.080
850.86	0.080
851.04	0.080
851.22	0.080
851.40	0.080
851.59	0.079
851.77	0.079
851.95	0.079
852.13	0.079
852.31	0.078
852.50	0.079
852.68	0.079
852.86	0.079
853.04	0.079
853.23	0.079
853.41	0.079
853.59	0.079
853.77	0.079
853.95	0.079
854.14	0.079
854.32	0.079
854.50	0.079
854.68	0.079
854.86	0.079
855.04	0.079
855.23	0.079
855.41	0.079
855.59	0.079
855.77	0.079
855.95	0.079
856.14	0.080
856.32	0.080
856.50	0.079
856.68	0.079
856.86	0.079
857.04	0.079
857.23	0.079
857.41	0.079
857.59	0.079
857.77	0.079
857.95	0.079
858.13	0.078
858.32	0.079
858.50	0.079
858.68	0.079
858.86	0.079
859.04	0.079
859.22	0.079
859.41	0.080
859.59	0.080
859.77	0.080
859.95	0.080
860.13	0.080
860.31	0.080
860.49	0.080
860.68	0.080
860.86	0.080
861.04	0.080
861.22	0.080
861.40	0.079
861.58	0.079
861.76	0.079
861.94	0.079
862.13	0.079
862.31	0.079
862.49	0.080
862.67	0.080
862.85	0.080
863.03	0.080
863.21	0.080
863.39	0.080
863.57	0.081
863.76	0.081
863.94	0.081
864.12	0.081
864.30	0.081
864.48	0.080
864.66	0.081
864.84	0.081
865.02	0.081
865.20	0.081
865.38	0.081
865.57	0.081
865.75	0.081
865.93	0.082
866.11	0.081
866.29	0.081
866.47	0.082
866.65	0.082
866.83	0.082
867.01	0.081
867.19	0.081
867.37	0.081
867.55	0.081
867.73	0.081
867.92	0.081
868.10	0.081
868.28	0.081
868.46	0.081
868.64	0.081
868.82	0.081
869.00	0.082
869.18	0.082
869.36	0.081
869.54	0.081
869.72	0.082
869.90	0.082
870.08	0.081
870.26	0.082
870.44	0.082
870.62	0.081
870.80	0.081
870.98	0.081
871.16	0.082
871.34	0.081
871.53	0.081
871.71	0.081
871.89	0.081
872.07	0.081
872.25	0.081
872.43	0.081
872.61	0.082
872.79	0.082
872.97	0.082
873.15	0.082
873.33	0.083
873.51	0.083
873.69	0.083
873.87	0.083
874.05	0.083
874.23	0.083
874.41	0.083
874.59	0.083
874.77	0.083
874.95	0.083
875.13	0.083
875.31	0.083
875.49	0.083
875.67	0.083
875.85	0.083
876.03	0.083
876.21	0.083
876.39	0.083
876.57	0.083
876.75	0.083
876.93	0.083
877.11	0.083
877.29	0.084
877.47	0.083
877.65	0.084
877.82	0.084
878.00	0.084
878.18	0.084
878.36	0.084
878.54	0.084
878.72	0.084
878.90	0.084
879.08	0.084
879.26	0.084
879.44	0.084
879.62	0.084
879.80	0.084
879.98	0.084
880.16	0.083
880.34	0.083
880.52	0.083
880.70	0.083
880.88	0.083
881.06	0.083
881.24	0.083
881.42	0.083
881.59	0.083
881.77	0.083
881.95	0.083
882.13	0.083
882.31	0.084
882.49	0.083
882.67	0.084
882.85	0.083
883.03	0.084
883.21	0.084
883.39	0.084
883.57	0.084
883.75	0.084
883.92	0.084
884.10	0.084
884.28	0.084
884.46	0.084
884.64	0.084
884.82	0.084
885.00	0.084
885.18	0.084
885.36	0.084
885.54	0.084
885.71	0.085
885.89	0.085
886.07	0.085
886.25	0.085
886.43	0.085
886.61	0.085
886.79	0.085
886.97	0.085
887.15	0.085
887.32	0.085
887.50	0.086
887.68	0.086
887.86	0.086
888.04	0.086
888.22	0.086
888.40	0.086
888.57	0.086
888.75	0.086
888.93	0.086
889.11	0.086
889.29	0.087
889.47	0.087
889.65	0.086
889.82	0.086
890.00	0.087
890.18	0.086
890.36	0.086
890.54	0.086
890.72	0.086
890.90	0.086
891.07	0.086
891.25	0.086
891.43	0.086
891.61	0.086
891.79	0.086
891.97	0.086
892.14	0.086
892.32	0.086
892.50	0.086
892.68	0.086
892.86	0.086
893.03	0.086
893.21	0.086
893.39	0.087
893.57	0.086
893.75	0.086
893.93	0.086
894.10	0.086
894.28	0.086
894.46	0.087
894.64	0.087
894.82	0.087
894.99	0.087
895.17	0.087
895.35	0.086
895.53	0.087
895.71	0.086
895.88	0.086
896.06	0.086
896.24	0.086
896.42	0.086
896.59	0.086
896.77	0.086
896.95	0.086
897.13	0.087
897.31	0.087
897.48	0.086
897.66	0.087
897.84	0.087
898.02	0.087
898.19	0.087
898.37	0.087
898.55	0.087
898.73	0.088
898.91	0.087
899.08	0.088
899.26	0.088
899.44	0.088
899.62	0.088
899.79	0.088
899.97	0.088
900.15	0.088
900.33	0.088
900.50	0.088
900.68	0.088
900.86	0.089
901.04	0.089
901.21	0.089
901.39	0.089
901.57	0.089
901.74	0.089
901.92	0.089
902.10	0.089
902.28	0.089
902.45	0.089
902.63	0.089
902.81	0.089
902.99	0.089
903.16	0.089
903.34	0.089
903.52	0.089
903.69	0.089
903.87	0.089
904.05	0.090
904.22	0.090
904.40	0.090
904.58	0.090
904.76	0.090
904.93	0.090
905.11	0.090
905.29	0.090
905.46	0.090
905.64	0.090
905.82	0.090
905.99	0.090
906.17	0.090
906.35	0.090
906.53	0.090
906.70	0.090
906.88	0.090
907.06	0.090
907.23	0.090
907.41	0.091
907.59	0.090
907.76	0.091
907.94	0.091
908.12	0.091
908.29	0.091
908.47	0.091
908.65	0.091
908.82	0.091
909.00	0.091
909.18	0.092
909.35	0.092
909.53	0.092
909.71	0.092
909.88	0.092
910.06	0.092
910.23	0.092
910.41	0.092
910.59	0.092
910.76	0.092
910.94	0.092
911.12	0.092
911.29	0.092
911.47	0.092
911.65	0.092
911.82	0.092
912.00	0.093
912.17	0.093
912.35	0.093
912.53	0.094
912.70	0.094
912.88	0.094
913.06	0.094
913.23	0.094
913.41	0.094
913.58	0.094
913.76	0.094
913.94	0.094
914.11	0.094
914.29	0.094
914.46	0.094
914.64	0.094
914.82	0.094
914.99	0.095
915.17	0.094
915.34	0.094
915.52	0.094
915.70	0.095
915.87	0.095
916.05	0.095
916.22	0.095
916.40	0.095
916.57	0.096
916.75	0.096
916.93	0.096
917.10	0.096
917.28	0.096
917.45	0.096
917.63	0.096
917.80	0.096
917.98	0.096
918.16	0.096
918.33	0.096
918.51	0.096
918.68	0.096
918.86	0.097
919.03	0.097
919.21	0.097
919.39	0.098
919.56	0.098
919.74	0.098
919.91	0.098
920.09	0.099
920.26	0.099
920.44	0.099
920.61	0.099
920.79	0.100
920.96	0.100
921.14	0.100
921.31	0.100
921.49	0.100
921.67	0.101
921.84	0.101
922.02	0.101
922.19	0.102
922.37	0.102
922.54	0.102
922.72	0.102
922.89	0.103
923.07	0.103
923.24	0.103
923.42	0.103
923.59	0.103
923.77	0.103
923.94	0.103
924.12	0.103
924.29	0.104
924.47	0.104
924.64	0.104
924.82	0.104
924.99	0.105
925.17	0.105
925.34	0.105
925.52	0.106
925.69	0.106
925.87	0.107
926.04	0.107
926.22	0.107
926.39	0.107
926.57	0.108
926.74	0.108
926.91	0.109
927.09	0.109
927.26	0.109
927.44	0.109
927.61	0.110
927.79	0.110
927.96	0.111
928.14	0.111
928.31	0.111
928.49	0.111
928.66	0.112
928.84	0.112
929.01	0.113
929.18	0.113
929.36	0.114
929.53	0.114
929.71	0.114
929.88	0.114
930.06	0.115
930.23	0.115
930.41	0.116
930.58	0.117
930.75	0.117
930.93	0.117
931.10	0.116
931.28	0.117
931.45	0.118
931.63	0.118
931.80	0.118
931.97	0.119
932.15	0.119
932.32	0.120
932.50	0.120
932.67	0.121
932.84	0.121
933.02	0.122
933.19	0.122
933.37	0.123
933.54	0.124
933.71	0.124
933.89	0.125
934.06	0.125
934.24	0.126
934.41	0.126
934.58	0.127
934.76	0.127
934.93	0.128
935.11	0.128
935.28	0.128
935.45	0.128
935.63	0.129
935.80	0.129
935.98	0.130
936.15	0.130
936.32	0.131
936.50	0.131
936.67	0.131
936.84	0.132
937.02	0.133
937.19	0.134
937.36	0.134
937.54	0.134
937.71	0.135
937.89	0.135
938.06	0.135
938.23	0.136
938.41	0.137
938.58	0.137
938.75	0.138
938.93	0.139
939.10	0.139
939.27	0.139
939.45	0.141
939.62	0.141
939.79	0.142
939.97	0.142
940.14	0.143
940.31	0.144
940.49	0.144
940.66	0.144
940.83	0.145
941.01	0.145
941.18	0.146
941.35	0.146
941.53	0.147
941.70	0.148
941.87	0.148
942.05	0.148
942.22	0.149
942.39	0.150
942.57	0.151
942.74	0.152
942.91	0.152
943.08	0.152
943.26	0.153
943.43	0.154
943.60	0.154
943.78	0.155
943.95	0.156
944.12	0.156
944.29	0.157
944.47	0.157
944.64	0.158
944.81	0.160
944.99	0.160
945.16	0.161
945.33	0.161
945.50	0.163
945.68	0.163
945.85	0.164
946.02	0.166
946.20	0.166
946.37	0.167
946.54	0.167
946.71	0.168
946.89	0.169
947.06	0.169
947.23	0.170
947.40	0.172
947.58	0.172
947.75	0.173
947.92	0.174
948.09	0.174
948.27	0.176
948.44	0.177
948.61	0.178
948.78	0.179
948.96	0.181
949.13	0.181
949.30	0.182
949.47	0.183
949.65	0.184
949.82	0.186
949.99	0.186
950.16	0.188
950.33	0.189
950.51	0.190
950.68	0.192
950.85	0.193
951.02	0.194
951.20	0.195
951.37	0.196
951.54	0.197
951.71	0.198
951.88	0.200
952.06	0.200
952.23	0.201
952.40	0.203
952.57	0.204
952.74	0.205
952.92	0.206
953.09	0.207
953.26	0.209
953.43	0.209
953.60	0.211
953.77	0.212
953.95	0.212
954.12	0.215
954.29	0.215
954.46	0.217
954.63	0.218
954.81	0.219
954.98	0.220
955.15	0.222
955.32	0.224
955.49	0.224
955.66	0.225
955.84	0.226
956.01	0.226
956.18	0.228
956.35	0.230
956.52	0.230
956.69	0.232
956.87	0.232
957.04	0.233
957.21	0.235
957.38	0.235
957.55	0.236
957.72	0.238
957.89	0.239
958.07	0.239
958.24	0.241
958.41	0.243
958.58	0.243
958.75	0.244
958.92	0.245
959.09	0.245
959.26	0.246
959.44	0.246
959.61	0.248
959.78	0.249
959.95	0.250
960.12	0.250
960.29	0.252
960.46	0.252
960.63	0.252
960.81	0.252
960.98	0.253
961.15	0.254
961.32	0.255
961.49	0.254
961.66	0.255
961.83	0.255
962.00	0.254
962.17	0.255
962.34	0.255
962.52	0.256
962.69	0.257
962.86	0.256
963.03	0.257
963.20	0.257
963.37	0.257
963.54	0.258
963.71	0.258
963.88	0.259
964.05	0.260
964.22	0.261
964.39	0.260
964.56	0.260
964.74	0.261
964.91	0.261
965.08	0.262
965.25	0.261
965.42	0.262
965.59	0.262
965.76	0.262
965.93	0.263
966.10	0.261
966.27	0.262
966.44	0.262
966.61	0.263
966.78	0.262
966.95	0.262
967.12	0.264
967.29	0.266
967.46	0.265
967.63	0.265
967.80	0.265
967.97	0.265
968.14	0.265
968.32	0.266
968.49	0.266
968.66	0.265
968.83	0.265
969.00	0.265
969.17	0.265
969.34	0.266
969.51	0.267
969.68	0.265
969.85	0.266
970.02	0.266
970.19	0.265
970.36	0.267
970.53	0.267
970.70	0.266
970.87	0.266
971.04	0.265
971.21	0.266
971.38	0.266
971.55	0.267
971.72	0.266
971.89	0.267
972.06	0.267
972.23	0.266
972.40	0.266
972.57	0.265
972.74	0.265
972.91	0.266
973.07	0.266
973.24	0.266
973.41	0.266
973.58	0.265
973.75	0.277
973.92	0.265
974.09	0.265
974.26	0.265
974.43	0.264
974.60	0.266
974.77	0.266
974.94	0.265
975.11	0.266
975.28	0.267
975.45	0.265
975.62	0.266
975.79	0.267
975.96	0.266
976.13	0.265
976.30	0.266
976.47	0.264
976.64	0.264
976.80	0.265
976.97	0.265
977.14	0.265
977.31	0.265
977.48	0.266
977.65	0.265
977.82	0.264
977.99	0.265
978.16	0.265
978.33	0.265
978.50	0.264
978.67	0.264
978.83	0.263
979.00	0.263
979.17	0.263
979.34	0.263
979.51	0.262
979.68	0.263
979.85	0.262
980.02	0.263
980.19	0.261
980.36	0.262
980.52	0.263
980.69	0.262
980.86	0.262
981.03	0.261
981.20	0.260
981.37	0.261
981.54	0.261
981.71	0.260
981.88	0.260
982.04	0.260
982.21	0.259
982.38	0.260
982.55	0.259
982.72	0.258
982.89	0.259
983.06	0.258
983.22	0.258
983.39	0.258
983.56	0.258
983.73	0.257
983.90	0.257
984.07	0.259
984.24	0.257
984.40	0.257
984.57	0.255
984.74	0.257
984.91	0.258
985.08	0.255
985.25	0.253
985.41	0.254
985.58	0.254
985.75	0.255
985.92	0.254
986.09	0.253
986.26	0.252
986.42	0.252
986.59	0.250
986.76	0.252
986.93	0.252
987.10	0.252
987.27	0.250
987.43	0.248
987.60	0.250
987.77	0.250
987.94	0.249
988.11	0.250
988.27	0.250
988.44	0.249
988.61	0.248
988.78	0.246
988.95	0.247
989.11	0.248
989.28	0.247
989.45	0.246
989.62	0.245
989.79	0.245
989.95	0.244
990.12	0.246
990.29	0.247
990.46	0.244
990.62	0.243
990.79	0.243
990.96	0.243
991.13	0.243
991.30	0.242
991.46	0.241
991.63	0.240
991.80	0.239
991.97	0.239
992.13	0.239
992.30	0.240
992.47	0.238
992.64	0.237
992.80	0.237
992.97	0.238
993.14	0.236
993.31	0.234
993.47	0.236
993.64	0.234
993.81	0.234
993.98	0.235
994.14	0.234
994.31	0.234
994.48	0.235
994.64	0.236
994.81	0.234
994.98	0.234
995.15	0.232
995.31	0.233
995.48	0.233
995.65	0.234
995.82	0.231
995.98	0.230
996.15	0.232
996.32	0.233
996.48	0.231
996.65	0.231
996.82	0.230
996.99	0.230
997.15	0.230
997.32	0.231
997.49	0.229
997.65	0.230
997.82	0.230
997.99	0.227
998.15	0.228
998.32	0.229
998.49	0.228
998.65	0.227
998.82	0.227
998.99	0.225
999.15	0.225
999.32	0.224
999.49	0.224
999.65	0.224
999.82	0.222
999.99	0.222
1000.15	0.222
1000.32	0.222
1000.49	0.222
1000.65	0.219
1000.82	0.218
1000.99	0.219
1001.15	0.219
1001.32	0.218
1001.49	0.218
1001.65	0.218
1001.82	0.220
1001.99	0.218
1002.15	0.217
1002.32	0.217
1002.49	0.218
1002.65	0.217
1002.82	0.215
1002.99	0.215
1003.15	0.217
1003.32	0.216
1003.48	0.216
1003.65	0.215
1003.82	0.213
1003.98	0.211
1004.15	0.211
1004.32	0.210
1004.48	0.210
1004.65	0.211
1004.81	0.209
1004.98	0.207
1005.15	0.208
1005.31	0.208
1005.48	0.206
1005.64	0.207
1005.81	0.209
1005.98	0.205
1006.14	0.206
1006.31	0.206
1006.47	0.204
1006.64	0.203
1006.81	0.202
1006.97	0.202
1007.14	0.202
1007.30	0.203
1007.47	0.203
1007.63	0.201
1007.80	0.200
1007.97	0.199
1008.13	0.200
1008.30	0.199
1008.46	0.200
1008.63	0.198
1008.79	0.200
1008.96	0.200
1009.13	0.201
1009.29	0.198
1009.46	0.198
1009.62	0.197
1009.79	0.195
1009.95	0.196
1010.12	0.197
1010.28	0.196
1010.45	0.196
1010.62	0.195
1010.78	0.194
1010.95	0.193
1011.11	0.193
1011.28	0.191
1011.44	0.195
1011.61	0.193
1011.77	0.191
1011.94	0.191
1012.10	0.191
1012.27	0.191
1012.43	0.191
1012.60	0.189
1012.76	0.189
1012.93	0.189
1013.10	0.188
1013.26	0.185
1013.43	0.187
1013.59	0.195
1013.76	0.187
1013.92	0.186
1014.09	0.185
1014.25	0.186
1014.42	0.186
1014.58	0.185
1014.75	0.187
1014.91	0.186
1015.08	0.188
1015.24	0.185
1015.41	0.186
1015.57	0.186
1015.73	0.184
1015.90	0.182
1016.06	0.185
1016.23	0.183
1016.39	0.183
1016.56	0.183
1016.72	0.183
1016.89	0.183
1017.05	0.186
1017.22	0.181
1017.38	0.181
1017.55	0.180
1017.71	0.181
1017.88	0.180
1018.04	0.181
1018.21	0.178
1018.37	0.177
1018.53	0.177
1018.70	0.174
1018.86	0.174
1019.03	0.177
1019.19	0.175
1019.36	0.175
1019.52	0.176
1019.69	0.176
1019.85	0.174
1020.01	0.174
1020.18	0.173
1020.34	0.174
1020.51	0.173
1020.67	0.174
1020.84	0.172
1021.00	0.172
1021.16	0.169
1021.33	0.170
1021.49	0.169
1021.66	0.171
1021.82	0.169
1021.98	0.170
1022.15	0.168
1022.31	0.167
1022.48	0.166
1022.64	0.167
1022.80	0.166
1022.97	0.165
1023.13	0.164
1023.30	0.165
1023.46	0.165
1023.62	0.162
1023.79	0.164
1023.95	0.165
1024.12	0.165
1024.28	0.164
1024.44	0.164
1024.61	0.163
1024.77	0.163
1024.93	0.163
1025.10	0.164
1025.26	0.162
1025.43	0.163
1025.59	0.159
1025.75	0.162
1025.92	0.160
1026.08	0.159
1026.24	0.159
1026.41	0.160
1026.57	0.157
1026.73	0.155
1026.90	0.157
1027.06	0.154
1027.23	0.156
1027.39	0.156
1027.55	0.156
1027.72	0.156
1027.88	0.156
1028.04	0.156
1028.21	0.156
1028.37	0.151
1028.53	0.156
1028.70	0.155
1028.86	0.153
1029.02	0.153
1029.19	0.154
1029.35	0.152
1029.51	0.152
1029.67	0.151
1029.84	0.153
1030.00	0.149
1030.16	0.149
1030.33	0.151
1030.49	0.148
1030.65	0.147
1030.82	0.161
1030.98	0.148
1031.14	0.147
1031.31	0.147
1031.47	0.144
1031.63	0.147
1031.79	0.146
1031.96	0.147
1032.12	0.148
1032.28	0.145
1032.45	0.148
1032.61	0.147
1032.77	0.146
1032.93	0.145
1033.10	0.146
1033.26	0.149
1033.42	0.146
1033.58	0.145
1033.75	0.147
1033.91	0.145
1034.07	0.149
1034.24	0.146
1034.40	0.145
1034.56	0.145
1034.72	0.145
1034.89	0.145
1035.05	0.144
1035.21	0.144
1035.37	0.143
1035.54	0.146
1035.70	0.144
1035.86	0.143
1036.02	0.146
1036.19	0.143
1036.35	0.141
1036.51	0.145
1036.67	0.143
1036.83	0.142
1037.00	0.139
1037.16	0.140
1037.32	0.141
1037.48	0.139
1037.65	0.144
1037.81	0.139
1037.97	0.139
1038.13	0.140
1038.29	0.138
1038.46	0.136
1038.62	0.140
1038.78	0.139
1038.94	0.135
1039.10	0.140
1039.27	0.135
1039.43	0.137
1039.59	0.136
1039.75	0.135
1039.91	0.134
1040.08	0.134
1040.24	0.136
1040.40	0.137
1040.56	0.136
1040.72	0.131
1040.89	0.132
1041.05	0.135
1041.21	0.134
1041.37	0.133
1041.53	0.139
1041.69	0.137
1041.86	0.134
1042.02	0.131
1042.18	0.130
1042.34	0.131
1042.50	0.136
1042.66	0.132
1042.83	0.131
1042.99	0.133
1043.15	0.128
1043.31	0.128
1043.47	0.132
1043.63	0.130
1043.79	0.130
1043.96	0.132
1044.12	0.137
1044.28	0.133
1044.44	0.135
1044.60	0.130
1044.76	0.128
1044.92	0.132
1045.09	0.133
1045.25	0.129
1045.41	0.129
1045.57	0.126
1045.73	0.125
1045.89	0.127
1046.05	0.128
1046.21	0.126
1046.38	0.137
1046.54	0.133
1046.70	0.141
1046.86	0.115
>>>>>End Processed Spectral Data<<<<<
