SpectraSuite Data File
++++++++++++++++++++++++++++++++++++
Date: Mon May 20 12:13:25 CDT 2013
User: Students
Dark Spectrum Present: Yes
Reference Spectrum Present: Yes
Number of Sampled Component Spectra: 1
Spectrometers: USB4H00887
Integration Time (usec): 60000 (USB4H00887)
Spectra Averaged: 5 (USB4H00887)
Boxcar Smoothing: 5 (USB4H00887)
Correct for Electrical Dark: No (USB4H00887)
Strobe/Lamp Enabled: No (USB4H00887)
Correct for Detector Non-linearity: No (USB4H00887)
Correct for Stray Light: No (USB4H00887)
Number of Pixels in Processed Spectrum: 3648
>>>>>Begin Processed Spectral Data<<<<<
345.83	0.036
346.05	0.036
346.26	0.036
346.48	-0.000
346.70	0.314
346.92	0.070
347.14	0.069
347.35	0.075
347.57	0.693
347.79	-0.284
348.01	-0.208
348.23	-0.321
348.44	-0.000
348.66	0.166
348.88	-0.288
349.10	-0.110
349.32	0.082
349.53	-0.016
349.75	-0.018
349.97	0.001
350.19	-0.014
350.41	-0.040
350.62	0.687
350.84	-0.050
351.06	-0.047
351.28	-0.079
351.50	-0.244
351.71	-0.123
351.93	-0.102
352.15	-0.023
352.37	-0.082
352.58	-0.004
352.80	0.027
353.02	0.069
353.24	0.123
353.46	0.497
353.67	-0.165
353.89	0.075
354.11	0.064
354.33	0.076
354.54	0.138
354.76	0.208
354.98	0.323
355.20	0.201
355.41	0.084
355.63	0.156
355.85	0.084
356.07	1.227
356.28	0.075
356.50	0.104
356.72	0.033
356.94	0.050
357.15	0.109
357.37	-0.000
357.59	0.110
357.81	0.071
358.02	0.140
358.24	0.105
358.46	0.238
358.68	0.216
358.89	0.129
359.11	-0.000
359.33	0.128
359.55	-0.684
359.76	0.159
359.98	0.168
360.20	0.158
360.42	0.114
360.63	0.105
360.85	0.070
361.07	0.306
361.29	0.050
361.50	0.195
361.72	0.086
361.94	0.284
362.15	0.124
362.37	0.077
362.59	0.075
362.81	0.135
363.02	0.270
363.24	0.430
363.46	0.230
363.68	0.342
363.89	0.177
364.11	0.250
364.33	0.360
364.54	0.221
364.76	0.251
364.98	0.291
365.20	0.321
365.41	0.179
365.63	0.199
365.85	0.149
366.06	0.437
366.28	0.439
366.50	0.279
366.71	0.106
366.93	0.134
367.15	0.131
367.37	0.123
367.58	0.166
367.80	0.196
368.02	0.626
368.23	0.149
368.45	0.133
368.67	0.118
368.88	0.116
369.10	-0.000
369.32	0.097
369.53	0.055
369.75	0.075
369.97	0.121
370.19	0.069
370.40	0.034
370.62	0.103
370.84	0.074
371.05	0.459
371.27	0.118
371.49	0.152
371.70	0.181
371.92	0.284
372.14	0.129
372.35	0.144
372.57	0.164
372.79	0.470
373.00	0.103
373.22	0.156
373.44	0.138
373.65	0.110
373.87	0.179
374.09	1.346
374.30	0.151
374.52	0.183
374.74	0.122
374.95	0.587
375.17	0.154
375.39	-0.000
375.60	0.177
375.82	0.316
376.04	0.123
376.25	0.127
376.47	0.069
376.68	0.163
376.90	0.089
377.12	0.214
377.33	0.129
377.55	0.294
377.77	0.153
377.98	0.229
378.20	0.125
378.42	0.154
378.63	0.189
378.85	-0.000
379.07	0.138
379.28	0.525
379.50	0.294
379.71	0.145
379.93	0.103
380.15	0.126
380.36	0.187
380.58	0.152
380.80	0.448
381.01	0.138
381.23	0.120
381.44	0.145
381.66	0.177
381.88	0.210
382.09	-0.093
382.31	0.150
382.53	0.154
382.74	0.966
382.96	0.210
383.17	0.183
383.39	0.249
383.61	0.302
383.82	0.209
384.04	0.220
384.25	0.270
384.47	0.253
384.69	0.233
384.90	0.220
385.12	0.466
385.33	0.289
385.55	0.212
385.77	0.307
385.98	0.167
386.20	0.215
386.41	0.189
386.63	0.221
386.85	0.184
387.06	0.229
387.28	0.350
387.49	0.230
387.71	0.171
387.93	0.157
388.14	0.526
388.36	0.220
388.57	0.202
388.79	0.232
389.01	-0.000
389.22	0.301
389.44	0.254
389.65	0.210
389.87	0.214
390.08	0.260
390.30	0.204
390.52	0.405
390.73	0.391
390.95	0.262
391.16	0.249
391.38	-0.000
391.59	0.282
391.81	0.236
392.03	0.226
392.24	0.264
392.46	0.224
392.67	0.187
392.89	0.254
393.10	0.375
393.32	0.268
393.53	0.326
393.75	0.201
393.97	0.225
394.18	0.314
394.40	0.255
394.61	0.280
394.83	0.237
395.04	0.290
395.26	0.190
395.47	0.293
395.69	0.244
395.91	0.251
396.12	0.310
396.34	0.319
396.55	0.215
396.77	0.347
396.98	-0.000
397.20	0.397
397.41	0.451
397.63	0.312
397.84	0.283
398.06	0.259
398.27	0.276
398.49	0.323
398.71	0.226
398.92	0.253
399.14	0.304
399.35	0.366
399.57	0.348
399.78	0.228
400.00	0.222
400.21	0.277
400.43	0.238
400.64	0.243
400.86	0.484
401.07	0.294
401.29	0.266
401.50	0.286
401.72	0.400
401.93	0.260
402.15	0.318
402.36	0.291
402.58	0.243
402.79	0.254
403.01	0.411
403.22	0.319
403.44	0.230
403.65	0.359
403.87	0.390
404.08	0.313
404.30	0.514
404.51	0.298
404.73	0.365
404.94	0.309
405.16	0.320
405.37	0.246
405.59	0.444
405.80	0.277
406.02	0.336
406.23	0.338
406.45	0.394
406.66	0.431
406.88	0.280
407.09	0.411
407.31	0.330
407.52	0.409
407.74	0.344
407.95	0.399
408.17	0.383
408.38	0.408
408.60	0.277
408.81	0.442
409.03	0.318
409.24	0.322
409.45	0.377
409.67	0.368
409.88	0.338
410.10	0.433
410.31	0.374
410.53	0.356
410.74	0.496
410.96	0.477
411.17	0.498
411.39	0.396
411.60	0.375
411.82	0.438
412.03	0.418
412.24	0.396
412.46	0.554
412.67	0.464
412.89	0.454
413.10	0.452
413.32	0.411
413.53	0.475
413.75	0.487
413.96	0.361
414.17	0.464
414.39	0.469
414.60	0.389
414.82	0.521
415.03	0.389
415.25	0.421
415.46	0.296
415.68	0.413
415.89	0.731
416.10	0.591
416.32	0.336
416.53	0.397
416.75	0.382
416.96	0.450
417.18	0.394
417.39	0.380
417.60	0.388
417.82	0.555
418.03	0.491
418.25	0.403
418.46	0.423
418.67	0.398
418.89	0.433
419.10	0.442
419.32	0.589
419.53	0.530
419.75	0.459
419.96	0.402
420.17	0.484
420.39	0.458
420.60	0.479
420.82	0.588
421.03	0.464
421.24	0.392
421.46	0.433
421.67	0.470
421.89	0.413
422.10	0.437
422.31	0.433
422.53	0.612
422.74	0.448
422.96	0.364
423.17	0.403
423.38	0.496
423.60	0.420
423.81	0.522
424.03	0.455
424.24	0.502
424.45	0.511
424.67	0.498
424.88	0.447
425.09	0.484
425.31	0.453
425.52	0.479
425.74	0.538
425.95	0.580
426.16	0.458
426.38	0.527
426.59	0.485
426.80	0.540
427.02	0.572
427.23	0.451
427.45	0.581
427.66	0.565
427.87	0.442
428.09	0.462
428.30	0.518
428.51	0.507
428.73	0.549
428.94	0.489
429.15	0.482
429.37	0.466
429.58	0.498
429.79	0.465
430.01	0.553
430.22	0.545
430.44	0.562
430.65	0.506
430.86	0.543
431.08	0.524
431.29	0.478
431.50	0.562
431.72	0.721
431.93	0.588
432.14	0.452
432.36	0.494
432.57	0.503
432.78	0.518
433.00	0.477
433.21	0.471
433.42	0.582
433.64	0.519
433.85	0.584
434.06	0.488
434.28	0.511
434.49	0.530
434.70	0.536
434.92	0.552
435.13	0.590
435.34	0.595
435.56	0.561
435.77	0.555
435.98	0.700
436.20	0.593
436.41	0.511
436.62	0.508
436.83	0.569
437.05	0.640
437.26	0.571
437.47	0.514
437.69	0.561
437.90	0.516
438.11	0.507
438.33	0.546
438.54	0.561
438.75	0.712
438.97	0.689
439.18	0.531
439.39	0.552
439.60	0.592
439.82	0.557
440.03	0.520
440.24	0.736
440.46	0.571
440.67	0.558
440.88	0.597
441.10	0.550
441.31	0.551
441.52	0.597
441.73	0.671
441.95	0.593
442.16	0.544
442.37	0.813
442.58	0.534
442.80	0.521
443.01	0.656
443.22	0.606
443.44	0.526
443.65	0.616
443.86	0.614
444.07	0.644
444.29	0.569
444.50	0.707
444.71	0.553
444.92	0.522
445.14	0.649
445.35	0.680
445.56	0.547
445.78	0.637
445.99	0.632
446.20	0.546
446.41	0.615
446.63	0.617
446.84	0.587
447.05	0.584
447.26	0.696
447.48	0.606
447.69	0.577
447.90	0.658
448.11	0.586
448.33	0.607
448.54	0.625
448.75	0.645
448.96	0.650
449.18	0.690
449.39	0.623
449.60	0.601
449.81	0.712
450.03	0.629
450.24	0.668
450.45	0.637
450.66	0.627
450.87	0.657
451.09	0.615
451.30	0.600
451.51	0.655
451.72	0.666
451.94	0.686
452.15	0.740
452.36	0.624
452.57	0.642
452.78	0.639
453.00	0.661
453.21	0.626
453.42	0.603
453.63	0.678
453.85	0.655
454.06	0.653
454.27	0.747
454.48	0.678
454.69	0.620
454.91	0.674
455.12	0.597
455.33	0.664
455.54	0.680
455.75	0.660
455.97	0.679
456.18	0.671
456.39	0.671
456.60	0.696
456.81	0.645
457.03	0.661
457.24	0.656
457.45	0.728
457.66	0.688
457.87	0.651
458.09	0.672
458.30	0.604
458.51	0.701
458.72	0.722
458.93	0.727
459.15	0.649
459.36	0.696
459.57	0.722
459.78	0.755
459.99	0.684
460.20	0.655
460.42	0.717
460.63	0.685
460.84	0.672
461.05	0.692
461.26	0.741
461.47	0.677
461.69	0.719
461.90	0.748
462.11	0.713
462.32	0.758
462.53	0.703
462.74	0.780
462.96	0.687
463.17	0.676
463.38	0.705
463.59	0.789
463.80	0.668
464.01	0.688
464.23	0.757
464.44	0.731
464.65	0.737
464.86	0.755
465.07	0.761
465.28	0.728
465.49	0.754
465.71	0.717
465.92	0.749
466.13	0.789
466.34	0.733
466.55	0.771
466.76	0.738
466.97	0.754
467.19	0.743
467.40	0.773
467.61	0.778
467.82	0.716
468.03	0.701
468.24	0.754
468.45	0.775
468.66	0.765
468.88	0.771
469.09	0.772
469.30	0.806
469.51	0.753
469.72	0.782
469.93	0.760
470.14	0.740
470.35	0.810
470.57	0.773
470.78	0.731
470.99	0.831
471.20	0.787
471.41	0.758
471.62	0.799
471.83	0.781
472.04	0.804
472.25	0.839
472.47	0.775
472.68	0.780
472.89	0.786
473.10	0.821
473.31	0.780
473.52	0.828
473.73	0.846
473.94	0.785
474.15	0.805
474.36	0.803
474.57	0.824
474.79	0.803
475.00	0.803
475.21	0.792
475.42	0.860
475.63	0.787
475.84	0.808
476.05	0.815
476.26	0.791
476.47	0.817
476.68	0.858
476.89	0.801
477.10	0.837
477.32	0.823
477.53	0.865
477.74	0.805
477.95	0.838
478.16	0.802
478.37	0.832
478.58	0.834
478.79	0.845
479.00	0.845
479.21	0.815
479.42	0.849
479.63	0.856
479.84	0.825
480.05	0.825
480.26	0.844
480.47	0.857
480.69	0.859
480.90	0.834
481.11	0.832
481.32	0.875
481.53	0.831
481.74	0.871
481.95	0.845
482.16	0.856
482.37	0.861
482.58	0.837
482.79	0.849
483.00	0.871
483.21	0.829
483.42	0.807
483.63	0.865
483.84	0.881
484.05	0.874
484.26	0.853
484.47	0.855
484.68	0.826
484.89	0.828
485.10	0.868
485.31	0.853
485.52	0.857
485.73	0.856
485.94	0.889
486.15	0.849
486.37	0.858
486.58	0.831
486.79	0.837
487.00	0.874
487.21	0.870
487.42	0.864
487.63	0.865
487.84	0.879
488.05	0.879
488.26	0.846
488.47	0.851
488.68	0.873
488.89	0.856
489.10	0.852
489.31	0.862
489.52	0.888
489.73	0.865
489.94	0.894
490.15	0.861
490.36	0.891
490.57	0.859
490.78	0.848
490.99	0.877
491.20	0.933
491.41	0.900
491.62	0.857
491.83	0.876
492.04	0.872
492.25	0.879
492.45	0.882
492.66	0.902
492.87	0.893
493.08	0.885
493.29	0.873
493.50	0.869
493.71	0.874
493.92	0.870
494.13	0.882
494.34	0.899
494.55	0.903
494.76	0.924
494.97	0.917
495.18	0.890
495.39	0.902
495.60	0.865
495.81	0.866
496.02	0.882
496.23	0.878
496.44	0.902
496.65	0.896
496.86	0.900
497.07	0.917
497.28	0.912
497.49	0.876
497.70	0.876
497.91	0.892
498.12	0.878
498.32	0.910
498.53	0.899
498.74	0.889
498.95	0.905
499.16	0.872
499.37	0.876
499.58	0.884
499.79	0.904
500.00	0.902
500.21	0.923
500.42	0.883
500.63	0.884
500.84	0.900
501.05	0.889
501.26	0.909
501.46	0.939
501.67	0.910
501.88	0.911
502.09	0.893
502.30	0.899
502.51	0.936
502.72	0.904
502.93	0.915
503.14	0.930
503.35	0.907
503.56	0.903
503.77	0.926
503.97	0.911
504.18	0.910
504.39	0.937
504.60	0.914
504.81	0.935
505.02	0.925
505.23	0.926
505.44	0.913
505.65	0.919
505.86	0.904
506.07	0.954
506.27	0.922
506.48	0.927
506.69	0.913
506.90	0.929
507.11	0.926
507.32	0.909
507.53	0.916
507.74	0.911
507.95	0.920
508.15	0.927
508.36	0.929
508.57	0.938
508.78	0.926
508.99	0.927
509.20	0.907
509.41	0.924
509.62	0.915
509.82	0.912
510.03	0.919
510.24	0.918
510.45	0.933
510.66	0.926
510.87	0.923
511.08	0.894
511.29	0.925
511.49	0.908
511.70	0.943
511.91	0.894
512.12	0.891
512.33	0.918
512.54	0.931
512.75	0.920
512.95	0.940
513.16	0.934
513.37	0.915
513.58	0.940
513.79	0.913
514.00	0.919
514.20	0.934
514.41	0.925
514.62	0.901
514.83	0.930
515.04	0.923
515.25	0.909
515.46	0.915
515.66	0.917
515.87	0.926
516.08	0.904
516.29	0.921
516.50	0.906
516.71	0.903
516.91	0.910
517.12	0.922
517.33	0.909
517.54	0.897
517.75	0.901
517.95	0.910
518.16	0.918
518.37	0.894
518.58	0.898
518.79	0.877
519.00	0.898
519.20	0.905
519.41	0.885
519.62	0.901
519.83	0.907
520.04	0.880
520.24	0.879
520.45	0.887
520.66	0.903
520.87	0.875
521.08	0.875
521.28	0.879
521.49	0.889
521.70	0.866
521.91	0.877
522.12	0.864
522.32	0.881
522.53	0.866
522.74	0.858
522.95	0.865
523.16	0.866
523.36	0.872
523.57	0.858
523.78	0.853
523.99	0.857
524.20	0.852
524.40	0.861
524.61	0.865
524.82	0.847
525.03	0.850
525.23	0.850
525.44	0.838
525.65	0.838
525.86	0.854
526.06	0.834
526.27	0.835
526.48	0.841
526.69	0.828
526.90	0.831
527.10	0.857
527.31	0.824
527.52	0.819
527.73	0.813
527.93	0.820
528.14	0.824
528.35	0.816
528.56	0.817
528.76	0.811
528.97	0.803
529.18	0.796
529.39	0.796
529.59	0.797
529.80	0.822
530.01	0.800
530.22	0.799
530.42	0.775
530.63	0.787
530.84	0.769
531.05	0.779
531.25	0.782
531.46	0.776
531.67	0.758
531.88	0.773
532.08	0.767
532.29	0.763
532.50	0.758
532.70	0.752
532.91	0.744
533.12	0.746
533.33	0.765
533.53	0.742
533.74	0.741
533.95	0.745
534.15	0.736
534.36	0.736
534.57	0.722
534.78	0.722
534.98	0.731
535.19	0.707
535.40	0.709
535.60	0.724
535.81	0.709
536.02	0.710
536.23	0.704
536.43	0.705
536.64	0.695
536.85	0.701
537.05	0.708
537.26	0.689
537.47	0.691
537.67	0.682
537.88	0.677
538.09	0.682
538.30	0.674
538.50	0.667
538.71	0.675
538.92	0.665
539.12	0.662
539.33	0.659
539.54	0.659
539.74	0.664
539.95	0.656
540.16	0.654
540.36	0.647
540.57	0.648
540.78	0.642
540.98	0.640
541.19	0.638
541.40	0.629
541.60	0.636
541.81	0.633
542.02	0.632
542.22	0.624
542.43	0.620
542.64	0.615
542.84	0.614
543.05	0.608
543.26	0.609
543.46	0.610
543.67	0.608
543.88	0.605
544.08	0.596
544.29	0.591
544.50	0.591
544.70	0.592
544.91	0.585
545.12	0.586
545.32	0.583
545.53	0.585
545.74	0.576
545.94	0.574
546.15	0.573
546.35	0.571
546.56	0.568
546.77	0.565
546.97	0.563
547.18	0.556
547.39	0.556
547.59	0.554
547.80	0.551
548.01	0.555
548.21	0.552
548.42	0.545
548.62	0.544
548.83	0.542
549.04	0.539
549.24	0.533
549.45	0.533
549.65	0.531
549.86	0.528
550.07	0.527
550.27	0.525
550.48	0.532
550.69	0.519
550.89	0.519
551.10	0.515
551.30	0.514
551.51	0.514
551.72	0.505
551.92	0.506
552.13	0.505
552.33	0.506
552.54	0.501
552.75	0.495
552.95	0.497
553.16	0.493
553.36	0.491
553.57	0.489
553.78	0.487
553.98	0.487
554.19	0.480
554.39	0.477
554.60	0.480
554.80	0.480
555.01	0.473
555.22	0.475
555.42	0.471
555.63	0.466
555.83	0.469
556.04	0.463
556.25	0.465
556.45	0.457
556.66	0.455
556.86	0.458
557.07	0.456
557.27	0.455
557.48	0.450
557.68	0.449
557.89	0.449
558.10	0.446
558.30	0.443
558.51	0.441
558.71	0.439
558.92	0.435
559.12	0.437
559.33	0.440
559.54	0.435
559.74	0.432
559.95	0.430
560.15	0.430
560.36	0.429
560.56	0.424
560.77	0.425
560.97	0.425
561.18	0.420
561.38	0.420
561.59	0.422
561.79	0.419
562.00	0.417
562.21	0.413
562.41	0.412
562.62	0.410
562.82	0.409
563.03	0.405
563.23	0.405
563.44	0.405
563.64	0.401
563.85	0.403
564.05	0.396
564.26	0.395
564.46	0.395
564.67	0.396
564.87	0.392
565.08	0.390
565.28	0.389
565.49	0.390
565.69	0.388
565.90	0.385
566.10	0.388
566.31	0.382
566.51	0.383
566.72	0.384
566.92	0.377
567.13	0.377
567.33	0.376
567.54	0.375
567.74	0.374
567.95	0.370
568.15	0.371
568.36	0.370
568.56	0.369
568.77	0.365
568.97	0.363
569.18	0.364
569.38	0.362
569.59	0.363
569.79	0.360
570.00	0.358
570.20	0.357
570.41	0.355
570.61	0.354
570.82	0.355
571.02	0.351
571.23	0.353
571.43	0.349
571.64	0.348
571.84	0.347
572.05	0.346
572.25	0.345
572.45	0.344
572.66	0.342
572.86	0.341
573.07	0.340
573.27	0.340
573.48	0.339
573.68	0.335
573.89	0.335
574.09	0.335
574.30	0.334
574.50	0.332
574.70	0.332
574.91	0.329
575.11	0.330
575.32	0.329
575.52	0.325
575.73	0.325
575.93	0.325
576.14	0.325
576.34	0.323
576.54	0.322
576.75	0.320
576.95	0.320
577.16	0.318
577.36	0.316
577.57	0.316
577.77	0.315
577.97	0.312
578.18	0.313
578.38	0.309
578.59	0.308
578.79	0.306
579.00	0.307
579.20	0.305
579.40	0.305
579.61	0.305
579.81	0.304
580.02	0.301
580.22	0.302
580.42	0.301
580.63	0.301
580.83	0.301
581.04	0.299
581.24	0.298
581.45	0.297
581.65	0.297
581.85	0.296
582.06	0.294
582.26	0.294
582.47	0.292
582.67	0.291
582.87	0.291
583.08	0.289
583.28	0.289
583.48	0.288
583.69	0.285
583.89	0.285
584.10	0.286
584.30	0.284
584.50	0.282
584.71	0.281
584.91	0.281
585.12	0.278
585.32	0.279
585.52	0.277
585.73	0.275
585.93	0.275
586.13	0.274
586.34	0.274
586.54	0.273
586.75	0.272
586.95	0.271
587.15	0.271
587.36	0.270
587.56	0.269
587.76	0.268
587.97	0.268
588.17	0.266
588.37	0.266
588.58	0.266
588.78	0.263
588.98	0.263
589.19	0.262
589.39	0.261
589.60	0.263
589.80	0.261
590.00	0.260
590.21	0.260
590.41	0.259
590.61	0.259
590.82	0.258
591.02	0.258
591.22	0.256
591.43	0.257
591.63	0.255
591.83	0.255
592.04	0.253
592.24	0.254
592.44	0.251
592.65	0.250
592.85	0.250
593.05	0.250
593.26	0.248
593.46	0.247
593.66	0.247
593.86	0.247
594.07	0.245
594.27	0.245
594.47	0.243
594.68	0.243
594.88	0.244
595.08	0.243
595.29	0.244
595.49	0.241
595.69	0.241
595.90	0.240
596.10	0.240
596.30	0.240
596.50	0.239
596.71	0.239
596.91	0.238
597.11	0.237
597.32	0.237
597.52	0.236
597.72	0.235
597.93	0.234
598.13	0.233
598.33	0.233
598.53	0.232
598.74	0.232
598.94	0.231
599.14	0.231
599.35	0.230
599.55	0.230
599.75	0.229
599.95	0.228
600.16	0.229
600.36	0.227
600.56	0.227
600.76	0.227
600.97	0.225
601.17	0.225
601.37	0.225
601.58	0.224
601.78	0.224
601.98	0.223
602.18	0.222
602.39	0.222
602.59	0.221
602.79	0.220
602.99	0.220
603.20	0.219
603.40	0.219
603.60	0.218
603.80	0.218
604.01	0.218
604.21	0.217
604.41	0.216
604.61	0.215
604.82	0.215
605.02	0.215
605.22	0.215
605.42	0.214
605.62	0.214
605.83	0.213
606.03	0.212
606.23	0.213
606.43	0.212
606.64	0.212
606.84	0.211
607.04	0.211
607.24	0.211
607.45	0.211
607.65	0.210
607.85	0.211
608.05	0.209
608.25	0.208
608.46	0.208
608.66	0.208
608.86	0.207
609.06	0.206
609.26	0.205
609.47	0.205
609.67	0.204
609.87	0.204
610.07	0.204
610.28	0.203
610.48	0.203
610.68	0.203
610.88	0.201
611.08	0.202
611.29	0.201
611.49	0.201
611.69	0.201
611.89	0.200
612.09	0.200
612.29	0.199
612.50	0.199
612.70	0.199
612.90	0.198
613.10	0.198
613.30	0.197
613.51	0.197
613.71	0.197
613.91	0.201
614.11	0.196
614.31	0.196
614.51	0.195
614.72	0.195
614.92	0.194
615.12	0.194
615.32	0.194
615.52	0.193
615.72	0.194
615.93	0.194
616.13	0.193
616.33	0.193
616.53	0.193
616.73	0.193
616.93	0.192
617.14	0.192
617.34	0.192
617.54	0.192
617.74	0.192
617.94	0.190
618.14	0.190
618.34	0.189
618.55	0.189
618.75	0.189
618.95	0.189
619.15	0.189
619.35	0.188
619.55	0.187
619.75	0.187
619.96	0.186
620.16	0.187
620.36	0.187
620.56	0.187
620.76	0.187
620.96	0.186
621.16	0.186
621.36	0.185
621.57	0.186
621.77	0.186
621.97	0.184
622.17	0.184
622.37	0.184
622.57	0.184
622.77	0.183
622.97	0.182
623.18	0.182
623.38	0.183
623.58	0.182
623.78	0.182
623.98	0.182
624.18	0.182
624.38	0.181
624.58	0.181
624.78	0.182
624.98	0.182
625.19	0.181
625.39	0.181
625.59	0.180
625.79	0.180
625.99	0.180
626.19	0.180
626.39	0.179
626.59	0.179
626.79	0.179
626.99	0.179
627.19	0.179
627.40	0.179
627.60	0.178
627.80	0.178
628.00	0.178
628.20	0.177
628.40	0.177
628.60	0.177
628.80	0.176
629.00	0.176
629.20	0.175
629.40	0.175
629.60	0.174
629.80	0.175
630.00	0.175
630.20	0.175
630.41	0.174
630.61	0.174
630.81	0.173
631.01	0.173
631.21	0.172
631.41	0.173
631.61	0.173
631.81	0.172
632.01	0.172
632.21	0.172
632.41	0.170
632.61	0.171
632.81	0.171
633.01	0.171
633.21	0.171
633.41	0.171
633.61	0.170
633.81	0.170
634.01	0.170
634.21	0.170
634.41	0.169
634.61	0.170
634.81	0.169
635.01	0.169
635.22	0.169
635.42	0.168
635.62	0.168
635.82	0.168
636.02	0.167
636.22	0.167
636.42	0.167
636.62	0.167
636.82	0.166
637.02	0.166
637.22	0.166
637.42	0.166
637.62	0.165
637.82	0.165
638.02	0.165
638.22	0.165
638.42	0.164
638.62	0.163
638.82	0.163
639.02	0.163
639.22	0.163
639.42	0.162
639.62	0.162
639.82	0.161
640.02	0.161
640.22	0.161
640.42	0.161
640.62	0.160
640.82	0.161
641.02	0.160
641.22	0.161
641.42	0.160
641.61	0.160
641.81	0.161
642.01	0.161
642.21	0.161
642.41	0.161
642.61	0.161
642.81	0.160
643.01	0.160
643.21	0.159
643.41	0.159
643.61	0.159
643.81	0.159
644.01	0.158
644.21	0.157
644.41	0.158
644.61	0.158
644.81	0.158
645.01	0.158
645.21	0.157
645.41	0.157
645.61	0.157
645.81	0.157
646.01	0.156
646.21	0.157
646.40	0.156
646.60	0.156
646.80	0.156
647.00	0.155
647.20	0.154
647.40	0.154
647.60	0.154
647.80	0.153
648.00	0.153
648.20	0.153
648.40	0.153
648.60	0.153
648.80	0.153
649.00	0.153
649.20	0.153
649.39	0.152
649.59	0.152
649.79	0.152
649.99	0.151
650.19	0.151
650.39	0.151
650.59	0.151
650.79	0.151
650.99	0.150
651.19	0.149
651.39	0.149
651.58	0.149
651.78	0.149
651.98	0.148
652.18	0.148
652.38	0.148
652.58	0.148
652.78	0.147
652.98	0.147
653.18	0.147
653.38	0.147
653.57	0.147
653.77	0.148
653.97	0.147
654.17	0.147
654.37	0.147
654.57	0.147
654.77	0.147
654.97	0.146
655.16	0.147
655.36	0.146
655.56	0.146
655.76	0.145
655.96	0.145
656.16	0.144
656.36	0.144
656.56	0.143
656.75	0.144
656.95	0.143
657.15	0.144
657.35	0.143
657.55	0.142
657.75	0.142
657.95	0.142
658.14	0.142
658.34	0.142
658.54	0.141
658.74	0.141
658.94	0.141
659.14	0.140
659.34	0.140
659.53	0.140
659.73	0.140
659.93	0.139
660.13	0.139
660.33	0.139
660.53	0.139
660.72	0.139
660.92	0.139
661.12	0.138
661.32	0.138
661.52	0.138
661.72	0.137
661.91	0.137
662.11	0.138
662.31	0.138
662.51	0.138
662.71	0.137
662.90	0.136
663.10	0.136
663.30	0.136
663.50	0.136
663.70	0.136
663.90	0.135
664.09	0.135
664.29	0.134
664.49	0.134
664.69	0.133
664.89	0.134
665.08	0.133
665.28	0.133
665.48	0.133
665.68	0.132
665.88	0.133
666.07	0.132
666.27	0.133
666.47	0.132
666.67	0.132
666.87	0.132
667.06	0.132
667.26	0.132
667.46	0.131
667.66	0.132
667.85	0.132
668.05	0.132
668.25	0.131
668.45	0.131
668.65	0.131
668.84	0.131
669.04	0.131
669.24	0.131
669.44	0.130
669.63	0.129
669.83	0.129
670.03	0.128
670.23	0.127
670.42	0.127
670.62	0.126
670.82	0.126
671.02	0.126
671.22	0.125
671.41	0.125
671.61	0.126
671.81	0.126
672.01	0.125
672.20	0.125
672.40	0.125
672.60	0.125
672.80	0.125
672.99	0.125
673.19	0.125
673.39	0.125
673.58	0.124
673.78	0.124
673.98	0.123
674.18	0.123
674.37	0.123
674.57	0.123
674.77	0.123
674.97	0.123
675.16	0.123
675.36	0.122
675.56	0.122
675.75	0.122
675.95	0.121
676.15	0.122
676.35	0.121
676.54	0.121
676.74	0.121
676.94	0.121
677.13	0.120
677.33	0.120
677.53	0.120
677.73	0.120
677.92	0.119
678.12	0.119
678.32	0.118
678.51	0.118
678.71	0.119
678.91	0.118
679.11	0.118
679.30	0.118
679.50	0.118
679.70	0.117
679.89	0.117
680.09	0.118
680.29	0.117
680.48	0.117
680.68	0.117
680.88	0.116
681.07	0.117
681.27	0.116
681.47	0.116
681.66	0.116
681.86	0.115
682.06	0.115
682.25	0.115
682.45	0.115
682.65	0.114
682.84	0.114
683.04	0.114
683.24	0.114
683.43	0.114
683.63	0.114
683.83	0.114
684.02	0.113
684.22	0.113
684.42	0.113
684.61	0.113
684.81	0.113
685.01	0.113
685.20	0.113
685.40	0.113
685.60	0.112
685.79	0.112
685.99	0.113
686.19	0.112
686.38	0.111
686.58	0.112
686.77	0.112
686.97	0.111
687.17	0.111
687.36	0.111
687.56	0.111
687.76	0.110
687.95	0.110
688.15	0.110
688.34	0.110
688.54	0.109
688.74	0.109
688.93	0.109
689.13	0.109
689.33	0.109
689.52	0.108
689.72	0.108
689.91	0.107
690.11	0.107
690.31	0.106
690.50	0.107
690.70	0.107
690.89	0.107
691.09	0.106
691.29	0.106
691.48	0.106
691.68	0.106
691.87	0.106
692.07	0.106
692.27	0.106
692.46	0.106
692.66	0.105
692.85	0.105
693.05	0.105
693.25	0.105
693.44	0.104
693.64	0.104
693.83	0.104
694.03	0.104
694.22	0.103
694.42	0.103
694.62	0.104
694.81	0.104
695.01	0.104
695.20	0.103
695.40	0.103
695.59	0.103
695.79	0.103
695.99	0.104
696.18	0.103
696.38	0.104
696.57	0.104
696.77	0.103
696.96	0.104
697.16	0.103
697.36	0.103
697.55	0.103
697.75	0.103
697.94	0.102
698.14	0.102
698.33	0.102
698.53	0.102
698.72	0.102
698.92	0.102
699.11	0.101
699.31	0.101
699.51	0.101
699.70	0.101
699.90	0.100
700.09	0.101
700.29	0.100
700.48	0.100
700.68	0.100
700.87	0.100
701.07	0.099
701.26	0.099
701.46	0.099
701.65	0.099
701.85	0.099
702.04	0.098
702.24	0.098
702.43	0.098
702.63	0.097
702.82	0.097
703.02	0.097
703.21	0.097
703.41	0.097
703.60	0.097
703.80	0.097
703.99	0.096
704.19	0.097
704.38	0.097
704.58	0.096
704.77	0.097
704.97	0.096
705.16	0.096
705.36	0.096
705.55	0.096
705.75	0.096
705.94	0.096
706.14	0.096
706.33	0.096
706.53	0.096
706.72	0.096
706.92	0.096
707.11	0.096
707.31	0.096
707.50	0.096
707.70	0.096
707.89	0.096
708.09	0.096
708.28	0.095
708.48	0.095
708.67	0.095
708.86	0.095
709.06	0.095
709.25	0.094
709.45	0.094
709.64	0.094
709.84	0.094
710.03	0.093
710.23	0.093
710.42	0.093
710.62	0.093
710.81	0.093
711.00	0.093
711.20	0.093
711.39	0.092
711.59	0.092
711.78	0.092
711.98	0.092
712.17	0.092
712.37	0.092
712.56	0.092
712.75	0.093
712.95	0.093
713.14	0.093
713.34	0.092
713.53	0.093
713.73	0.093
713.92	0.093
714.11	0.093
714.31	0.093
714.50	0.093
714.70	0.093
714.89	0.093
715.08	0.093
715.28	0.093
715.47	0.092
715.67	0.092
715.86	0.092
716.06	0.092
716.25	0.092
716.44	0.091
716.64	0.091
716.83	0.091
717.03	0.091
717.22	0.090
717.41	0.090
717.61	0.090
717.80	0.091
717.99	0.091
718.19	0.091
718.38	0.091
718.58	0.090
718.77	0.090
718.96	0.090
719.16	0.090
719.35	0.090
719.55	0.089
719.74	0.089
719.93	0.089
720.13	0.089
720.32	0.089
720.51	0.089
720.71	0.089
720.90	0.089
721.10	0.089
721.29	0.089
721.48	0.089
721.68	0.089
721.87	0.089
722.06	0.089
722.26	0.089
722.45	0.089
722.64	0.089
722.84	0.089
723.03	0.089
723.22	0.089
723.42	0.090
723.61	0.090
723.80	0.090
724.00	0.090
724.19	0.090
724.38	0.090
724.58	0.090
724.77	0.090
724.96	0.090
725.16	0.090
725.35	0.089
725.54	0.090
725.74	0.090
725.93	0.090
726.12	0.090
726.32	0.089
726.51	0.089
726.70	0.089
726.90	0.089
727.09	0.089
727.28	0.089
727.48	0.089
727.67	0.089
727.86	0.088
728.06	0.089
728.25	0.089
728.44	0.089
728.64	0.089
728.83	0.089
729.02	0.088
729.21	0.089
729.41	0.089
729.60	0.088
729.79	0.088
729.99	0.088
730.18	0.088
730.37	0.088
730.56	0.088
730.76	0.088
730.95	0.088
731.14	0.088
731.34	0.088
731.53	0.088
731.72	0.088
731.91	0.088
732.11	0.089
732.30	0.089
732.49	0.089
732.69	0.089
732.88	0.089
733.07	0.089
733.26	0.089
733.46	0.089
733.65	0.089
733.84	0.089
734.03	0.089
734.23	0.089
734.42	0.088
734.61	0.088
734.80	0.088
735.00	0.088
735.19	0.088
735.38	0.088
735.57	0.088
735.77	0.088
735.96	0.088
736.15	0.088
736.34	0.088
736.54	0.089
736.73	0.088
736.92	0.088
737.11	0.088
737.31	0.088
737.50	0.088
737.69	0.088
737.88	0.088
738.07	0.088
738.27	0.088
738.46	0.088
738.65	0.088
738.84	0.088
739.04	0.088
739.23	0.088
739.42	0.088
739.61	0.088
739.80	0.088
740.00	0.088
740.19	0.088
740.38	0.088
740.57	0.088
740.76	0.087
740.96	0.087
741.15	0.087
741.34	0.086
741.53	0.086
741.72	0.086
741.92	0.086
742.11	0.086
742.30	0.086
742.49	0.086
742.68	0.086
742.88	0.086
743.07	0.086
743.26	0.087
743.45	0.087
743.64	0.087
743.84	0.086
744.03	0.086
744.22	0.086
744.41	0.086
744.60	0.085
744.79	0.086
744.99	0.086
745.18	0.085
745.37	0.085
745.56	0.085
745.75	0.085
745.94	0.085
746.14	0.085
746.33	0.086
746.52	0.086
746.71	0.086
746.90	0.086
747.09	0.086
747.28	0.085
747.48	0.086
747.67	0.085
747.86	0.085
748.05	0.085
748.24	0.085
748.43	0.085
748.62	0.085
748.82	0.085
749.01	0.085
749.20	0.084
749.39	0.084
749.58	0.084
749.77	0.084
749.96	0.084
750.16	0.084
750.35	0.084
750.54	0.084
750.73	0.084
750.92	0.084
751.11	0.084
751.30	0.084
751.49	0.084
751.68	0.084
751.88	0.084
752.07	0.084
752.26	0.084
752.45	0.083
752.64	0.083
752.83	0.083
753.02	0.083
753.21	0.083
753.40	0.082
753.60	0.082
753.79	0.083
753.98	0.083
754.17	0.082
754.36	0.082
754.55	0.082
754.74	0.083
754.93	0.082
755.12	0.082
755.31	0.083
755.50	0.082
755.70	0.082
755.89	0.082
756.08	0.082
756.27	0.081
756.46	0.082
756.65	0.081
756.84	0.081
757.03	0.081
757.22	0.081
757.41	0.081
757.60	0.081
757.79	0.081
757.98	0.082
758.17	0.082
758.36	0.082
758.56	0.081
758.75	0.081
758.94	0.081
759.13	0.081
759.32	0.081
759.51	0.081
759.70	0.081
759.89	0.081
760.08	0.081
760.27	0.081
760.46	0.081
760.65	0.081
760.84	0.081
761.03	0.081
761.22	0.081
761.41	0.081
761.60	0.081
761.79	0.081
761.98	0.080
762.17	0.080
762.36	0.080
762.55	0.079
762.74	0.079
762.93	0.079
763.12	0.079
763.31	0.079
763.50	0.079
763.69	0.079
763.88	0.079
764.07	0.079
764.26	0.079
764.45	0.079
764.64	0.079
764.83	0.079
765.02	0.080
765.21	0.079
765.40	0.079
765.59	0.079
765.78	0.079
765.97	0.080
766.16	0.080
766.35	0.079
766.54	0.079
766.73	0.079
766.92	0.079
767.11	0.079
767.30	0.079
767.49	0.079
767.68	0.079
767.87	0.078
768.06	0.078
768.25	0.078
768.44	0.079
768.63	0.078
768.82	0.078
769.01	0.078
769.20	0.078
769.39	0.078
769.58	0.079
769.77	0.078
769.96	0.078
770.15	0.078
770.34	0.078
770.53	0.078
770.72	0.077
770.91	0.077
771.10	0.077
771.29	0.077
771.47	0.077
771.66	0.077
771.85	0.077
772.04	0.077
772.23	0.077
772.42	0.077
772.61	0.078
772.80	0.078
772.99	0.078
773.18	0.077
773.37	0.078
773.56	0.078
773.75	0.078
773.94	0.078
774.13	0.078
774.31	0.078
774.50	0.078
774.69	0.078
774.88	0.077
775.07	0.078
775.26	0.077
775.45	0.076
775.64	0.077
775.83	0.076
776.02	0.076
776.21	0.076
776.40	0.076
776.58	0.076
776.77	0.076
776.96	0.077
777.15	0.077
777.34	0.077
777.53	0.077
777.72	0.076
777.91	0.076
778.10	0.076
778.28	0.076
778.47	0.076
778.66	0.076
778.85	0.075
779.04	0.075
779.23	0.075
779.42	0.075
779.61	0.075
779.79	0.075
779.98	0.075
780.17	0.075
780.36	0.074
780.55	0.074
780.74	0.074
780.93	0.074
781.12	0.074
781.30	0.074
781.49	0.075
781.68	0.075
781.87	0.075
782.06	0.075
782.25	0.075
782.44	0.076
782.62	0.076
782.81	0.076
783.00	0.076
783.19	0.076
783.38	0.076
783.57	0.076
783.75	0.075
783.94	0.075
784.13	0.075
784.32	0.075
784.51	0.074
784.70	0.075
784.88	0.074
785.07	0.074
785.26	0.074
785.45	0.074
785.64	0.074
785.83	0.074
786.01	0.074
786.20	0.075
786.39	0.075
786.58	0.075
786.77	0.074
786.95	0.075
787.14	0.075
787.33	0.075
787.52	0.074
787.71	0.074
787.90	0.073
788.08	0.073
788.27	0.073
788.46	0.073
788.65	0.073
788.84	0.073
789.02	0.073
789.21	0.073
789.40	0.073
789.59	0.073
789.77	0.073
789.96	0.073
790.15	0.073
790.34	0.073
790.53	0.073
790.71	0.073
790.90	0.073
791.09	0.073
791.28	0.073
791.46	0.073
791.65	0.073
791.84	0.073
792.03	0.073
792.22	0.072
792.40	0.072
792.59	0.072
792.78	0.073
792.97	0.073
793.15	0.073
793.34	0.073
793.53	0.073
793.72	0.073
793.90	0.072
794.09	0.073
794.28	0.073
794.47	0.073
794.65	0.072
794.84	0.072
795.03	0.072
795.22	0.072
795.40	0.072
795.59	0.072
795.78	0.072
795.97	0.072
796.15	0.073
796.34	0.073
796.53	0.073
796.71	0.073
796.90	0.073
797.09	0.073
797.28	0.073
797.46	0.073
797.65	0.073
797.84	0.073
798.02	0.072
798.21	0.072
798.40	0.072
798.59	0.071
798.77	0.071
798.96	0.071
799.15	0.071
799.33	0.071
799.52	0.071
799.71	0.071
799.90	0.071
800.08	0.071
800.27	0.071
800.46	0.071
800.64	0.071
800.83	0.071
801.02	0.071
801.20	0.071
801.39	0.071
801.58	0.071
801.76	0.071
801.95	0.071
802.14	0.071
802.32	0.071
802.51	0.071
802.70	0.071
802.88	0.071
803.07	0.071
803.26	0.070
803.44	0.070
803.63	0.071
803.82	0.070
804.00	0.071
804.19	0.071
804.38	0.071
804.56	0.071
804.75	0.071
804.94	0.071
805.12	0.071
805.31	0.071
805.50	0.071
805.68	0.071
805.87	0.071
806.06	0.071
806.24	0.070
806.43	0.070
806.62	0.071
806.80	0.071
806.99	0.070
807.17	0.070
807.36	0.070
807.55	0.070
807.73	0.070
807.92	0.070
808.11	0.070
808.29	0.070
808.48	0.070
808.66	0.070
808.85	0.069
809.04	0.070
809.22	0.070
809.41	0.070
809.59	0.070
809.78	0.070
809.97	0.070
810.15	0.070
810.34	0.070
810.53	0.070
810.71	0.069
810.90	0.070
811.08	0.070
811.27	0.070
811.45	0.070
811.64	0.070
811.83	0.069
812.01	0.069
812.20	0.069
812.38	0.069
812.57	0.069
812.76	0.069
812.94	0.069
813.13	0.069
813.31	0.069
813.50	0.069
813.68	0.069
813.87	0.069
814.06	0.069
814.24	0.069
814.43	0.069
814.61	0.069
814.80	0.069
814.98	0.070
815.17	0.069
815.36	0.069
815.54	0.070
815.73	0.070
815.91	0.070
816.10	0.070
816.28	0.070
816.47	0.070
816.65	0.070
816.84	0.070
817.03	0.070
817.21	0.070
817.40	0.070
817.58	0.070
817.77	0.070
817.95	0.070
818.14	0.070
818.32	0.070
818.51	0.070
818.69	0.070
818.88	0.070
819.06	0.070
819.25	0.070
819.43	0.069
819.62	0.069
819.80	0.069
819.99	0.069
820.18	0.069
820.36	0.069
820.55	0.069
820.73	0.069
820.92	0.070
821.10	0.070
821.29	0.070
821.47	0.070
821.66	0.070
821.84	0.070
822.03	0.070
822.21	0.070
822.40	0.070
822.58	0.070
822.77	0.070
822.95	0.070
823.14	0.070
823.32	0.070
823.50	0.070
823.69	0.070
823.87	0.070
824.06	0.071
824.24	0.071
824.43	0.071
824.61	0.071
824.80	0.071
824.98	0.071
825.17	0.071
825.35	0.072
825.54	0.072
825.72	0.071
825.91	0.072
826.09	0.072
826.28	0.072
826.46	0.072
826.64	0.072
826.83	0.073
827.01	0.073
827.20	0.073
827.38	0.072
827.57	0.073
827.75	0.073
827.94	0.073
828.12	0.073
828.31	0.072
828.49	0.072
828.67	0.073
828.86	0.073
829.04	0.072
829.23	0.072
829.41	0.073
829.60	0.073
829.78	0.073
829.96	0.074
830.15	0.074
830.33	0.074
830.52	0.074
830.70	0.074
830.88	0.074
831.07	0.075
831.25	0.075
831.44	0.074
831.62	0.074
831.81	0.074
831.99	0.074
832.17	0.074
832.36	0.074
832.54	0.074
832.73	0.074
832.91	0.074
833.09	0.074
833.28	0.074
833.46	0.074
833.65	0.075
833.83	0.075
834.01	0.075
834.20	0.075
834.38	0.075
834.56	0.075
834.75	0.075
834.93	0.075
835.12	0.075
835.30	0.075
835.48	0.076
835.67	0.075
835.85	0.075
836.03	0.075
836.22	0.075
836.40	0.075
836.59	0.076
836.77	0.075
836.95	0.076
837.14	0.075
837.32	0.075
837.50	0.075
837.69	0.075
837.87	0.075
838.05	0.076
838.24	0.076
838.42	0.075
838.60	0.075
838.79	0.076
838.97	0.076
839.15	0.076
839.34	0.076
839.52	0.076
839.70	0.076
839.89	0.076
840.07	0.077
840.25	0.077
840.44	0.077
840.62	0.077
840.80	0.077
840.99	0.077
841.17	0.076
841.35	0.077
841.54	0.076
841.72	0.077
841.90	0.077
842.09	0.076
842.27	0.076
842.45	0.076
842.64	0.076
842.82	0.076
843.00	0.077
843.19	0.077
843.37	0.076
843.55	0.076
843.73	0.076
843.92	0.076
844.10	0.076
844.28	0.077
844.47	0.077
844.65	0.077
844.83	0.077
845.01	0.077
845.20	0.077
845.38	0.078
845.56	0.078
845.75	0.078
845.93	0.078
846.11	0.078
846.29	0.078
846.48	0.078
846.66	0.077
846.84	0.077
847.02	0.077
847.21	0.077
847.39	0.077
847.57	0.077
847.76	0.078
847.94	0.077
848.12	0.078
848.30	0.078
848.49	0.078
848.67	0.078
848.85	0.078
849.03	0.078
849.22	0.078
849.40	0.079
849.58	0.079
849.76	0.079
849.95	0.078
850.13	0.079
850.31	0.078
850.49	0.078
850.67	0.079
850.86	0.079
851.04	0.078
851.22	0.078
851.40	0.078
851.59	0.078
851.77	0.077
851.95	0.078
852.13	0.078
852.31	0.077
852.50	0.078
852.68	0.078
852.86	0.078
853.04	0.078
853.23	0.078
853.41	0.078
853.59	0.078
853.77	0.078
853.95	0.078
854.14	0.078
854.32	0.078
854.50	0.078
854.68	0.078
854.86	0.078
855.04	0.078
855.23	0.078
855.41	0.078
855.59	0.078
855.77	0.078
855.95	0.079
856.14	0.079
856.32	0.079
856.50	0.079
856.68	0.079
856.86	0.079
857.04	0.078
857.23	0.078
857.41	0.078
857.59	0.078
857.77	0.078
857.95	0.078
858.13	0.078
858.32	0.078
858.50	0.078
858.68	0.078
858.86	0.078
859.04	0.079
859.22	0.079
859.41	0.079
859.59	0.079
859.77	0.079
859.95	0.078
860.13	0.079
860.31	0.079
860.49	0.079
860.68	0.079
860.86	0.079
861.04	0.079
861.22	0.079
861.40	0.079
861.58	0.079
861.76	0.078
861.94	0.078
862.13	0.078
862.31	0.078
862.49	0.078
862.67	0.078
862.85	0.078
863.03	0.079
863.21	0.079
863.39	0.079
863.57	0.079
863.76	0.079
863.94	0.079
864.12	0.079
864.30	0.079
864.48	0.079
864.66	0.079
864.84	0.079
865.02	0.079
865.20	0.079
865.38	0.079
865.57	0.079
865.75	0.080
865.93	0.080
866.11	0.080
866.29	0.080
866.47	0.080
866.65	0.080
866.83	0.080
867.01	0.080
867.19	0.080
867.37	0.080
867.55	0.080
867.73	0.080
867.92	0.080
868.10	0.080
868.28	0.080
868.46	0.080
868.64	0.080
868.82	0.080
869.00	0.081
869.18	0.081
869.36	0.081
869.54	0.081
869.72	0.081
869.90	0.081
870.08	0.081
870.26	0.081
870.44	0.081
870.62	0.081
870.80	0.081
870.98	0.081
871.16	0.080
871.34	0.080
871.53	0.080
871.71	0.080
871.89	0.080
872.07	0.081
872.25	0.080
872.43	0.080
872.61	0.081
872.79	0.081
872.97	0.081
873.15	0.081
873.33	0.082
873.51	0.081
873.69	0.081
873.87	0.081
874.05	0.081
874.23	0.081
874.41	0.081
874.59	0.082
874.77	0.081
874.95	0.081
875.13	0.081
875.31	0.081
875.49	0.081
875.67	0.081
875.85	0.081
876.03	0.081
876.21	0.082
876.39	0.081
876.57	0.081
876.75	0.082
876.93	0.082
877.11	0.082
877.29	0.082
877.47	0.082
877.65	0.082
877.82	0.082
878.00	0.083
878.18	0.083
878.36	0.083
878.54	0.083
878.72	0.082
878.90	0.082
879.08	0.082
879.26	0.082
879.44	0.083
879.62	0.082
879.80	0.082
879.98	0.082
880.16	0.082
880.34	0.082
880.52	0.082
880.70	0.082
880.88	0.082
881.06	0.082
881.24	0.082
881.42	0.082
881.59	0.082
881.77	0.082
881.95	0.082
882.13	0.082
882.31	0.083
882.49	0.083
882.67	0.083
882.85	0.083
883.03	0.083
883.21	0.083
883.39	0.083
883.57	0.084
883.75	0.084
883.92	0.084
884.10	0.084
884.28	0.083
884.46	0.083
884.64	0.083
884.82	0.083
885.00	0.083
885.18	0.083
885.36	0.083
885.54	0.083
885.71	0.084
885.89	0.084
886.07	0.084
886.25	0.084
886.43	0.084
886.61	0.084
886.79	0.084
886.97	0.084
887.15	0.084
887.32	0.084
887.50	0.085
887.68	0.084
887.86	0.084
888.04	0.084
888.22	0.084
888.40	0.084
888.57	0.084
888.75	0.084
888.93	0.085
889.11	0.085
889.29	0.085
889.47	0.085
889.65	0.085
889.82	0.086
890.00	0.086
890.18	0.086
890.36	0.086
890.54	0.086
890.72	0.086
890.90	0.086
891.07	0.086
891.25	0.086
891.43	0.085
891.61	0.085
891.79	0.086
891.97	0.086
892.14	0.086
892.32	0.086
892.50	0.086
892.68	0.086
892.86	0.086
893.03	0.086
893.21	0.086
893.39	0.086
893.57	0.086
893.75	0.086
893.93	0.086
894.10	0.086
894.28	0.085
894.46	0.085
894.64	0.086
894.82	0.086
894.99	0.086
895.17	0.086
895.35	0.086
895.53	0.086
895.71	0.086
895.88	0.086
896.06	0.086
896.24	0.087
896.42	0.087
896.59	0.087
896.77	0.087
896.95	0.087
897.13	0.087
897.31	0.087
897.48	0.087
897.66	0.087
897.84	0.087
898.02	0.087
898.19	0.087
898.37	0.087
898.55	0.087
898.73	0.087
898.91	0.087
899.08	0.087
899.26	0.087
899.44	0.087
899.62	0.087
899.79	0.088
899.97	0.088
900.15	0.087
900.33	0.087
900.50	0.087
900.68	0.087
900.86	0.087
901.04	0.088
901.21	0.088
901.39	0.088
901.57	0.088
901.74	0.088
901.92	0.088
902.10	0.088
902.28	0.088
902.45	0.089
902.63	0.089
902.81	0.089
902.99	0.089
903.16	0.089
903.34	0.089
903.52	0.089
903.69	0.089
903.87	0.089
904.05	0.089
904.22	0.089
904.40	0.089
904.58	0.089
904.76	0.089
904.93	0.089
905.11	0.089
905.29	0.089
905.46	0.089
905.64	0.089
905.82	0.089
905.99	0.089
906.17	0.089
906.35	0.089
906.53	0.089
906.70	0.089
906.88	0.089
907.06	0.089
907.23	0.089
907.41	0.090
907.59	0.089
907.76	0.090
907.94	0.090
908.12	0.090
908.29	0.090
908.47	0.090
908.65	0.090
908.82	0.090
909.00	0.090
909.18	0.091
909.35	0.090
909.53	0.090
909.71	0.090
909.88	0.090
910.06	0.090
910.23	0.090
910.41	0.091
910.59	0.090
910.76	0.090
910.94	0.091
911.12	0.090
911.29	0.091
911.47	0.091
911.65	0.091
911.82	0.091
912.00	0.092
912.17	0.091
912.35	0.092
912.53	0.092
912.70	0.092
912.88	0.092
913.06	0.093
913.23	0.093
913.41	0.093
913.58	0.094
913.76	0.094
913.94	0.094
914.11	0.094
914.29	0.094
914.46	0.094
914.64	0.094
914.82	0.094
914.99	0.094
915.17	0.094
915.34	0.094
915.52	0.094
915.70	0.094
915.87	0.094
916.05	0.094
916.22	0.094
916.40	0.094
916.57	0.095
916.75	0.095
916.93	0.095
917.10	0.094
917.28	0.095
917.45	0.095
917.63	0.095
917.80	0.095
917.98	0.095
918.16	0.095
918.33	0.096
918.51	0.096
918.68	0.096
918.86	0.096
919.03	0.096
919.21	0.097
919.39	0.097
919.56	0.097
919.74	0.097
919.91	0.097
920.09	0.098
920.26	0.098
920.44	0.098
920.61	0.098
920.79	0.098
920.96	0.099
921.14	0.099
921.31	0.099
921.49	0.100
921.67	0.100
921.84	0.100
922.02	0.100
922.19	0.100
922.37	0.101
922.54	0.101
922.72	0.101
922.89	0.101
923.07	0.101
923.24	0.102
923.42	0.102
923.59	0.102
923.77	0.102
923.94	0.102
924.12	0.103
924.29	0.103
924.47	0.103
924.64	0.104
924.82	0.104
924.99	0.104
925.17	0.104
925.34	0.104
925.52	0.105
925.69	0.105
925.87	0.105
926.04	0.106
926.22	0.106
926.39	0.106
926.57	0.106
926.74	0.106
926.91	0.107
927.09	0.107
927.26	0.107
927.44	0.108
927.61	0.109
927.79	0.109
927.96	0.109
928.14	0.110
928.31	0.110
928.49	0.110
928.66	0.111
928.84	0.112
929.01	0.112
929.18	0.112
929.36	0.113
929.53	0.113
929.71	0.113
929.88	0.114
930.06	0.114
930.23	0.115
930.41	0.115
930.58	0.116
930.75	0.116
930.93	0.117
931.10	0.117
931.28	0.118
931.45	0.118
931.63	0.118
931.80	0.118
931.97	0.119
932.15	0.119
932.32	0.119
932.50	0.120
932.67	0.120
932.84	0.120
933.02	0.121
933.19	0.121
933.37	0.122
933.54	0.123
933.71	0.123
933.89	0.124
934.06	0.124
934.24	0.125
934.41	0.125
934.58	0.126
934.76	0.126
934.93	0.127
935.11	0.127
935.28	0.127
935.45	0.128
935.63	0.128
935.80	0.129
935.98	0.129
936.15	0.129
936.32	0.130
936.50	0.130
936.67	0.131
936.84	0.131
937.02	0.132
937.19	0.133
937.36	0.133
937.54	0.134
937.71	0.135
937.89	0.135
938.06	0.136
938.23	0.136
938.41	0.137
938.58	0.137
938.75	0.137
938.93	0.138
939.10	0.138
939.27	0.138
939.45	0.139
939.62	0.139
939.79	0.140
939.97	0.141
940.14	0.141
940.31	0.142
940.49	0.143
940.66	0.143
940.83	0.143
941.01	0.144
941.18	0.145
941.35	0.146
941.53	0.146
941.70	0.147
941.87	0.147
942.05	0.148
942.22	0.149
942.39	0.150
942.57	0.151
942.74	0.152
942.91	0.152
943.08	0.152
943.26	0.152
943.43	0.153
943.60	0.154
943.78	0.155
943.95	0.155
944.12	0.156
944.29	0.157
944.47	0.157
944.64	0.158
944.81	0.159
944.99	0.160
945.16	0.160
945.33	0.161
945.50	0.162
945.68	0.163
945.85	0.163
946.02	0.165
946.20	0.165
946.37	0.167
946.54	0.167
946.71	0.168
946.89	0.169
947.06	0.169
947.23	0.170
947.40	0.171
947.58	0.171
947.75	0.172
947.92	0.173
948.09	0.173
948.27	0.174
948.44	0.176
948.61	0.177
948.78	0.178
948.96	0.179
949.13	0.180
949.30	0.181
949.47	0.182
949.65	0.183
949.82	0.186
949.99	0.186
950.16	0.188
950.33	0.188
950.51	0.189
950.68	0.191
950.85	0.192
951.02	0.193
951.20	0.193
951.37	0.195
951.54	0.195
951.71	0.196
951.88	0.198
952.06	0.199
952.23	0.199
952.40	0.201
952.57	0.202
952.74	0.204
952.92	0.205
953.09	0.206
953.26	0.208
953.43	0.209
953.60	0.210
953.77	0.211
953.95	0.212
954.12	0.214
954.29	0.215
954.46	0.217
954.63	0.218
954.81	0.219
954.98	0.219
955.15	0.222
955.32	0.223
955.49	0.223
955.66	0.225
955.84	0.226
956.01	0.226
956.18	0.228
956.35	0.230
956.52	0.230
956.69	0.232
956.87	0.232
957.04	0.232
957.21	0.235
957.38	0.235
957.55	0.236
957.72	0.237
957.89	0.238
958.07	0.238
958.24	0.240
958.41	0.242
958.58	0.241
958.75	0.242
958.92	0.243
959.09	0.243
959.26	0.244
959.44	0.244
959.61	0.246
959.78	0.246
959.95	0.247
960.12	0.248
960.29	0.250
960.46	0.250
960.63	0.250
960.81	0.250
960.98	0.252
961.15	0.252
961.32	0.253
961.49	0.252
961.66	0.253
961.83	0.254
962.00	0.253
962.17	0.254
962.34	0.254
962.52	0.254
962.69	0.256
962.86	0.255
963.03	0.256
963.20	0.256
963.37	0.256
963.54	0.257
963.71	0.257
963.88	0.258
964.05	0.259
964.22	0.260
964.39	0.259
964.56	0.259
964.74	0.260
964.91	0.259
965.08	0.259
965.25	0.260
965.42	0.260
965.59	0.261
965.76	0.260
965.93	0.261
966.10	0.259
966.27	0.260
966.44	0.260
966.61	0.261
966.78	0.261
966.95	0.261
967.12	0.262
967.29	0.264
967.46	0.263
967.63	0.263
967.80	0.264
967.97	0.263
968.14	0.263
968.32	0.264
968.49	0.264
968.66	0.263
968.83	0.264
969.00	0.264
969.17	0.264
969.34	0.265
969.51	0.265
969.68	0.263
969.85	0.264
970.02	0.264
970.19	0.264
970.36	0.265
970.53	0.265
970.70	0.264
970.87	0.265
971.04	0.264
971.21	0.265
971.38	0.265
971.55	0.265
971.72	0.265
971.89	0.266
972.06	0.265
972.23	0.265
972.40	0.265
972.57	0.264
972.74	0.264
972.91	0.266
973.07	0.266
973.24	0.266
973.41	0.266
973.58	0.265
973.75	0.277
973.92	0.265
974.09	0.265
974.26	0.265
974.43	0.264
974.60	0.264
974.77	0.265
974.94	0.264
975.11	0.265
975.28	0.265
975.45	0.263
975.62	0.265
975.79	0.266
975.96	0.264
976.13	0.263
976.30	0.265
976.47	0.264
976.64	0.264
976.80	0.265
976.97	0.265
977.14	0.264
977.31	0.264
977.48	0.264
977.65	0.263
977.82	0.262
977.99	0.264
978.16	0.263
978.33	0.263
978.50	0.262
978.67	0.262
978.83	0.261
979.00	0.262
979.17	0.261
979.34	0.261
979.51	0.260
979.68	0.261
979.85	0.260
980.02	0.262
980.19	0.260
980.36	0.261
980.52	0.263
980.69	0.261
980.86	0.261
981.03	0.261
981.20	0.259
981.37	0.260
981.54	0.260
981.71	0.259
981.88	0.260
982.04	0.259
982.21	0.258
982.38	0.260
982.55	0.259
982.72	0.258
982.89	0.259
983.06	0.257
983.22	0.257
983.39	0.258
983.56	0.258
983.73	0.257
983.90	0.256
984.07	0.258
984.24	0.257
984.40	0.257
984.57	0.255
984.74	0.258
984.91	0.259
985.08	0.257
985.25	0.254
985.41	0.255
985.58	0.255
985.75	0.256
985.92	0.255
986.09	0.253
986.26	0.253
986.42	0.252
986.59	0.251
986.76	0.252
986.93	0.253
987.10	0.253
987.27	0.251
987.43	0.249
987.60	0.250
987.77	0.250
987.94	0.249
988.11	0.250
988.27	0.250
988.44	0.249
988.61	0.247
988.78	0.246
988.95	0.247
989.11	0.249
989.28	0.247
989.45	0.246
989.62	0.246
989.79	0.247
989.95	0.246
990.12	0.247
990.29	0.247
990.46	0.246
990.62	0.244
990.79	0.244
990.96	0.244
991.13	0.244
991.30	0.243
991.46	0.242
991.63	0.240
991.80	0.240
991.97	0.239
992.13	0.240
992.30	0.240
992.47	0.239
992.64	0.238
992.80	0.238
992.97	0.238
993.14	0.236
993.31	0.234
993.47	0.237
993.64	0.234
993.81	0.234
993.98	0.234
994.14	0.233
994.31	0.232
994.48	0.234
994.64	0.234
994.81	0.232
994.98	0.232
995.15	0.230
995.31	0.230
995.48	0.230
995.65	0.233
995.82	0.230
995.98	0.230
996.15	0.231
996.32	0.233
996.48	0.231
996.65	0.231
996.82	0.228
996.99	0.229
997.15	0.229
997.32	0.230
997.49	0.228
997.65	0.229
997.82	0.228
997.99	0.226
998.15	0.226
998.32	0.228
998.49	0.227
998.65	0.227
998.82	0.226
998.99	0.224
999.15	0.224
999.32	0.224
999.49	0.223
999.65	0.223
999.82	0.221
999.99	0.220
1000.15	0.221
1000.32	0.221
1000.49	0.222
1000.65	0.219
1000.82	0.219
1000.99	0.220
1001.15	0.220
1001.32	0.219
1001.49	0.219
1001.65	0.218
1001.82	0.221
1001.99	0.218
1002.15	0.216
1002.32	0.215
1002.49	0.217
1002.65	0.215
1002.82	0.213
1002.99	0.213
1003.15	0.215
1003.32	0.213
1003.48	0.214
1003.65	0.214
1003.82	0.212
1003.98	0.209
1004.15	0.209
1004.32	0.209
1004.48	0.209
1004.65	0.210
1004.81	0.208
1004.98	0.207
1005.15	0.208
1005.31	0.207
1005.48	0.205
1005.64	0.205
1005.81	0.208
1005.98	0.205
1006.14	0.204
1006.31	0.205
1006.47	0.204
1006.64	0.203
1006.81	0.202
1006.97	0.202
1007.14	0.202
1007.30	0.203
1007.47	0.203
1007.63	0.201
1007.80	0.200
1007.97	0.199
1008.13	0.200
1008.30	0.199
1008.46	0.200
1008.63	0.199
1008.79	0.199
1008.96	0.199
1009.13	0.200
1009.29	0.197
1009.46	0.197
1009.62	0.197
1009.79	0.195
1009.95	0.195
1010.12	0.195
1010.28	0.194
1010.45	0.193
1010.62	0.193
1010.78	0.192
1010.95	0.191
1011.11	0.191
1011.28	0.191
1011.44	0.193
1011.61	0.190
1011.77	0.190
1011.94	0.190
1012.10	0.190
1012.27	0.190
1012.43	0.190
1012.60	0.188
1012.76	0.188
1012.93	0.187
1013.10	0.186
1013.26	0.184
1013.43	0.186
1013.59	0.194
1013.76	0.186
1013.92	0.184
1014.09	0.184
1014.25	0.185
1014.42	0.186
1014.58	0.187
1014.75	0.189
1014.91	0.187
1015.08	0.189
1015.24	0.186
1015.41	0.187
1015.57	0.187
1015.73	0.186
1015.90	0.184
1016.06	0.185
1016.23	0.183
1016.39	0.183
1016.56	0.183
1016.72	0.183
1016.89	0.182
1017.05	0.183
1017.22	0.179
1017.38	0.179
1017.55	0.178
1017.71	0.179
1017.88	0.178
1018.04	0.178
1018.21	0.176
1018.37	0.175
1018.53	0.175
1018.70	0.174
1018.86	0.174
1019.03	0.176
1019.19	0.175
1019.36	0.175
1019.52	0.176
1019.69	0.176
1019.85	0.175
1020.01	0.176
1020.18	0.174
1020.34	0.174
1020.51	0.174
1020.67	0.175
1020.84	0.173
1021.00	0.173
1021.16	0.172
1021.33	0.173
1021.49	0.172
1021.66	0.173
1021.82	0.171
1021.98	0.171
1022.15	0.171
1022.31	0.169
1022.48	0.168
1022.64	0.169
1022.80	0.168
1022.97	0.165
1023.13	0.164
1023.30	0.165
1023.46	0.166
1023.62	0.164
1023.79	0.165
1023.95	0.166
1024.12	0.166
1024.28	0.164
1024.44	0.165
1024.61	0.163
1024.77	0.164
1024.93	0.162
1025.10	0.162
1025.26	0.160
1025.43	0.161
1025.59	0.156
1025.75	0.160
1025.92	0.158
1026.08	0.158
1026.24	0.157
1026.41	0.159
1026.57	0.157
1026.73	0.156
1026.90	0.158
1027.06	0.156
1027.23	0.157
1027.39	0.157
1027.55	0.157
1027.72	0.156
1027.88	0.155
1028.04	0.156
1028.21	0.156
1028.37	0.150
1028.53	0.154
1028.70	0.152
1028.86	0.150
1029.02	0.150
1029.19	0.151
1029.35	0.149
1029.51	0.149
1029.67	0.148
1029.84	0.150
1030.00	0.145
1030.16	0.146
1030.33	0.149
1030.49	0.146
1030.65	0.143
1030.82	0.158
1030.98	0.146
1031.14	0.146
1031.31	0.146
1031.47	0.143
1031.63	0.146
1031.79	0.145
1031.96	0.146
1032.12	0.147
1032.28	0.145
1032.45	0.149
1032.61	0.148
1032.77	0.147
1032.93	0.145
1033.10	0.146
1033.26	0.148
1033.42	0.145
1033.58	0.145
1033.75	0.146
1033.91	0.144
1034.07	0.148
1034.24	0.146
1034.40	0.144
1034.56	0.143
1034.72	0.143
1034.89	0.143
1035.05	0.141
1035.21	0.142
1035.37	0.141
1035.54	0.144
1035.70	0.141
1035.86	0.138
1036.02	0.140
1036.19	0.139
1036.35	0.137
1036.51	0.142
1036.67	0.141
1036.83	0.140
1037.00	0.138
1037.16	0.138
1037.32	0.138
1037.48	0.138
1037.65	0.143
1037.81	0.139
1037.97	0.138
1038.13	0.138
1038.29	0.136
1038.46	0.132
1038.62	0.135
1038.78	0.132
1038.94	0.130
1039.10	0.134
1039.27	0.130
1039.43	0.131
1039.59	0.130
1039.75	0.130
1039.91	0.128
1040.08	0.128
1040.24	0.131
1040.40	0.134
1040.56	0.134
1040.72	0.129
1040.89	0.132
1041.05	0.135
1041.21	0.134
1041.37	0.132
1041.53	0.138
1041.69	0.135
1041.86	0.135
1042.02	0.131
1042.18	0.130
1042.34	0.132
1042.50	0.137
1042.66	0.132
1042.83	0.131
1042.99	0.133
1043.15	0.129
1043.31	0.130
1043.47	0.132
1043.63	0.128
1043.79	0.130
1043.96	0.130
1044.12	0.133
1044.28	0.128
1044.44	0.131
1044.60	0.125
1044.76	0.125
1044.92	0.128
1045.09	0.130
1045.25	0.128
1045.41	0.131
1045.57	0.125
1045.73	0.124
1045.89	0.126
1046.05	0.127
1046.21	0.138
1046.38	0.117
1046.54	0.125
1046.70	0.135
1046.86	0.122
>>>>>End Processed Spectral Data<<<<<
