SpectraSuite Data File
++++++++++++++++++++++++++++++++++++
Date: Mon May 20 12:13:23 CDT 2013
User: Students
Dark Spectrum Present: Yes
Reference Spectrum Present: Yes
Number of Sampled Component Spectra: 1
Spectrometers: USB4H00887
Integration Time (usec): 60000 (USB4H00887)
Spectra Averaged: 5 (USB4H00887)
Boxcar Smoothing: 5 (USB4H00887)
Correct for Electrical Dark: No (USB4H00887)
Strobe/Lamp Enabled: No (USB4H00887)
Correct for Detector Non-linearity: No (USB4H00887)
Correct for Stray Light: No (USB4H00887)
Number of Pixels in Processed Spectrum: 3648
>>>>>Begin Processed Spectral Data<<<<<
345.83	-0.170
346.05	-0.170
346.26	-0.170
346.48	-0.000
346.70	-0.067
346.92	0.031
347.14	0.053
347.35	0.057
347.57	0.238
347.79	-0.162
348.01	-0.120
348.23	-0.208
348.44	-0.000
348.66	0.168
348.88	-0.323
349.10	-0.169
349.32	0.113
349.53	-0.009
349.75	-0.006
349.97	-0.019
350.19	-0.017
350.41	-0.041
350.62	0.213
350.84	-0.025
351.06	-0.023
351.28	-0.038
351.50	-0.217
351.71	-0.096
351.93	-0.117
352.15	-0.034
352.37	-0.106
352.58	-0.007
352.80	0.025
353.02	0.040
353.24	0.055
353.46	0.215
353.67	-0.088
353.89	0.025
354.11	0.012
354.33	0.051
354.54	0.098
354.76	0.169
354.98	0.216
355.20	0.172
355.41	0.085
355.63	0.189
355.85	0.079
356.07	1.466
356.28	0.105
356.50	0.227
356.72	0.076
356.94	0.198
357.15	0.307
357.37	-0.000
357.59	0.149
357.81	0.072
358.02	0.109
358.24	0.081
358.46	0.200
358.68	0.153
358.89	0.072
359.11	-0.000
359.33	0.074
359.55	-0.407
359.76	0.077
359.98	0.068
360.20	0.096
360.42	0.090
360.63	0.096
360.85	0.018
361.07	0.087
361.29	0.021
361.50	0.084
361.72	0.047
361.94	0.240
362.15	0.111
362.37	0.077
362.59	0.087
362.81	0.114
363.02	0.173
363.24	0.379
363.46	0.235
363.68	0.346
363.89	0.199
364.11	0.251
364.33	0.308
364.54	0.186
364.76	0.224
364.98	0.204
365.20	0.265
365.41	0.163
365.63	0.180
365.85	0.113
366.06	0.294
366.28	0.272
366.50	0.202
366.71	0.085
366.93	0.100
367.15	0.085
367.37	0.088
367.58	0.122
367.80	0.148
368.02	0.404
368.23	0.132
368.45	0.134
368.67	0.133
368.88	0.109
369.10	-0.000
369.32	0.110
369.53	0.079
369.75	0.135
369.97	0.344
370.19	0.202
370.40	0.094
370.62	0.329
370.84	0.112
371.05	0.657
371.27	0.179
371.49	0.216
371.70	0.252
371.92	0.335
372.14	0.138
372.35	0.122
372.57	0.127
372.79	0.317
373.00	0.078
373.22	0.135
373.44	0.122
373.65	0.084
373.87	0.112
374.09	0.428
374.30	0.121
374.52	0.133
374.74	0.100
374.95	0.580
375.17	0.128
375.39	-0.000
375.60	0.146
375.82	0.277
376.04	0.131
376.25	0.162
376.47	0.089
376.68	0.209
376.90	0.118
377.12	0.267
377.33	0.137
377.55	0.340
377.77	0.170
377.98	0.261
378.20	0.153
378.42	0.184
378.63	0.210
378.85	-0.000
379.07	0.155
379.28	0.683
379.50	0.361
379.71	0.188
379.93	0.124
380.15	0.155
380.36	0.219
380.58	0.150
380.80	0.354
381.01	0.121
381.23	0.110
381.44	0.107
381.66	0.120
381.88	0.158
382.09	-0.070
382.31	0.112
382.53	0.121
382.74	0.664
382.96	0.172
383.17	0.154
383.39	0.185
383.61	0.222
383.82	0.173
384.04	0.197
384.25	0.223
384.47	0.213
384.69	0.198
384.90	0.195
385.12	0.409
385.33	0.261
385.55	0.202
385.77	0.337
385.98	0.171
386.20	0.234
386.41	0.213
386.63	0.249
386.85	0.206
387.06	0.269
387.28	0.397
387.49	0.239
387.71	0.189
387.93	0.164
388.14	0.537
388.36	0.220
388.57	0.195
388.79	0.211
389.01	2.463
389.22	0.291
389.44	0.230
389.65	0.189
389.87	0.182
390.08	0.199
390.30	0.162
390.52	0.298
390.73	0.298
390.95	0.200
391.16	0.187
391.38	-0.000
391.59	0.195
391.81	0.172
392.03	0.163
392.24	0.214
392.46	0.182
392.67	0.161
392.89	0.210
393.10	0.306
393.32	0.225
393.53	0.263
393.75	0.155
393.97	0.192
394.18	0.267
394.40	0.235
394.61	0.234
394.83	0.205
395.04	0.233
395.26	0.167
395.47	0.254
395.69	0.209
395.91	0.221
396.12	0.271
396.34	0.256
396.55	0.171
396.77	0.245
396.98	0.714
397.20	0.293
397.41	0.324
397.63	0.240
397.84	0.217
398.06	0.206
398.27	0.205
398.49	0.234
398.71	0.178
398.92	0.201
399.14	0.252
399.35	0.312
399.57	0.295
399.78	0.210
400.00	0.198
400.21	0.246
400.43	0.206
400.64	0.229
400.86	0.459
401.07	0.277
401.29	0.257
401.50	0.273
401.72	0.364
401.93	0.248
402.15	0.303
402.36	0.275
402.58	0.227
402.79	0.247
403.01	0.400
403.22	0.320
403.44	0.221
403.65	0.329
403.87	0.384
404.08	0.314
404.30	0.496
404.51	0.281
404.73	0.336
404.94	0.292
405.16	0.303
405.37	0.236
405.59	0.390
405.80	0.259
406.02	0.316
406.23	0.304
406.45	0.331
406.66	0.330
406.88	0.218
407.09	0.329
407.31	0.273
407.52	0.327
407.74	0.275
407.95	0.330
408.17	0.304
408.38	0.323
408.60	0.218
408.81	0.349
409.03	0.270
409.24	0.284
409.45	0.319
409.67	0.304
409.88	0.280
410.10	0.334
410.31	0.288
410.53	0.283
410.74	0.372
410.96	0.363
411.17	0.367
411.39	0.294
411.60	0.263
411.82	0.290
412.03	0.274
412.24	0.254
412.46	0.335
412.67	0.290
412.89	0.277
413.10	0.266
413.32	0.244
413.53	0.272
413.75	0.284
413.96	0.233
414.17	0.296
414.39	0.305
414.60	0.264
414.82	0.336
415.03	0.273
415.25	0.307
415.46	0.228
415.68	0.310
415.89	0.490
416.10	0.414
416.32	0.252
416.53	0.288
416.75	0.267
416.96	0.313
417.18	0.279
417.39	0.264
417.60	0.253
417.82	0.336
418.03	0.298
418.25	0.257
418.46	0.265
418.67	0.256
418.89	0.275
419.10	0.288
419.32	0.356
419.53	0.334
419.75	0.298
419.96	0.273
420.17	0.316
420.39	0.298
420.60	0.311
420.82	0.361
421.03	0.302
421.24	0.254
421.46	0.275
421.67	0.291
421.89	0.260
422.10	0.270
422.31	0.266
422.53	0.354
422.74	0.295
422.96	0.246
423.17	0.269
423.38	0.310
423.60	0.276
423.81	0.329
424.03	0.295
424.24	0.316
424.45	0.312
424.67	0.314
424.88	0.283
425.09	0.294
425.31	0.270
425.52	0.280
425.74	0.311
425.95	0.326
426.16	0.268
426.38	0.293
426.59	0.273
426.80	0.293
427.02	0.299
427.23	0.251
427.45	0.301
427.66	0.304
427.87	0.253
428.09	0.256
428.30	0.278
428.51	0.275
428.73	0.298
428.94	0.275
429.15	0.277
429.37	0.271
429.58	0.276
429.79	0.258
430.01	0.283
430.22	0.284
430.44	0.295
430.65	0.275
430.86	0.281
431.08	0.270
431.29	0.254
431.50	0.280
431.72	0.321
431.93	0.287
432.14	0.236
432.36	0.257
432.57	0.260
432.78	0.262
433.00	0.244
433.21	0.244
433.42	0.280
433.64	0.255
433.85	0.278
434.06	0.244
434.28	0.253
434.49	0.258
434.70	0.261
434.92	0.263
435.13	0.272
435.34	0.272
435.56	0.264
435.77	0.260
435.98	0.302
436.20	0.269
436.41	0.244
436.62	0.242
436.83	0.263
437.05	0.282
437.26	0.259
437.47	0.241
437.69	0.255
437.90	0.238
438.11	0.238
438.33	0.251
438.54	0.261
438.75	0.300
438.97	0.296
439.18	0.248
439.39	0.253
439.60	0.263
439.82	0.250
440.03	0.240
440.24	0.294
440.46	0.250
440.67	0.246
440.88	0.254
441.10	0.245
441.31	0.244
441.52	0.258
441.73	0.275
441.95	0.257
442.16	0.245
442.37	0.306
442.58	0.240
442.80	0.237
443.01	0.271
443.22	0.254
443.44	0.229
443.65	0.253
443.86	0.250
444.07	0.256
444.29	0.237
444.50	0.271
444.71	0.234
444.92	0.225
445.14	0.259
445.35	0.264
445.56	0.233
445.78	0.254
445.99	0.251
446.20	0.231
446.41	0.248
446.63	0.244
446.84	0.235
447.05	0.237
447.26	0.260
447.48	0.235
447.69	0.230
447.90	0.246
448.11	0.231
448.33	0.237
448.54	0.241
448.75	0.244
448.96	0.248
449.18	0.254
449.39	0.236
449.60	0.235
449.81	0.258
450.03	0.237
450.24	0.249
450.45	0.236
450.66	0.233
450.87	0.235
451.09	0.226
451.30	0.223
451.51	0.237
451.72	0.238
451.94	0.236
452.15	0.245
452.36	0.224
452.57	0.229
452.78	0.232
453.00	0.237
453.21	0.230
453.42	0.227
453.63	0.243
453.85	0.236
454.06	0.235
454.27	0.255
454.48	0.241
454.69	0.229
454.91	0.238
455.12	0.222
455.33	0.235
455.54	0.236
455.75	0.232
455.97	0.235
456.18	0.235
456.39	0.235
456.60	0.238
456.81	0.230
457.03	0.231
457.24	0.230
457.45	0.244
457.66	0.235
457.87	0.230
458.09	0.229
458.30	0.215
458.51	0.235
458.72	0.238
458.93	0.238
459.15	0.224
459.36	0.232
459.57	0.236
459.78	0.241
459.99	0.230
460.20	0.222
460.42	0.236
460.63	0.229
460.84	0.225
461.05	0.228
461.26	0.238
461.47	0.225
461.69	0.233
461.90	0.238
462.11	0.231
462.32	0.236
462.53	0.230
462.74	0.241
462.96	0.225
463.17	0.224
463.38	0.230
463.59	0.241
463.80	0.222
464.01	0.225
464.23	0.235
464.44	0.229
464.65	0.230
464.86	0.231
465.07	0.232
465.28	0.227
465.49	0.228
465.71	0.220
465.92	0.227
466.13	0.232
466.34	0.223
466.55	0.229
466.76	0.225
466.97	0.227
467.19	0.227
467.40	0.231
467.61	0.231
467.82	0.224
468.03	0.223
468.24	0.230
468.45	0.233
468.66	0.233
468.88	0.233
469.09	0.233
469.30	0.239
469.51	0.231
469.72	0.235
469.93	0.233
470.14	0.227
470.35	0.236
470.57	0.231
470.78	0.224
470.99	0.238
471.20	0.231
471.41	0.227
471.62	0.232
471.83	0.228
472.04	0.229
472.25	0.233
472.47	0.227
472.68	0.226
472.89	0.227
473.10	0.233
473.31	0.226
473.52	0.231
473.73	0.234
473.94	0.226
474.15	0.230
474.36	0.230
474.57	0.233
474.79	0.230
475.00	0.230
475.21	0.227
475.42	0.236
475.63	0.227
475.84	0.231
476.05	0.231
476.26	0.227
476.47	0.229
476.68	0.233
476.89	0.226
477.10	0.232
477.32	0.229
477.53	0.235
477.74	0.228
477.95	0.230
478.16	0.225
478.37	0.229
478.58	0.229
478.79	0.232
479.00	0.232
479.21	0.227
479.42	0.230
479.63	0.231
479.84	0.227
480.05	0.226
480.26	0.229
480.47	0.231
480.69	0.231
480.90	0.228
481.11	0.228
481.32	0.233
481.53	0.228
481.74	0.233
481.95	0.230
482.16	0.231
482.37	0.233
482.58	0.230
482.79	0.232
483.00	0.235
483.21	0.229
483.42	0.226
483.63	0.232
483.84	0.233
484.05	0.232
484.26	0.231
484.47	0.231
484.68	0.227
484.89	0.226
485.10	0.230
485.31	0.228
485.52	0.229
485.73	0.229
485.94	0.233
486.15	0.229
486.37	0.231
486.58	0.228
486.79	0.228
487.00	0.232
487.21	0.233
487.42	0.233
487.63	0.233
487.84	0.235
488.05	0.234
488.26	0.230
488.47	0.232
488.68	0.234
488.89	0.233
489.10	0.232
489.31	0.233
489.52	0.235
489.73	0.233
489.94	0.236
490.15	0.233
490.36	0.236
490.57	0.232
490.78	0.230
490.99	0.232
491.20	0.237
491.41	0.234
491.62	0.230
491.83	0.233
492.04	0.232
492.25	0.232
492.45	0.231
492.66	0.233
492.87	0.234
493.08	0.233
493.29	0.233
493.50	0.233
493.71	0.234
493.92	0.234
494.13	0.236
494.34	0.237
494.55	0.238
494.76	0.241
494.97	0.241
495.18	0.237
495.39	0.238
495.60	0.234
495.81	0.234
496.02	0.235
496.23	0.235
496.44	0.237
496.65	0.237
496.86	0.237
497.07	0.239
497.28	0.238
497.49	0.235
497.70	0.237
497.91	0.239
498.12	0.237
498.32	0.240
498.53	0.239
498.74	0.238
498.95	0.240
499.16	0.236
499.37	0.237
499.58	0.239
499.79	0.241
500.00	0.240
500.21	0.243
500.42	0.239
500.63	0.239
500.84	0.241
501.05	0.240
501.26	0.242
501.46	0.245
501.67	0.242
501.88	0.241
502.09	0.239
502.30	0.239
502.51	0.243
502.72	0.239
502.93	0.241
503.14	0.243
503.35	0.241
503.56	0.240
503.77	0.243
503.97	0.241
504.18	0.241
504.39	0.245
504.60	0.242
504.81	0.245
505.02	0.244
505.23	0.243
505.44	0.243
505.65	0.243
505.86	0.241
506.07	0.246
506.27	0.243
506.48	0.244
506.69	0.243
506.90	0.245
507.11	0.245
507.32	0.243
507.53	0.244
507.74	0.243
507.95	0.245
508.15	0.246
508.36	0.247
508.57	0.248
508.78	0.246
508.99	0.247
509.20	0.245
509.41	0.247
509.62	0.246
509.82	0.246
510.03	0.247
510.24	0.248
510.45	0.250
510.66	0.250
510.87	0.249
511.08	0.246
511.29	0.250
511.49	0.248
511.70	0.251
511.91	0.246
512.12	0.246
512.33	0.249
512.54	0.251
512.75	0.249
512.95	0.251
513.16	0.250
513.37	0.249
513.58	0.251
513.79	0.249
514.00	0.250
514.20	0.251
514.41	0.251
514.62	0.248
514.83	0.251
515.04	0.251
515.25	0.249
515.46	0.251
515.66	0.250
515.87	0.252
516.08	0.249
516.29	0.251
516.50	0.250
516.71	0.250
516.91	0.251
517.12	0.253
517.33	0.252
517.54	0.251
517.75	0.251
517.95	0.253
518.16	0.254
518.37	0.252
518.58	0.252
518.79	0.251
519.00	0.254
519.20	0.254
519.41	0.252
519.62	0.253
519.83	0.255
520.04	0.252
520.24	0.251
520.45	0.252
520.66	0.254
520.87	0.251
521.08	0.251
521.28	0.251
521.49	0.251
521.70	0.249
521.91	0.251
522.12	0.250
522.32	0.252
522.53	0.250
522.74	0.249
522.95	0.251
523.16	0.251
523.36	0.252
523.57	0.250
523.78	0.251
523.99	0.251
524.20	0.251
524.40	0.252
524.61	0.252
524.82	0.251
525.03	0.252
525.23	0.251
525.44	0.251
525.65	0.250
525.86	0.254
526.06	0.251
526.27	0.251
526.48	0.253
526.69	0.251
526.90	0.252
527.10	0.255
527.31	0.251
527.52	0.251
527.73	0.250
527.93	0.252
528.14	0.252
528.35	0.252
528.56	0.252
528.76	0.251
528.97	0.251
529.18	0.250
529.39	0.250
529.59	0.251
529.80	0.255
530.01	0.252
530.22	0.252
530.42	0.249
530.63	0.251
530.84	0.249
531.05	0.250
531.25	0.251
531.46	0.251
531.67	0.248
531.88	0.251
532.08	0.250
532.29	0.249
532.50	0.248
532.70	0.248
532.91	0.247
533.12	0.248
533.33	0.252
533.53	0.249
533.74	0.249
533.95	0.251
534.15	0.250
534.36	0.250
534.57	0.249
534.78	0.250
534.98	0.252
535.19	0.249
535.40	0.249
535.60	0.252
535.81	0.249
536.02	0.250
536.23	0.249
536.43	0.250
536.64	0.250
536.85	0.251
537.05	0.253
537.26	0.250
537.47	0.251
537.67	0.250
537.88	0.250
538.09	0.252
538.30	0.250
538.50	0.248
538.71	0.250
538.92	0.248
539.12	0.247
539.33	0.247
539.54	0.247
539.74	0.249
539.95	0.248
540.16	0.247
540.36	0.247
540.57	0.248
540.78	0.248
540.98	0.249
541.19	0.249
541.40	0.247
541.60	0.249
541.81	0.249
542.02	0.250
542.22	0.249
542.43	0.248
542.64	0.247
542.84	0.248
543.05	0.247
543.26	0.247
543.46	0.249
543.67	0.249
543.88	0.249
544.08	0.248
544.29	0.247
544.50	0.248
544.70	0.250
544.91	0.248
545.12	0.249
545.32	0.249
545.53	0.250
545.74	0.248
545.94	0.248
546.15	0.248
546.35	0.248
546.56	0.248
546.77	0.248
546.97	0.247
547.18	0.247
547.39	0.248
547.59	0.249
547.80	0.248
548.01	0.250
548.21	0.250
548.42	0.249
548.62	0.249
548.83	0.250
549.04	0.250
549.24	0.249
549.45	0.249
549.65	0.249
549.86	0.248
550.07	0.248
550.27	0.248
550.48	0.251
550.69	0.248
550.89	0.248
551.10	0.248
551.30	0.248
551.51	0.249
551.72	0.246
551.92	0.247
552.13	0.248
552.33	0.249
552.54	0.248
552.75	0.246
552.95	0.248
553.16	0.247
553.36	0.247
553.57	0.247
553.78	0.247
553.98	0.248
554.19	0.246
554.39	0.246
554.60	0.247
554.80	0.248
555.01	0.246
555.22	0.248
555.42	0.247
555.63	0.246
555.83	0.248
556.04	0.247
556.25	0.249
556.45	0.247
556.66	0.247
556.86	0.249
557.07	0.250
557.27	0.250
557.48	0.249
557.68	0.249
557.89	0.250
558.10	0.249
558.30	0.249
558.51	0.249
558.71	0.248
558.92	0.247
559.12	0.249
559.33	0.250
559.54	0.248
559.74	0.247
559.95	0.248
560.15	0.248
560.36	0.248
560.56	0.246
560.77	0.248
560.97	0.249
561.18	0.247
561.38	0.248
561.59	0.250
561.79	0.249
562.00	0.249
562.21	0.247
562.41	0.248
562.62	0.248
562.82	0.248
563.03	0.247
563.23	0.248
563.44	0.249
563.64	0.248
563.85	0.250
564.05	0.247
564.26	0.248
564.46	0.249
564.67	0.250
564.87	0.249
565.08	0.248
565.28	0.248
565.49	0.249
565.69	0.248
565.90	0.247
566.10	0.249
566.31	0.246
566.51	0.248
566.72	0.249
566.92	0.246
567.13	0.246
567.33	0.247
567.54	0.247
567.74	0.247
567.95	0.245
568.15	0.247
568.36	0.247
568.56	0.247
568.77	0.245
568.97	0.246
569.18	0.247
569.38	0.247
569.59	0.248
569.79	0.247
570.00	0.247
570.20	0.247
570.41	0.247
570.61	0.247
570.82	0.248
571.02	0.247
571.23	0.248
571.43	0.246
571.64	0.246
571.84	0.246
572.05	0.246
572.25	0.246
572.45	0.246
572.66	0.245
572.86	0.245
573.07	0.245
573.27	0.246
573.48	0.246
573.68	0.244
573.89	0.244
574.09	0.245
574.30	0.245
574.50	0.244
574.70	0.245
574.91	0.245
575.11	0.246
575.32	0.247
575.52	0.245
575.73	0.246
575.93	0.246
576.14	0.246
576.34	0.246
576.54	0.246
576.75	0.246
576.95	0.246
577.16	0.246
577.36	0.245
577.57	0.245
577.77	0.245
577.97	0.243
578.18	0.245
578.38	0.244
578.59	0.244
578.79	0.244
579.00	0.245
579.20	0.244
579.40	0.244
579.61	0.245
579.81	0.244
580.02	0.243
580.22	0.244
580.42	0.243
580.63	0.244
580.83	0.244
581.04	0.243
581.24	0.243
581.45	0.243
581.65	0.244
581.85	0.243
582.06	0.242
582.26	0.243
582.47	0.243
582.67	0.244
582.87	0.244
583.08	0.242
583.28	0.243
583.48	0.242
583.69	0.241
583.89	0.242
584.10	0.243
584.30	0.242
584.50	0.242
584.71	0.242
584.91	0.242
585.12	0.241
585.32	0.242
585.52	0.241
585.73	0.241
585.93	0.242
586.13	0.242
586.34	0.241
586.54	0.242
586.75	0.241
586.95	0.241
587.15	0.241
587.36	0.241
587.56	0.241
587.76	0.241
587.97	0.241
588.17	0.240
588.37	0.241
588.58	0.241
588.78	0.240
588.98	0.241
589.19	0.241
589.39	0.239
589.60	0.242
589.80	0.240
590.00	0.240
590.21	0.241
590.41	0.239
590.61	0.240
590.82	0.240
591.02	0.240
591.22	0.238
591.43	0.239
591.63	0.238
591.83	0.238
592.04	0.238
592.24	0.239
592.44	0.237
592.65	0.237
592.85	0.238
593.05	0.238
593.26	0.237
593.46	0.238
593.66	0.238
593.86	0.237
594.07	0.236
594.27	0.237
594.47	0.237
594.68	0.236
594.88	0.237
595.08	0.237
595.29	0.238
595.49	0.237
595.69	0.236
595.90	0.236
596.10	0.237
596.30	0.237
596.50	0.236
596.71	0.236
596.91	0.236
597.11	0.236
597.32	0.236
597.52	0.236
597.72	0.236
597.93	0.236
598.13	0.235
598.33	0.236
598.53	0.236
598.74	0.236
598.94	0.235
599.14	0.235
599.35	0.236
599.55	0.236
599.75	0.235
599.95	0.235
600.16	0.236
600.36	0.234
600.56	0.234
600.76	0.234
600.97	0.233
601.17	0.233
601.37	0.234
601.58	0.233
601.78	0.233
601.98	0.233
602.18	0.232
602.39	0.233
602.59	0.233
602.79	0.232
602.99	0.232
603.20	0.232
603.40	0.232
603.60	0.233
603.80	0.232
604.01	0.232
604.21	0.232
604.41	0.232
604.61	0.231
604.82	0.230
605.02	0.231
605.22	0.231
605.42	0.232
605.62	0.232
605.83	0.231
606.03	0.231
606.23	0.232
606.43	0.231
606.64	0.232
606.84	0.231
607.04	0.231
607.24	0.232
607.45	0.232
607.65	0.231
607.85	0.232
608.05	0.230
608.25	0.230
608.46	0.230
608.66	0.231
608.86	0.230
609.06	0.229
609.26	0.229
609.47	0.230
609.67	0.228
609.87	0.229
610.07	0.229
610.28	0.227
610.48	0.227
610.68	0.227
610.88	0.225
611.08	0.227
611.29	0.225
611.49	0.225
611.69	0.226
611.89	0.224
612.09	0.224
612.29	0.224
612.50	0.224
612.70	0.224
612.90	0.224
613.10	0.224
613.30	0.223
613.51	0.224
613.71	0.223
613.91	0.229
614.11	0.223
614.31	0.223
614.51	0.223
614.72	0.223
614.92	0.223
615.12	0.223
615.32	0.224
615.52	0.224
615.72	0.224
615.93	0.224
616.13	0.224
616.33	0.223
616.53	0.223
616.73	0.224
616.93	0.222
617.14	0.222
617.34	0.222
617.54	0.223
617.74	0.223
617.94	0.221
618.14	0.221
618.34	0.221
618.55	0.221
618.75	0.222
618.95	0.222
619.15	0.223
619.35	0.222
619.55	0.221
619.75	0.223
619.96	0.221
620.16	0.222
620.36	0.222
620.56	0.221
620.76	0.221
620.96	0.221
621.16	0.221
621.36	0.221
621.57	0.221
621.77	0.222
621.97	0.220
622.17	0.220
622.37	0.220
622.57	0.220
622.77	0.219
622.97	0.218
623.18	0.219
623.38	0.219
623.58	0.218
623.78	0.218
623.98	0.218
624.18	0.217
624.38	0.217
624.58	0.217
624.78	0.218
624.98	0.218
625.19	0.217
625.39	0.217
625.59	0.216
625.79	0.216
625.99	0.216
626.19	0.216
626.39	0.215
626.59	0.215
626.79	0.215
626.99	0.215
627.19	0.215
627.40	0.215
627.60	0.215
627.80	0.215
628.00	0.215
628.20	0.214
628.40	0.214
628.60	0.214
628.80	0.213
629.00	0.213
629.20	0.212
629.40	0.212
629.60	0.211
629.80	0.211
630.00	0.211
630.20	0.211
630.41	0.210
630.61	0.210
630.81	0.210
631.01	0.211
631.21	0.210
631.41	0.210
631.61	0.211
631.81	0.210
632.01	0.210
632.21	0.210
632.41	0.209
632.61	0.209
632.81	0.209
633.01	0.209
633.21	0.209
633.41	0.209
633.61	0.208
633.81	0.208
634.01	0.207
634.21	0.207
634.41	0.206
634.61	0.207
634.81	0.206
635.01	0.206
635.22	0.206
635.42	0.206
635.62	0.206
635.82	0.206
636.02	0.206
636.22	0.205
636.42	0.205
636.62	0.205
636.82	0.205
637.02	0.205
637.22	0.205
637.42	0.205
637.62	0.204
637.82	0.204
638.02	0.203
638.22	0.203
638.42	0.202
638.62	0.202
638.82	0.202
639.02	0.202
639.22	0.201
639.42	0.200
639.62	0.200
639.82	0.199
640.02	0.200
640.22	0.200
640.42	0.200
640.62	0.200
640.82	0.199
641.02	0.198
641.22	0.199
641.42	0.199
641.61	0.199
641.81	0.199
642.01	0.199
642.21	0.199
642.41	0.199
642.61	0.198
642.81	0.197
643.01	0.197
643.21	0.197
643.41	0.197
643.61	0.197
643.81	0.196
644.01	0.195
644.21	0.195
644.41	0.195
644.61	0.195
644.81	0.195
645.01	0.195
645.21	0.194
645.41	0.194
645.61	0.194
645.81	0.193
646.01	0.193
646.21	0.194
646.40	0.193
646.60	0.193
646.80	0.193
647.00	0.192
647.20	0.190
647.40	0.191
647.60	0.191
647.80	0.191
648.00	0.191
648.20	0.191
648.40	0.190
648.60	0.190
648.80	0.190
649.00	0.190
649.20	0.191
649.39	0.190
649.59	0.189
649.79	0.189
649.99	0.189
650.19	0.188
650.39	0.188
650.59	0.188
650.79	0.187
650.99	0.187
651.19	0.186
651.39	0.186
651.58	0.186
651.78	0.186
651.98	0.185
652.18	0.185
652.38	0.185
652.58	0.185
652.78	0.185
652.98	0.184
653.18	0.185
653.38	0.185
653.57	0.184
653.77	0.184
653.97	0.183
654.17	0.183
654.37	0.183
654.57	0.183
654.77	0.182
654.97	0.182
655.16	0.182
655.36	0.182
655.56	0.181
655.76	0.180
655.96	0.181
656.16	0.180
656.36	0.180
656.56	0.179
656.75	0.180
656.95	0.179
657.15	0.179
657.35	0.178
657.55	0.177
657.75	0.178
657.95	0.178
658.14	0.177
658.34	0.177
658.54	0.177
658.74	0.177
658.94	0.176
659.14	0.176
659.34	0.176
659.53	0.175
659.73	0.175
659.93	0.175
660.13	0.175
660.33	0.175
660.53	0.174
660.72	0.175
660.92	0.174
661.12	0.174
661.32	0.174
661.52	0.173
661.72	0.173
661.91	0.172
662.11	0.172
662.31	0.172
662.51	0.172
662.71	0.171
662.90	0.170
663.10	0.170
663.30	0.170
663.50	0.170
663.70	0.169
663.90	0.169
664.09	0.169
664.29	0.168
664.49	0.168
664.69	0.167
664.89	0.167
665.08	0.167
665.28	0.166
665.48	0.166
665.68	0.166
665.88	0.166
666.07	0.166
666.27	0.165
666.47	0.165
666.67	0.165
666.87	0.165
667.06	0.164
667.26	0.164
667.46	0.164
667.66	0.164
667.85	0.164
668.05	0.164
668.25	0.163
668.45	0.163
668.65	0.163
668.84	0.163
669.04	0.162
669.24	0.162
669.44	0.161
669.63	0.161
669.83	0.161
670.03	0.160
670.23	0.160
670.42	0.159
670.62	0.159
670.82	0.159
671.02	0.158
671.22	0.157
671.41	0.157
671.61	0.158
671.81	0.157
672.01	0.158
672.20	0.157
672.40	0.156
672.60	0.156
672.80	0.156
672.99	0.156
673.19	0.155
673.39	0.155
673.58	0.155
673.78	0.154
673.98	0.154
674.18	0.154
674.37	0.154
674.57	0.153
674.77	0.154
674.97	0.154
675.16	0.154
675.36	0.153
675.56	0.153
675.75	0.153
675.95	0.152
676.15	0.152
676.35	0.152
676.54	0.152
676.74	0.152
676.94	0.152
677.13	0.151
677.33	0.150
677.53	0.150
677.73	0.150
677.92	0.149
678.12	0.150
678.32	0.149
678.51	0.148
678.71	0.148
678.91	0.148
679.11	0.147
679.30	0.147
679.50	0.147
679.70	0.147
679.89	0.147
680.09	0.147
680.29	0.146
680.48	0.146
680.68	0.146
680.88	0.146
681.07	0.146
681.27	0.146
681.47	0.145
681.66	0.145
681.86	0.145
682.06	0.144
682.25	0.144
682.45	0.144
682.65	0.143
682.84	0.142
683.04	0.142
683.24	0.142
683.43	0.142
683.63	0.142
683.83	0.142
684.02	0.141
684.22	0.141
684.42	0.141
684.61	0.141
684.81	0.141
685.01	0.141
685.20	0.140
685.40	0.140
685.60	0.140
685.79	0.140
685.99	0.139
686.19	0.139
686.38	0.139
686.58	0.139
686.77	0.139
686.97	0.138
687.17	0.138
687.36	0.138
687.56	0.137
687.76	0.137
687.95	0.137
688.15	0.137
688.34	0.137
688.54	0.136
688.74	0.136
688.93	0.135
689.13	0.135
689.33	0.135
689.52	0.134
689.72	0.135
689.91	0.134
690.11	0.134
690.31	0.133
690.50	0.133
690.70	0.133
690.89	0.133
691.09	0.133
691.29	0.133
691.48	0.132
691.68	0.132
691.87	0.132
692.07	0.132
692.27	0.131
692.46	0.131
692.66	0.131
692.85	0.130
693.05	0.130
693.25	0.130
693.44	0.129
693.64	0.129
693.83	0.129
694.03	0.129
694.22	0.128
694.42	0.128
694.62	0.128
694.81	0.128
695.01	0.128
695.20	0.128
695.40	0.127
695.59	0.126
695.79	0.126
695.99	0.126
696.18	0.126
696.38	0.126
696.57	0.126
696.77	0.125
696.96	0.126
697.16	0.126
697.36	0.126
697.55	0.126
697.75	0.126
697.94	0.125
698.14	0.126
698.33	0.125
698.53	0.125
698.72	0.125
698.92	0.125
699.11	0.125
699.31	0.124
699.51	0.124
699.70	0.123
699.90	0.123
700.09	0.123
700.29	0.123
700.48	0.123
700.68	0.123
700.87	0.122
701.07	0.122
701.26	0.121
701.46	0.121
701.65	0.121
701.85	0.120
702.04	0.120
702.24	0.119
702.43	0.120
702.63	0.119
702.82	0.119
703.02	0.119
703.21	0.119
703.41	0.119
703.60	0.119
703.80	0.119
703.99	0.119
704.19	0.119
704.38	0.119
704.58	0.117
704.77	0.118
704.97	0.117
705.16	0.117
705.36	0.117
705.55	0.117
705.75	0.117
705.94	0.116
706.14	0.116
706.33	0.116
706.53	0.116
706.72	0.117
706.92	0.116
707.11	0.116
707.31	0.115
707.50	0.115
707.70	0.116
707.89	0.115
708.09	0.115
708.28	0.115
708.48	0.115
708.67	0.115
708.86	0.115
709.06	0.115
709.25	0.115
709.45	0.115
709.64	0.114
709.84	0.114
710.03	0.113
710.23	0.113
710.42	0.113
710.62	0.113
710.81	0.112
711.00	0.113
711.20	0.112
711.39	0.112
711.59	0.112
711.78	0.112
711.98	0.111
712.17	0.112
712.37	0.112
712.56	0.111
712.75	0.111
712.95	0.111
713.14	0.111
713.34	0.111
713.53	0.112
713.73	0.112
713.92	0.111
714.11	0.111
714.31	0.111
714.50	0.111
714.70	0.111
714.89	0.110
715.08	0.110
715.28	0.110
715.47	0.110
715.67	0.109
715.86	0.109
716.06	0.109
716.25	0.109
716.44	0.109
716.64	0.109
716.83	0.109
717.03	0.108
717.22	0.108
717.41	0.108
717.61	0.108
717.80	0.109
717.99	0.108
718.19	0.108
718.38	0.109
718.58	0.108
718.77	0.108
718.96	0.108
719.16	0.107
719.35	0.107
719.55	0.107
719.74	0.107
719.93	0.106
720.13	0.106
720.32	0.105
720.51	0.105
720.71	0.106
720.90	0.105
721.10	0.105
721.29	0.105
721.48	0.105
721.68	0.105
721.87	0.105
722.06	0.105
722.26	0.106
722.45	0.105
722.64	0.105
722.84	0.105
723.03	0.105
723.22	0.105
723.42	0.105
723.61	0.105
723.80	0.105
724.00	0.104
724.19	0.104
724.38	0.104
724.58	0.104
724.77	0.103
724.96	0.103
725.16	0.104
725.35	0.104
725.54	0.104
725.74	0.104
725.93	0.104
726.12	0.104
726.32	0.104
726.51	0.104
726.70	0.104
726.90	0.104
727.09	0.104
727.28	0.104
727.48	0.104
727.67	0.103
727.86	0.103
728.06	0.103
728.25	0.103
728.44	0.103
728.64	0.103
728.83	0.103
729.02	0.103
729.21	0.103
729.41	0.103
729.60	0.102
729.79	0.102
729.99	0.102
730.18	0.102
730.37	0.102
730.56	0.102
730.76	0.102
730.95	0.102
731.14	0.102
731.34	0.102
731.53	0.102
731.72	0.102
731.91	0.102
732.11	0.102
732.30	0.102
732.49	0.102
732.69	0.102
732.88	0.102
733.07	0.102
733.26	0.102
733.46	0.102
733.65	0.102
733.84	0.101
734.03	0.101
734.23	0.101
734.42	0.101
734.61	0.101
734.80	0.100
735.00	0.101
735.19	0.100
735.38	0.100
735.57	0.100
735.77	0.100
735.96	0.100
736.15	0.100
736.34	0.100
736.54	0.101
736.73	0.100
736.92	0.100
737.11	0.100
737.31	0.100
737.50	0.100
737.69	0.100
737.88	0.100
738.07	0.100
738.27	0.100
738.46	0.100
738.65	0.100
738.84	0.100
739.04	0.100
739.23	0.100
739.42	0.100
739.61	0.100
739.80	0.100
740.00	0.100
740.19	0.100
740.38	0.100
740.57	0.100
740.76	0.099
740.96	0.099
741.15	0.099
741.34	0.099
741.53	0.098
741.72	0.098
741.92	0.098
742.11	0.097
742.30	0.097
742.49	0.097
742.68	0.097
742.88	0.097
743.07	0.097
743.26	0.097
743.45	0.097
743.64	0.096
743.84	0.096
744.03	0.096
744.22	0.096
744.41	0.096
744.60	0.096
744.79	0.096
744.99	0.096
745.18	0.096
745.37	0.095
745.56	0.095
745.75	0.095
745.94	0.095
746.14	0.096
746.33	0.096
746.52	0.096
746.71	0.095
746.90	0.095
747.09	0.095
747.28	0.095
747.48	0.095
747.67	0.094
747.86	0.094
748.05	0.094
748.24	0.094
748.43	0.094
748.62	0.093
748.82	0.093
749.01	0.094
749.20	0.093
749.39	0.093
749.58	0.093
749.77	0.093
749.96	0.093
750.16	0.093
750.35	0.093
750.54	0.093
750.73	0.093
750.92	0.093
751.11	0.092
751.30	0.092
751.49	0.093
751.68	0.092
751.88	0.092
752.07	0.091
752.26	0.092
752.45	0.091
752.64	0.091
752.83	0.092
753.02	0.091
753.21	0.091
753.40	0.091
753.60	0.091
753.79	0.091
753.98	0.091
754.17	0.091
754.36	0.091
754.55	0.091
754.74	0.091
754.93	0.090
755.12	0.090
755.31	0.091
755.50	0.091
755.70	0.090
755.89	0.090
756.08	0.090
756.27	0.089
756.46	0.090
756.65	0.090
756.84	0.090
757.03	0.090
757.22	0.089
757.41	0.089
757.60	0.089
757.79	0.090
757.98	0.090
758.17	0.090
758.36	0.090
758.56	0.089
758.75	0.089
758.94	0.089
759.13	0.089
759.32	0.089
759.51	0.089
759.70	0.089
759.89	0.088
760.08	0.089
760.27	0.088
760.46	0.088
760.65	0.088
760.84	0.088
761.03	0.088
761.22	0.088
761.41	0.088
761.60	0.088
761.79	0.087
761.98	0.087
762.17	0.087
762.36	0.087
762.55	0.087
762.74	0.087
762.93	0.086
763.12	0.086
763.31	0.086
763.50	0.086
763.69	0.086
763.88	0.086
764.07	0.086
764.26	0.086
764.45	0.086
764.64	0.086
764.83	0.086
765.02	0.087
765.21	0.086
765.40	0.086
765.59	0.086
765.78	0.086
765.97	0.086
766.16	0.086
766.35	0.085
766.54	0.086
766.73	0.086
766.92	0.085
767.11	0.085
767.30	0.086
767.49	0.085
767.68	0.086
767.87	0.085
768.06	0.085
768.25	0.085
768.44	0.085
768.63	0.085
768.82	0.085
769.01	0.084
769.20	0.084
769.39	0.085
769.58	0.084
769.77	0.084
769.96	0.084
770.15	0.084
770.34	0.084
770.53	0.084
770.72	0.084
770.91	0.084
771.10	0.084
771.29	0.084
771.47	0.083
771.66	0.083
771.85	0.083
772.04	0.083
772.23	0.083
772.42	0.083
772.61	0.083
772.80	0.083
772.99	0.083
773.18	0.083
773.37	0.083
773.56	0.083
773.75	0.083
773.94	0.083
774.13	0.082
774.31	0.082
774.50	0.082
774.69	0.082
774.88	0.082
775.07	0.082
775.26	0.082
775.45	0.081
775.64	0.081
775.83	0.081
776.02	0.080
776.21	0.081
776.40	0.081
776.58	0.081
776.77	0.081
776.96	0.081
777.15	0.081
777.34	0.081
777.53	0.081
777.72	0.081
777.91	0.081
778.10	0.081
778.28	0.081
778.47	0.081
778.66	0.080
778.85	0.080
779.04	0.080
779.23	0.080
779.42	0.080
779.61	0.080
779.79	0.079
779.98	0.079
780.17	0.079
780.36	0.079
780.55	0.079
780.74	0.079
780.93	0.079
781.12	0.079
781.30	0.079
781.49	0.080
781.68	0.080
781.87	0.080
782.06	0.080
782.25	0.080
782.44	0.080
782.62	0.080
782.81	0.080
783.00	0.080
783.19	0.080
783.38	0.079
783.57	0.079
783.75	0.079
783.94	0.079
784.13	0.079
784.32	0.078
784.51	0.078
784.70	0.079
784.88	0.078
785.07	0.078
785.26	0.078
785.45	0.078
785.64	0.078
785.83	0.078
786.01	0.078
786.20	0.078
786.39	0.078
786.58	0.077
786.77	0.077
786.95	0.077
787.14	0.077
787.33	0.077
787.52	0.077
787.71	0.077
787.90	0.077
788.08	0.077
788.27	0.077
788.46	0.077
788.65	0.077
788.84	0.077
789.02	0.077
789.21	0.077
789.40	0.077
789.59	0.077
789.77	0.077
789.96	0.076
790.15	0.076
790.34	0.077
790.53	0.076
790.71	0.076
790.90	0.076
791.09	0.076
791.28	0.076
791.46	0.076
791.65	0.076
791.84	0.076
792.03	0.076
792.22	0.077
792.40	0.076
792.59	0.076
792.78	0.077
792.97	0.077
793.15	0.077
793.34	0.077
793.53	0.076
793.72	0.076
793.90	0.076
794.09	0.076
794.28	0.075
794.47	0.075
794.65	0.075
794.84	0.075
795.03	0.075
795.22	0.075
795.40	0.075
795.59	0.075
795.78	0.075
795.97	0.075
796.15	0.075
796.34	0.075
796.53	0.075
796.71	0.075
796.90	0.075
797.09	0.076
797.28	0.075
797.46	0.075
797.65	0.075
797.84	0.075
798.02	0.075
798.21	0.074
798.40	0.074
798.59	0.074
798.77	0.074
798.96	0.074
799.15	0.073
799.33	0.074
799.52	0.073
799.71	0.073
799.90	0.074
800.08	0.074
800.27	0.073
800.46	0.073
800.64	0.073
800.83	0.073
801.02	0.073
801.20	0.073
801.39	0.073
801.58	0.073
801.76	0.074
801.95	0.074
802.14	0.074
802.32	0.074
802.51	0.074
802.70	0.074
802.88	0.073
803.07	0.073
803.26	0.073
803.44	0.073
803.63	0.073
803.82	0.072
804.00	0.073
804.19	0.073
804.38	0.073
804.56	0.073
804.75	0.073
804.94	0.073
805.12	0.073
805.31	0.073
805.50	0.073
805.68	0.073
805.87	0.073
806.06	0.073
806.24	0.073
806.43	0.073
806.62	0.073
806.80	0.073
806.99	0.073
807.17	0.073
807.36	0.073
807.55	0.073
807.73	0.073
807.92	0.073
808.11	0.073
808.29	0.072
808.48	0.072
808.66	0.072
808.85	0.072
809.04	0.071
809.22	0.071
809.41	0.072
809.59	0.071
809.78	0.071
809.97	0.071
810.15	0.071
810.34	0.071
810.53	0.071
810.71	0.071
810.90	0.071
811.08	0.071
811.27	0.071
811.45	0.071
811.64	0.071
811.83	0.071
812.01	0.071
812.20	0.071
812.38	0.072
812.57	0.072
812.76	0.071
812.94	0.071
813.13	0.071
813.31	0.071
813.50	0.071
813.68	0.071
813.87	0.071
814.06	0.071
814.24	0.071
814.43	0.071
814.61	0.072
814.80	0.072
814.98	0.072
815.17	0.072
815.36	0.071
815.54	0.071
815.73	0.071
815.91	0.071
816.10	0.071
816.28	0.071
816.47	0.070
816.65	0.071
816.84	0.071
817.03	0.071
817.21	0.071
817.40	0.071
817.58	0.071
817.77	0.071
817.95	0.071
818.14	0.072
818.32	0.072
818.51	0.072
818.69	0.072
818.88	0.072
819.06	0.072
819.25	0.072
819.43	0.072
819.62	0.072
819.80	0.072
819.99	0.072
820.18	0.072
820.36	0.072
820.55	0.072
820.73	0.072
820.92	0.072
821.10	0.072
821.29	0.072
821.47	0.072
821.66	0.072
821.84	0.071
822.03	0.071
822.21	0.071
822.40	0.071
822.58	0.071
822.77	0.071
822.95	0.072
823.14	0.071
823.32	0.072
823.50	0.072
823.69	0.072
823.87	0.072
824.06	0.072
824.24	0.072
824.43	0.072
824.61	0.072
824.80	0.073
824.98	0.073
825.17	0.073
825.35	0.073
825.54	0.073
825.72	0.073
825.91	0.073
826.09	0.073
826.28	0.073
826.46	0.073
826.64	0.073
826.83	0.073
827.01	0.073
827.20	0.073
827.38	0.073
827.57	0.073
827.75	0.072
827.94	0.073
828.12	0.073
828.31	0.073
828.49	0.073
828.67	0.074
828.86	0.074
829.04	0.074
829.23	0.074
829.41	0.075
829.60	0.075
829.78	0.075
829.96	0.076
830.15	0.076
830.33	0.076
830.52	0.075
830.70	0.075
830.88	0.075
831.07	0.075
831.25	0.075
831.44	0.075
831.62	0.075
831.81	0.075
831.99	0.074
832.17	0.075
832.36	0.075
832.54	0.075
832.73	0.075
832.91	0.075
833.09	0.075
833.28	0.076
833.46	0.076
833.65	0.075
833.83	0.076
834.01	0.076
834.20	0.076
834.38	0.076
834.56	0.076
834.75	0.076
834.93	0.077
835.12	0.076
835.30	0.076
835.48	0.077
835.67	0.076
835.85	0.076
836.03	0.076
836.22	0.077
836.40	0.077
836.59	0.077
836.77	0.077
836.95	0.077
837.14	0.077
837.32	0.076
837.50	0.076
837.69	0.076
837.87	0.076
838.05	0.077
838.24	0.076
838.42	0.076
838.60	0.076
838.79	0.077
838.97	0.076
839.15	0.077
839.34	0.077
839.52	0.078
839.70	0.078
839.89	0.078
840.07	0.078
840.25	0.078
840.44	0.078
840.62	0.078
840.80	0.077
840.99	0.078
841.17	0.078
841.35	0.078
841.54	0.078
841.72	0.078
841.90	0.077
842.09	0.077
842.27	0.078
842.45	0.078
842.64	0.078
842.82	0.078
843.00	0.077
843.19	0.078
843.37	0.077
843.55	0.078
843.73	0.077
843.92	0.077
844.10	0.077
844.28	0.078
844.47	0.078
844.65	0.078
844.83	0.078
845.01	0.078
845.20	0.078
845.38	0.079
845.56	0.079
845.75	0.079
845.93	0.079
846.11	0.079
846.29	0.079
846.48	0.079
846.66	0.079
846.84	0.079
847.02	0.078
847.21	0.078
847.39	0.078
847.57	0.078
847.76	0.078
847.94	0.078
848.12	0.078
848.30	0.078
848.49	0.078
848.67	0.078
848.85	0.078
849.03	0.078
849.22	0.078
849.40	0.078
849.58	0.078
849.76	0.079
849.95	0.079
850.13	0.079
850.31	0.079
850.49	0.079
850.67	0.079
850.86	0.079
851.04	0.079
851.22	0.079
851.40	0.079
851.59	0.079
851.77	0.079
851.95	0.079
852.13	0.079
852.31	0.079
852.50	0.079
852.68	0.079
852.86	0.079
853.04	0.079
853.23	0.079
853.41	0.079
853.59	0.079
853.77	0.079
853.95	0.079
854.14	0.079
854.32	0.079
854.50	0.079
854.68	0.079
854.86	0.079
855.04	0.079
855.23	0.079
855.41	0.079
855.59	0.079
855.77	0.079
855.95	0.080
856.14	0.079
856.32	0.079
856.50	0.079
856.68	0.079
856.86	0.079
857.04	0.079
857.23	0.079
857.41	0.079
857.59	0.079
857.77	0.079
857.95	0.079
858.13	0.079
858.32	0.079
858.50	0.080
858.68	0.079
858.86	0.079
859.04	0.079
859.22	0.079
859.41	0.079
859.59	0.079
859.77	0.079
859.95	0.079
860.13	0.079
860.31	0.079
860.49	0.079
860.68	0.079
860.86	0.079
861.04	0.079
861.22	0.079
861.40	0.079
861.58	0.079
861.76	0.078
861.94	0.079
862.13	0.079
862.31	0.079
862.49	0.079
862.67	0.079
862.85	0.079
863.03	0.079
863.21	0.079
863.39	0.079
863.57	0.080
863.76	0.080
863.94	0.080
864.12	0.080
864.30	0.080
864.48	0.080
864.66	0.080
864.84	0.080
865.02	0.080
865.20	0.080
865.38	0.081
865.57	0.081
865.75	0.081
865.93	0.081
866.11	0.081
866.29	0.081
866.47	0.081
866.65	0.081
866.83	0.081
867.01	0.081
867.19	0.080
867.37	0.080
867.55	0.080
867.73	0.081
867.92	0.080
868.10	0.081
868.28	0.081
868.46	0.080
868.64	0.080
868.82	0.080
869.00	0.081
869.18	0.081
869.36	0.081
869.54	0.081
869.72	0.081
869.90	0.081
870.08	0.081
870.26	0.081
870.44	0.081
870.62	0.081
870.80	0.081
870.98	0.081
871.16	0.081
871.34	0.081
871.53	0.081
871.71	0.081
871.89	0.081
872.07	0.081
872.25	0.081
872.43	0.081
872.61	0.081
872.79	0.081
872.97	0.082
873.15	0.082
873.33	0.082
873.51	0.082
873.69	0.082
873.87	0.082
874.05	0.082
874.23	0.082
874.41	0.082
874.59	0.083
874.77	0.082
874.95	0.082
875.13	0.082
875.31	0.082
875.49	0.082
875.67	0.082
875.85	0.082
876.03	0.082
876.21	0.082
876.39	0.082
876.57	0.082
876.75	0.083
876.93	0.082
877.11	0.082
877.29	0.082
877.47	0.082
877.65	0.082
877.82	0.082
878.00	0.083
878.18	0.083
878.36	0.082
878.54	0.082
878.72	0.082
878.90	0.082
879.08	0.082
879.26	0.083
879.44	0.083
879.62	0.083
879.80	0.083
879.98	0.083
880.16	0.083
880.34	0.083
880.52	0.083
880.70	0.083
880.88	0.083
881.06	0.084
881.24	0.083
881.42	0.083
881.59	0.083
881.77	0.082
881.95	0.082
882.13	0.083
882.31	0.083
882.49	0.082
882.67	0.083
882.85	0.083
883.03	0.083
883.21	0.083
883.39	0.083
883.57	0.083
883.75	0.083
883.92	0.083
884.10	0.083
884.28	0.084
884.46	0.084
884.64	0.084
884.82	0.084
885.00	0.084
885.18	0.084
885.36	0.085
885.54	0.085
885.71	0.085
885.89	0.085
886.07	0.085
886.25	0.085
886.43	0.085
886.61	0.085
886.79	0.085
886.97	0.085
887.15	0.085
887.32	0.085
887.50	0.085
887.68	0.085
887.86	0.085
888.04	0.085
888.22	0.085
888.40	0.085
888.57	0.085
888.75	0.085
888.93	0.085
889.11	0.085
889.29	0.086
889.47	0.086
889.65	0.086
889.82	0.086
890.00	0.086
890.18	0.086
890.36	0.086
890.54	0.086
890.72	0.086
890.90	0.086
891.07	0.086
891.25	0.085
891.43	0.085
891.61	0.086
891.79	0.086
891.97	0.086
892.14	0.086
892.32	0.086
892.50	0.086
892.68	0.086
892.86	0.086
893.03	0.086
893.21	0.087
893.39	0.087
893.57	0.087
893.75	0.087
893.93	0.087
894.10	0.087
894.28	0.087
894.46	0.086
894.64	0.087
894.82	0.087
894.99	0.087
895.17	0.086
895.35	0.087
895.53	0.087
895.71	0.086
895.88	0.086
896.06	0.086
896.24	0.087
896.42	0.087
896.59	0.087
896.77	0.087
896.95	0.087
897.13	0.087
897.31	0.087
897.48	0.087
897.66	0.087
897.84	0.087
898.02	0.087
898.19	0.087
898.37	0.087
898.55	0.087
898.73	0.087
898.91	0.087
899.08	0.087
899.26	0.087
899.44	0.087
899.62	0.087
899.79	0.088
899.97	0.088
900.15	0.088
900.33	0.088
900.50	0.087
900.68	0.087
900.86	0.087
901.04	0.088
901.21	0.088
901.39	0.088
901.57	0.088
901.74	0.088
901.92	0.088
902.10	0.088
902.28	0.088
902.45	0.088
902.63	0.088
902.81	0.089
902.99	0.089
903.16	0.089
903.34	0.089
903.52	0.089
903.69	0.089
903.87	0.089
904.05	0.089
904.22	0.089
904.40	0.089
904.58	0.089
904.76	0.089
904.93	0.089
905.11	0.089
905.29	0.089
905.46	0.089
905.64	0.089
905.82	0.089
905.99	0.089
906.17	0.089
906.35	0.089
906.53	0.089
906.70	0.090
906.88	0.090
907.06	0.089
907.23	0.090
907.41	0.090
907.59	0.090
907.76	0.090
907.94	0.090
908.12	0.090
908.29	0.090
908.47	0.090
908.65	0.090
908.82	0.091
909.00	0.091
909.18	0.091
909.35	0.091
909.53	0.091
909.71	0.091
909.88	0.091
910.06	0.091
910.23	0.091
910.41	0.091
910.59	0.091
910.76	0.091
910.94	0.091
911.12	0.090
911.29	0.091
911.47	0.091
911.65	0.091
911.82	0.091
912.00	0.092
912.17	0.092
912.35	0.092
912.53	0.093
912.70	0.093
912.88	0.093
913.06	0.094
913.23	0.094
913.41	0.094
913.58	0.094
913.76	0.094
913.94	0.094
914.11	0.095
914.29	0.095
914.46	0.095
914.64	0.094
914.82	0.094
914.99	0.094
915.17	0.094
915.34	0.094
915.52	0.094
915.70	0.094
915.87	0.094
916.05	0.094
916.22	0.094
916.40	0.094
916.57	0.095
916.75	0.095
916.93	0.095
917.10	0.096
917.28	0.096
917.45	0.095
917.63	0.095
917.80	0.095
917.98	0.095
918.16	0.095
918.33	0.096
918.51	0.096
918.68	0.096
918.86	0.096
919.03	0.096
919.21	0.096
919.39	0.097
919.56	0.097
919.74	0.097
919.91	0.097
920.09	0.098
920.26	0.098
920.44	0.098
920.61	0.098
920.79	0.099
920.96	0.099
921.14	0.099
921.31	0.100
921.49	0.100
921.67	0.100
921.84	0.100
922.02	0.101
922.19	0.101
922.37	0.101
922.54	0.101
922.72	0.101
922.89	0.102
923.07	0.102
923.24	0.102
923.42	0.102
923.59	0.102
923.77	0.102
923.94	0.103
924.12	0.103
924.29	0.103
924.47	0.103
924.64	0.104
924.82	0.104
924.99	0.104
925.17	0.105
925.34	0.105
925.52	0.105
925.69	0.105
925.87	0.106
926.04	0.106
926.22	0.106
926.39	0.106
926.57	0.106
926.74	0.106
926.91	0.107
927.09	0.107
927.26	0.107
927.44	0.107
927.61	0.108
927.79	0.108
927.96	0.109
928.14	0.109
928.31	0.110
928.49	0.110
928.66	0.110
928.84	0.111
929.01	0.111
929.18	0.112
929.36	0.112
929.53	0.113
929.71	0.113
929.88	0.114
930.06	0.114
930.23	0.115
930.41	0.115
930.58	0.116
930.75	0.116
930.93	0.117
931.10	0.117
931.28	0.118
931.45	0.118
931.63	0.118
931.80	0.118
931.97	0.119
932.15	0.120
932.32	0.120
932.50	0.120
932.67	0.120
932.84	0.121
933.02	0.121
933.19	0.121
933.37	0.122
933.54	0.123
933.71	0.123
933.89	0.124
934.06	0.124
934.24	0.125
934.41	0.125
934.58	0.126
934.76	0.126
934.93	0.127
935.11	0.127
935.28	0.128
935.45	0.128
935.63	0.129
935.80	0.129
935.98	0.130
936.15	0.129
936.32	0.130
936.50	0.131
936.67	0.131
936.84	0.131
937.02	0.133
937.19	0.133
937.36	0.133
937.54	0.134
937.71	0.135
937.89	0.135
938.06	0.135
938.23	0.136
938.41	0.137
938.58	0.137
938.75	0.137
938.93	0.138
939.10	0.138
939.27	0.138
939.45	0.139
939.62	0.140
939.79	0.140
939.97	0.141
940.14	0.141
940.31	0.142
940.49	0.142
940.66	0.143
940.83	0.143
941.01	0.144
941.18	0.145
941.35	0.145
941.53	0.146
941.70	0.147
941.87	0.147
942.05	0.148
942.22	0.149
942.39	0.150
942.57	0.150
942.74	0.152
942.91	0.152
943.08	0.153
943.26	0.153
943.43	0.153
943.60	0.154
943.78	0.155
943.95	0.156
944.12	0.157
944.29	0.157
944.47	0.158
944.64	0.158
944.81	0.160
944.99	0.160
945.16	0.161
945.33	0.161
945.50	0.162
945.68	0.163
945.85	0.163
946.02	0.165
946.20	0.166
946.37	0.167
946.54	0.168
946.71	0.169
946.89	0.169
947.06	0.170
947.23	0.171
947.40	0.172
947.58	0.173
947.75	0.174
947.92	0.174
948.09	0.175
948.27	0.176
948.44	0.177
948.61	0.178
948.78	0.178
948.96	0.180
949.13	0.180
949.30	0.181
949.47	0.182
949.65	0.183
949.82	0.185
949.99	0.185
950.16	0.187
950.33	0.188
950.51	0.190
950.68	0.191
950.85	0.192
951.02	0.194
951.20	0.195
951.37	0.196
951.54	0.197
951.71	0.198
951.88	0.199
952.06	0.200
952.23	0.201
952.40	0.203
952.57	0.204
952.74	0.206
952.92	0.206
953.09	0.208
953.26	0.209
953.43	0.210
953.60	0.211
953.77	0.212
953.95	0.213
954.12	0.215
954.29	0.216
954.46	0.218
954.63	0.219
954.81	0.219
954.98	0.220
955.15	0.222
955.32	0.223
955.49	0.223
955.66	0.225
955.84	0.226
956.01	0.226
956.18	0.228
956.35	0.230
956.52	0.230
956.69	0.232
956.87	0.232
957.04	0.234
957.21	0.236
957.38	0.236
957.55	0.237
957.72	0.238
957.89	0.239
958.07	0.239
958.24	0.241
958.41	0.243
958.58	0.242
958.75	0.243
958.92	0.245
959.09	0.245
959.26	0.245
959.44	0.246
959.61	0.248
959.78	0.249
959.95	0.251
960.12	0.251
960.29	0.253
960.46	0.252
960.63	0.253
960.81	0.253
960.98	0.254
961.15	0.255
961.32	0.256
961.49	0.255
961.66	0.256
961.83	0.256
962.00	0.255
962.17	0.256
962.34	0.256
962.52	0.256
962.69	0.257
962.86	0.256
963.03	0.257
963.20	0.258
963.37	0.257
963.54	0.258
963.71	0.258
963.88	0.258
964.05	0.258
964.22	0.260
964.39	0.259
964.56	0.259
964.74	0.260
964.91	0.260
965.08	0.260
965.25	0.260
965.42	0.260
965.59	0.261
965.76	0.261
965.93	0.263
966.10	0.261
966.27	0.263
966.44	0.262
966.61	0.263
966.78	0.263
966.95	0.263
967.12	0.264
967.29	0.266
967.46	0.265
967.63	0.264
967.80	0.265
967.97	0.264
968.14	0.264
968.32	0.265
968.49	0.265
968.66	0.265
968.83	0.265
969.00	0.265
969.17	0.265
969.34	0.266
969.51	0.267
969.68	0.266
969.85	0.266
970.02	0.267
970.19	0.266
970.36	0.267
970.53	0.267
970.70	0.265
970.87	0.266
971.04	0.265
971.21	0.266
971.38	0.266
971.55	0.266
971.72	0.266
971.89	0.266
972.06	0.266
972.23	0.266
972.40	0.266
972.57	0.265
972.74	0.265
972.91	0.266
973.07	0.266
973.24	0.266
973.41	0.266
973.58	0.265
973.75	0.277
973.92	0.265
974.09	0.264
974.26	0.264
974.43	0.264
974.60	0.265
974.77	0.265
974.94	0.264
975.11	0.265
975.28	0.266
975.45	0.263
975.62	0.264
975.79	0.266
975.96	0.265
976.13	0.264
976.30	0.265
976.47	0.264
976.64	0.264
976.80	0.265
976.97	0.264
977.14	0.264
977.31	0.265
977.48	0.265
977.65	0.264
977.82	0.264
977.99	0.265
978.16	0.265
978.33	0.264
978.50	0.264
978.67	0.264
978.83	0.263
979.00	0.263
979.17	0.263
979.34	0.262
979.51	0.262
979.68	0.262
979.85	0.262
980.02	0.263
980.19	0.260
980.36	0.262
980.52	0.263
980.69	0.261
980.86	0.261
981.03	0.261
981.20	0.260
981.37	0.260
981.54	0.261
981.71	0.260
981.88	0.260
982.04	0.260
982.21	0.258
982.38	0.261
982.55	0.260
982.72	0.259
982.89	0.260
983.06	0.259
983.22	0.259
983.39	0.260
983.56	0.260
983.73	0.259
983.90	0.258
984.07	0.260
984.24	0.258
984.40	0.258
984.57	0.256
984.74	0.258
984.91	0.259
985.08	0.257
985.25	0.254
985.41	0.256
985.58	0.256
985.75	0.257
985.92	0.256
986.09	0.255
986.26	0.255
986.42	0.254
986.59	0.252
986.76	0.254
986.93	0.253
987.10	0.253
987.27	0.251
987.43	0.249
987.60	0.251
987.77	0.251
987.94	0.250
988.11	0.251
988.27	0.251
988.44	0.250
988.61	0.249
988.78	0.247
988.95	0.248
989.11	0.249
989.28	0.247
989.45	0.246
989.62	0.246
989.79	0.247
989.95	0.245
990.12	0.246
990.29	0.247
990.46	0.245
990.62	0.243
990.79	0.244
990.96	0.245
991.13	0.245
991.30	0.243
991.46	0.242
991.63	0.240
991.80	0.239
991.97	0.240
992.13	0.240
992.30	0.240
992.47	0.239
992.64	0.239
992.80	0.239
992.97	0.239
993.14	0.238
993.31	0.235
993.47	0.239
993.64	0.237
993.81	0.236
993.98	0.237
994.14	0.236
994.31	0.235
994.48	0.236
994.64	0.236
994.81	0.234
994.98	0.235
995.15	0.233
995.31	0.232
995.48	0.232
995.65	0.234
995.82	0.231
995.98	0.230
996.15	0.231
996.32	0.232
996.48	0.231
996.65	0.230
996.82	0.228
996.99	0.228
997.15	0.228
997.32	0.229
997.49	0.227
997.65	0.228
997.82	0.228
997.99	0.227
998.15	0.227
998.32	0.228
998.49	0.227
998.65	0.227
998.82	0.227
998.99	0.225
999.15	0.225
999.32	0.225
999.49	0.224
999.65	0.224
999.82	0.221
999.99	0.222
1000.15	0.221
1000.32	0.221
1000.49	0.221
1000.65	0.219
1000.82	0.218
1000.99	0.218
1001.15	0.219
1001.32	0.218
1001.49	0.218
1001.65	0.218
1001.82	0.220
1001.99	0.217
1002.15	0.217
1002.32	0.217
1002.49	0.218
1002.65	0.217
1002.82	0.216
1002.99	0.214
1003.15	0.216
1003.32	0.216
1003.48	0.215
1003.65	0.215
1003.82	0.214
1003.98	0.211
1004.15	0.211
1004.32	0.211
1004.48	0.211
1004.65	0.212
1004.81	0.210
1004.98	0.209
1005.15	0.209
1005.31	0.208
1005.48	0.206
1005.64	0.206
1005.81	0.209
1005.98	0.206
1006.14	0.206
1006.31	0.206
1006.47	0.205
1006.64	0.204
1006.81	0.203
1006.97	0.204
1007.14	0.204
1007.30	0.205
1007.47	0.205
1007.63	0.202
1007.80	0.201
1007.97	0.201
1008.13	0.201
1008.30	0.200
1008.46	0.201
1008.63	0.200
1008.79	0.200
1008.96	0.200
1009.13	0.202
1009.29	0.199
1009.46	0.199
1009.62	0.199
1009.79	0.197
1009.95	0.197
1010.12	0.198
1010.28	0.198
1010.45	0.197
1010.62	0.196
1010.78	0.194
1010.95	0.192
1011.11	0.193
1011.28	0.193
1011.44	0.194
1011.61	0.192
1011.77	0.192
1011.94	0.192
1012.10	0.191
1012.27	0.190
1012.43	0.190
1012.60	0.190
1012.76	0.190
1012.93	0.189
1013.10	0.187
1013.26	0.185
1013.43	0.187
1013.59	0.194
1013.76	0.187
1013.92	0.185
1014.09	0.185
1014.25	0.186
1014.42	0.186
1014.58	0.186
1014.75	0.188
1014.91	0.187
1015.08	0.188
1015.24	0.184
1015.41	0.185
1015.57	0.185
1015.73	0.184
1015.90	0.182
1016.06	0.184
1016.23	0.182
1016.39	0.183
1016.56	0.183
1016.72	0.182
1016.89	0.182
1017.05	0.185
1017.22	0.181
1017.38	0.182
1017.55	0.180
1017.71	0.181
1017.88	0.181
1018.04	0.182
1018.21	0.179
1018.37	0.178
1018.53	0.179
1018.70	0.177
1018.86	0.175
1019.03	0.178
1019.19	0.176
1019.36	0.175
1019.52	0.176
1019.69	0.176
1019.85	0.175
1020.01	0.175
1020.18	0.174
1020.34	0.175
1020.51	0.174
1020.67	0.176
1020.84	0.174
1021.00	0.174
1021.16	0.172
1021.33	0.173
1021.49	0.172
1021.66	0.172
1021.82	0.170
1021.98	0.169
1022.15	0.168
1022.31	0.168
1022.48	0.167
1022.64	0.168
1022.80	0.168
1022.97	0.167
1023.13	0.166
1023.30	0.166
1023.46	0.167
1023.62	0.164
1023.79	0.166
1023.95	0.167
1024.12	0.165
1024.28	0.164
1024.44	0.164
1024.61	0.162
1024.77	0.161
1024.93	0.161
1025.10	0.161
1025.26	0.159
1025.43	0.160
1025.59	0.157
1025.75	0.161
1025.92	0.161
1026.08	0.160
1026.24	0.160
1026.41	0.161
1026.57	0.159
1026.73	0.156
1026.90	0.157
1027.06	0.155
1027.23	0.156
1027.39	0.155
1027.55	0.154
1027.72	0.153
1027.88	0.152
1028.04	0.152
1028.21	0.153
1028.37	0.148
1028.53	0.153
1028.70	0.153
1028.86	0.152
1029.02	0.153
1029.19	0.153
1029.35	0.151
1029.51	0.150
1029.67	0.150
1029.84	0.152
1030.00	0.147
1030.16	0.148
1030.33	0.151
1030.49	0.147
1030.65	0.145
1030.82	0.161
1030.98	0.147
1031.14	0.147
1031.31	0.147
1031.47	0.144
1031.63	0.147
1031.79	0.145
1031.96	0.147
1032.12	0.148
1032.28	0.145
1032.45	0.149
1032.61	0.148
1032.77	0.147
1032.93	0.146
1033.10	0.147
1033.26	0.148
1033.42	0.146
1033.58	0.147
1033.75	0.148
1033.91	0.146
1034.07	0.150
1034.24	0.148
1034.40	0.145
1034.56	0.145
1034.72	0.145
1034.89	0.145
1035.05	0.143
1035.21	0.144
1035.37	0.142
1035.54	0.145
1035.70	0.143
1035.86	0.142
1036.02	0.144
1036.19	0.142
1036.35	0.141
1036.51	0.145
1036.67	0.144
1036.83	0.142
1037.00	0.140
1037.16	0.141
1037.32	0.141
1037.48	0.139
1037.65	0.144
1037.81	0.138
1037.97	0.138
1038.13	0.137
1038.29	0.136
1038.46	0.133
1038.62	0.137
1038.78	0.135
1038.94	0.132
1039.10	0.137
1039.27	0.132
1039.43	0.135
1039.59	0.134
1039.75	0.133
1039.91	0.132
1040.08	0.132
1040.24	0.134
1040.40	0.137
1040.56	0.136
1040.72	0.130
1040.89	0.132
1041.05	0.135
1041.21	0.133
1041.37	0.131
1041.53	0.137
1041.69	0.136
1041.86	0.134
1042.02	0.132
1042.18	0.129
1042.34	0.131
1042.50	0.135
1042.66	0.131
1042.83	0.130
1042.99	0.134
1043.15	0.128
1043.31	0.129
1043.47	0.133
1043.63	0.131
1043.79	0.130
1043.96	0.132
1044.12	0.135
1044.28	0.133
1044.44	0.135
1044.60	0.129
1044.76	0.127
1044.92	0.131
1045.09	0.134
1045.25	0.129
1045.41	0.129
1045.57	0.124
1045.73	0.124
1045.89	0.125
1046.05	0.126
1046.21	0.136
1046.38	0.117
1046.54	0.133
1046.70	0.130
1046.86	0.121
>>>>>End Processed Spectral Data<<<<<
