SpectraSuite Data File
++++++++++++++++++++++++++++++++++++
Date: Mon May 20 12:13:04 CDT 2013
User: Students
Dark Spectrum Present: Yes
Reference Spectrum Present: Yes
Number of Sampled Component Spectra: 1
Spectrometers: USB4H00887
Integration Time (usec): 60000 (USB4H00887)
Spectra Averaged: 5 (USB4H00887)
Boxcar Smoothing: 5 (USB4H00887)
Correct for Electrical Dark: No (USB4H00887)
Strobe/Lamp Enabled: No (USB4H00887)
Correct for Detector Non-linearity: No (USB4H00887)
Correct for Stray Light: No (USB4H00887)
Number of Pixels in Processed Spectrum: 3648
>>>>>Begin Processed Spectral Data<<<<<
345.83	-0.162
346.05	-0.162
346.26	-0.162
346.48	-0.000
346.70	0.240
346.92	0.085
347.14	0.084
347.35	0.082
347.57	0.572
347.79	-0.333
348.01	-0.234
348.23	-0.393
348.44	-0.000
348.66	0.646
348.88	-0.531
349.10	-0.333
349.32	0.181
349.53	-0.016
349.75	-0.010
349.97	0.008
350.19	0.067
350.41	0.095
350.62	-0.295
350.84	0.039
351.06	0.059
351.28	0.067
351.50	0.124
351.71	0.040
351.93	-0.056
352.15	-0.005
352.37	-0.049
352.58	-0.000
352.80	0.009
353.02	0.048
353.24	0.089
353.46	0.597
353.67	-0.237
353.89	0.089
354.11	0.080
354.33	0.102
354.54	0.147
354.76	0.291
354.98	0.447
355.20	0.300
355.41	0.120
355.63	0.182
355.85	0.087
356.07	1.137
356.28	0.084
356.50	0.152
356.72	0.049
356.94	0.124
357.15	0.160
357.37	-0.000
357.59	0.110
357.81	0.038
358.02	0.104
358.24	0.081
358.46	0.131
358.68	0.115
358.89	0.070
359.11	-0.000
359.33	0.060
359.55	-0.452
359.76	0.093
359.98	0.116
360.20	0.144
360.42	0.108
360.63	0.104
360.85	0.084
361.07	0.312
361.29	0.061
361.50	0.220
361.72	0.099
361.94	0.397
362.15	0.163
362.37	0.082
362.59	0.081
362.81	0.117
363.02	0.221
363.24	0.377
363.46	0.215
363.68	0.307
363.89	0.159
364.11	0.227
364.33	0.279
364.54	0.179
364.76	0.245
364.98	0.249
365.20	0.318
365.41	0.176
365.63	0.207
365.85	0.139
366.06	0.375
366.28	0.442
366.50	0.260
366.71	0.102
366.93	0.109
367.15	0.085
367.37	0.093
367.58	0.112
367.80	0.155
368.02	0.471
368.23	0.156
368.45	0.160
368.67	0.142
368.88	0.154
369.10	-0.000
369.32	0.203
369.53	0.116
369.75	0.171
369.97	0.478
370.19	0.238
370.40	0.088
370.62	0.263
370.84	0.108
371.05	0.489
371.27	0.124
371.49	0.136
371.70	0.165
371.92	0.250
372.14	0.118
372.35	0.127
372.57	0.142
372.79	0.341
373.00	0.098
373.22	0.156
373.44	0.194
373.65	0.138
373.87	0.208
374.09	1.051
374.30	0.158
374.52	0.200
374.74	0.157
374.95	0.880
375.17	0.186
375.39	-0.000
375.60	0.180
375.82	0.299
376.04	0.129
376.25	0.132
376.47	0.088
376.68	0.220
376.90	0.111
377.12	0.169
377.33	0.114
377.55	0.294
377.77	0.146
377.98	0.253
378.20	0.145
378.42	0.168
378.63	0.239
378.85	-0.000
379.07	0.167
379.28	0.797
379.50	0.468
379.71	0.226
379.93	0.130
380.15	0.184
380.36	0.274
380.58	0.193
380.80	0.541
381.01	0.140
381.23	0.101
381.44	0.108
381.66	0.125
381.88	0.153
382.09	-0.071
382.31	0.115
382.53	0.117
382.74	0.555
382.96	0.169
383.17	0.148
383.39	0.199
383.61	0.277
383.82	0.187
384.04	0.229
384.25	0.272
384.47	0.273
384.69	0.273
384.90	0.247
385.12	0.472
385.33	0.280
385.55	0.223
385.77	0.342
385.98	0.171
386.20	0.242
386.41	0.197
386.63	0.233
386.85	0.186
387.06	0.242
387.28	0.370
387.49	0.262
387.71	0.201
387.93	0.170
388.14	0.572
388.36	0.218
388.57	0.201
388.79	0.226
389.01	-0.000
389.22	0.282
389.44	0.223
389.65	0.185
389.87	0.176
390.08	0.197
390.30	0.154
390.52	0.287
390.73	0.298
390.95	0.207
391.16	0.207
391.38	-0.000
391.59	0.247
391.81	0.221
392.03	0.207
392.24	0.252
392.46	0.217
392.67	0.201
392.89	0.283
393.10	0.443
393.32	0.294
393.53	0.325
393.75	0.199
393.97	0.220
394.18	0.291
394.40	0.269
394.61	0.279
394.83	0.240
395.04	0.275
395.26	0.187
395.47	0.280
395.69	0.252
395.91	0.285
396.12	0.343
396.34	0.343
396.55	0.224
396.77	0.327
396.98	-0.000
397.20	0.406
397.41	0.493
397.63	0.328
397.84	0.302
398.06	0.279
398.27	0.277
398.49	0.334
398.71	0.242
398.92	0.304
399.14	0.410
399.35	0.517
399.57	0.504
399.78	0.321
400.00	0.307
400.21	0.393
400.43	0.311
400.64	0.340
400.86	0.840
401.07	0.425
401.29	0.361
401.50	0.386
401.72	0.583
401.93	0.346
402.15	0.420
402.36	0.389
402.58	0.301
402.79	0.331
403.01	0.541
403.22	0.407
403.44	0.283
403.65	0.447
403.87	0.490
404.08	0.379
404.30	0.648
404.51	0.344
404.73	0.423
404.94	0.371
405.16	0.389
405.37	0.292
405.59	0.548
405.80	0.319
406.02	0.384
406.23	0.385
406.45	0.427
406.66	0.441
406.88	0.290
407.09	0.445
407.31	0.343
407.52	0.415
407.74	0.348
407.95	0.412
408.17	0.399
408.38	0.432
408.60	0.277
408.81	0.469
409.03	0.347
409.24	0.354
409.45	0.401
409.67	0.406
409.88	0.363
410.10	0.474
410.31	0.385
410.53	0.357
410.74	0.493
410.96	0.497
411.17	0.528
411.39	0.404
411.60	0.371
411.82	0.421
412.03	0.390
412.24	0.378
412.46	0.541
412.67	0.449
412.89	0.455
413.10	0.443
413.32	0.394
413.53	0.447
413.75	0.470
413.96	0.361
414.17	0.471
414.39	0.488
414.60	0.402
414.82	0.528
415.03	0.412
415.25	0.457
415.46	0.322
415.68	0.462
415.89	0.862
416.10	0.700
416.32	0.369
416.53	0.451
416.75	0.429
416.96	0.509
417.18	0.431
417.39	0.413
417.60	0.410
417.82	0.596
418.03	0.515
418.25	0.427
418.46	0.433
418.67	0.407
418.89	0.430
419.10	0.452
419.32	0.615
419.53	0.570
419.75	0.486
419.96	0.430
420.17	0.532
420.39	0.506
420.60	0.529
420.82	0.662
421.03	0.523
421.24	0.441
421.46	0.485
421.67	0.540
421.89	0.460
422.10	0.492
422.31	0.480
422.53	0.682
422.74	0.498
422.96	0.401
423.17	0.443
423.38	0.542
423.60	0.464
423.81	0.561
424.03	0.475
424.24	0.527
424.45	0.527
424.67	0.519
424.88	0.462
425.09	0.503
425.31	0.459
425.52	0.485
425.74	0.554
425.95	0.598
426.16	0.476
426.38	0.548
426.59	0.506
426.80	0.579
427.02	0.626
427.23	0.490
427.45	0.634
427.66	0.614
427.87	0.487
428.09	0.515
428.30	0.568
428.51	0.558
428.73	0.611
428.94	0.546
429.15	0.537
429.37	0.514
429.58	0.545
429.79	0.501
430.01	0.599
430.22	0.587
430.44	0.601
430.65	0.543
430.86	0.580
431.08	0.562
431.29	0.509
431.50	0.599
431.72	0.788
431.93	0.635
432.14	0.485
432.36	0.538
432.57	0.550
432.78	0.567
433.00	0.517
433.21	0.503
433.42	0.621
433.64	0.552
433.85	0.621
434.06	0.503
434.28	0.532
434.49	0.544
434.70	0.563
434.92	0.577
435.13	0.616
435.34	0.625
435.56	0.597
435.77	0.596
435.98	0.754
436.20	0.637
436.41	0.557
436.62	0.543
436.83	0.623
437.05	0.692
437.26	0.597
437.47	0.530
437.69	0.580
437.90	0.534
438.11	0.524
438.33	0.568
438.54	0.579
438.75	0.719
438.97	0.703
439.18	0.536
439.39	0.561
439.60	0.609
439.82	0.578
440.03	0.534
440.24	0.774
440.46	0.588
440.67	0.568
440.88	0.610
441.10	0.576
441.31	0.580
441.52	0.631
441.73	0.699
441.95	0.617
442.16	0.578
442.37	0.892
442.58	0.560
442.80	0.553
443.01	0.712
443.22	0.656
443.44	0.557
443.65	0.658
443.86	0.651
444.07	0.704
444.29	0.622
444.50	0.782
444.71	0.598
444.92	0.564
445.14	0.710
445.35	0.740
445.56	0.583
445.78	0.685
445.99	0.680
446.20	0.591
446.41	0.659
446.63	0.653
446.84	0.618
447.05	0.619
447.26	0.732
447.48	0.626
447.69	0.604
447.90	0.688
448.11	0.611
448.33	0.635
448.54	0.649
448.75	0.676
448.96	0.687
449.18	0.721
449.39	0.647
449.60	0.638
449.81	0.768
450.03	0.666
450.24	0.714
450.45	0.675
450.66	0.662
450.87	0.692
451.09	0.655
451.30	0.635
451.51	0.700
451.72	0.708
451.94	0.715
452.15	0.770
452.36	0.651
452.57	0.673
452.78	0.674
453.00	0.701
453.21	0.663
453.42	0.638
453.63	0.721
453.85	0.694
454.06	0.690
454.27	0.810
454.48	0.727
454.69	0.663
454.91	0.719
455.12	0.631
455.33	0.700
455.54	0.715
455.75	0.687
455.97	0.708
456.18	0.699
456.39	0.702
456.60	0.716
456.81	0.663
457.03	0.664
457.24	0.669
457.45	0.749
457.66	0.705
457.87	0.667
458.09	0.684
458.30	0.613
458.51	0.713
458.72	0.731
458.93	0.749
459.15	0.664
459.36	0.729
459.57	0.746
459.78	0.778
459.99	0.706
460.20	0.675
460.42	0.742
460.63	0.704
460.84	0.692
461.05	0.720
461.26	0.769
461.47	0.701
461.69	0.738
461.90	0.769
462.11	0.735
462.32	0.781
462.53	0.730
462.74	0.812
462.96	0.713
463.17	0.705
463.38	0.729
463.59	0.821
463.80	0.694
464.01	0.717
464.23	0.792
464.44	0.755
464.65	0.759
464.86	0.776
465.07	0.782
465.28	0.747
465.49	0.765
465.71	0.731
465.92	0.760
466.13	0.801
466.34	0.746
466.55	0.790
466.76	0.763
466.97	0.785
467.19	0.780
467.40	0.810
467.61	0.818
467.82	0.750
468.03	0.733
468.24	0.796
468.45	0.820
468.66	0.801
468.88	0.812
469.09	0.808
469.30	0.846
469.51	0.777
469.72	0.811
469.93	0.788
470.14	0.770
470.35	0.847
470.57	0.808
470.78	0.759
470.99	0.867
471.20	0.814
471.41	0.779
471.62	0.820
471.83	0.797
472.04	0.820
472.25	0.851
472.47	0.781
472.68	0.782
472.89	0.786
473.10	0.820
473.31	0.781
473.52	0.824
473.73	0.841
473.94	0.781
474.15	0.804
474.36	0.805
474.57	0.829
474.79	0.812
475.00	0.813
475.21	0.801
475.42	0.871
475.63	0.795
475.84	0.823
476.05	0.827
476.26	0.803
476.47	0.828
476.68	0.864
476.89	0.804
477.10	0.843
477.32	0.831
477.53	0.873
477.74	0.812
477.95	0.845
478.16	0.802
478.37	0.838
478.58	0.842
478.79	0.853
479.00	0.855
479.21	0.824
479.42	0.853
479.63	0.859
479.84	0.827
480.05	0.828
480.26	0.850
480.47	0.866
480.69	0.867
480.90	0.839
481.11	0.835
481.32	0.882
481.53	0.837
481.74	0.880
481.95	0.851
482.16	0.866
482.37	0.872
482.58	0.846
482.79	0.860
483.00	0.882
483.21	0.841
483.42	0.817
483.63	0.877
483.84	0.896
484.05	0.886
484.26	0.863
484.47	0.861
484.68	0.830
484.89	0.835
485.10	0.872
485.31	0.858
485.52	0.858
485.73	0.862
485.94	0.895
486.15	0.855
486.37	0.866
486.58	0.840
486.79	0.853
487.00	0.894
487.21	0.888
487.42	0.883
487.63	0.884
487.84	0.902
488.05	0.898
488.26	0.866
488.47	0.870
488.68	0.894
488.89	0.876
489.10	0.869
489.31	0.876
489.52	0.903
489.73	0.877
489.94	0.904
490.15	0.870
490.36	0.899
490.57	0.863
490.78	0.849
490.99	0.875
491.20	0.931
491.41	0.900
491.62	0.854
491.83	0.875
492.04	0.873
492.25	0.879
492.45	0.877
492.66	0.897
492.87	0.888
493.08	0.880
493.29	0.869
493.50	0.861
493.71	0.867
493.92	0.866
494.13	0.878
494.34	0.896
494.55	0.900
494.76	0.922
494.97	0.917
495.18	0.893
495.39	0.906
495.60	0.869
495.81	0.874
496.02	0.889
496.23	0.886
496.44	0.909
496.65	0.901
496.86	0.906
497.07	0.928
497.28	0.924
497.49	0.884
497.70	0.885
497.91	0.903
498.12	0.888
498.32	0.918
498.53	0.904
498.74	0.894
498.95	0.914
499.16	0.880
499.37	0.881
499.58	0.888
499.79	0.909
500.00	0.907
500.21	0.925
500.42	0.885
500.63	0.886
500.84	0.902
501.05	0.889
501.26	0.907
501.46	0.933
501.67	0.907
501.88	0.909
502.09	0.891
502.30	0.899
502.51	0.933
502.72	0.898
502.93	0.909
503.14	0.924
503.35	0.903
503.56	0.899
503.77	0.923
503.97	0.906
504.18	0.905
504.39	0.930
504.60	0.904
504.81	0.925
505.02	0.917
505.23	0.918
505.44	0.904
505.65	0.910
505.86	0.897
506.07	0.945
506.27	0.915
506.48	0.920
506.69	0.909
506.90	0.924
507.11	0.925
507.32	0.908
507.53	0.914
507.74	0.908
507.95	0.915
508.15	0.919
508.36	0.923
508.57	0.929
508.78	0.918
508.99	0.919
509.20	0.900
509.41	0.917
509.62	0.907
509.82	0.904
510.03	0.912
510.24	0.914
510.45	0.931
510.66	0.925
510.87	0.923
511.08	0.892
511.29	0.921
511.49	0.906
511.70	0.941
511.91	0.893
512.12	0.891
512.33	0.916
512.54	0.927
512.75	0.914
512.95	0.934
513.16	0.925
513.37	0.906
513.58	0.933
513.79	0.904
514.00	0.907
514.20	0.921
514.41	0.911
514.62	0.887
514.83	0.917
515.04	0.909
515.25	0.894
515.46	0.904
515.66	0.904
515.87	0.912
516.08	0.892
516.29	0.909
516.50	0.895
516.71	0.890
516.91	0.896
517.12	0.906
517.33	0.895
517.54	0.883
517.75	0.883
517.95	0.894
518.16	0.902
518.37	0.878
518.58	0.882
518.79	0.863
519.00	0.886
519.20	0.893
519.41	0.873
519.62	0.887
519.83	0.894
520.04	0.871
520.24	0.870
520.45	0.875
520.66	0.890
520.87	0.861
521.08	0.859
521.28	0.864
521.49	0.876
521.70	0.855
521.91	0.864
522.12	0.852
522.32	0.868
522.53	0.853
522.74	0.843
522.95	0.851
523.16	0.854
523.36	0.861
523.57	0.846
523.78	0.841
523.99	0.843
524.20	0.839
524.40	0.848
524.61	0.850
524.82	0.830
525.03	0.836
525.23	0.836
525.44	0.824
525.65	0.822
525.86	0.838
526.06	0.818
526.27	0.816
526.48	0.823
526.69	0.809
526.90	0.812
527.10	0.838
527.31	0.803
527.52	0.797
527.73	0.791
527.93	0.797
528.14	0.802
528.35	0.794
528.56	0.796
528.76	0.790
528.97	0.784
529.18	0.776
529.39	0.775
529.59	0.778
529.80	0.801
530.01	0.781
530.22	0.781
530.42	0.758
530.63	0.772
530.84	0.753
531.05	0.763
531.25	0.766
531.46	0.761
531.67	0.746
531.88	0.760
532.08	0.754
532.29	0.750
532.50	0.745
532.70	0.739
532.91	0.731
533.12	0.734
533.33	0.752
533.53	0.730
533.74	0.730
533.95	0.733
534.15	0.724
534.36	0.726
534.57	0.713
534.78	0.713
534.98	0.721
535.19	0.699
535.40	0.700
535.60	0.714
535.81	0.697
536.02	0.699
536.23	0.692
536.43	0.694
536.64	0.683
536.85	0.690
537.05	0.696
537.26	0.678
537.47	0.680
537.67	0.671
537.88	0.667
538.09	0.673
538.30	0.665
538.50	0.658
538.71	0.666
538.92	0.655
539.12	0.651
539.33	0.647
539.54	0.647
539.74	0.651
539.95	0.643
540.16	0.641
540.36	0.634
540.57	0.634
540.78	0.628
540.98	0.628
541.19	0.627
541.40	0.618
541.60	0.627
541.81	0.622
542.02	0.622
542.22	0.614
542.43	0.611
542.64	0.606
542.84	0.607
543.05	0.600
543.26	0.599
543.46	0.601
543.67	0.600
543.88	0.596
544.08	0.588
544.29	0.583
544.50	0.583
544.70	0.584
544.91	0.577
545.12	0.578
545.32	0.575
545.53	0.578
545.74	0.569
545.94	0.567
546.15	0.565
546.35	0.562
546.56	0.559
546.77	0.556
546.97	0.554
547.18	0.547
547.39	0.547
547.59	0.546
547.80	0.542
548.01	0.546
548.21	0.542
548.42	0.536
548.62	0.536
548.83	0.534
549.04	0.531
549.24	0.525
549.45	0.525
549.65	0.522
549.86	0.518
550.07	0.517
550.27	0.515
550.48	0.521
550.69	0.509
550.89	0.509
551.10	0.506
551.30	0.505
551.51	0.505
551.72	0.496
551.92	0.497
552.13	0.498
552.33	0.498
552.54	0.492
552.75	0.486
552.95	0.488
553.16	0.483
553.36	0.481
553.57	0.480
553.78	0.479
553.98	0.480
554.19	0.473
554.39	0.470
554.60	0.473
554.80	0.473
555.01	0.468
555.22	0.469
555.42	0.467
555.63	0.461
555.83	0.465
556.04	0.458
556.25	0.460
556.45	0.451
556.66	0.449
556.86	0.452
557.07	0.450
557.27	0.449
557.48	0.445
557.68	0.443
557.89	0.443
558.10	0.440
558.30	0.437
558.51	0.436
558.71	0.435
558.92	0.431
559.12	0.433
559.33	0.436
559.54	0.431
559.74	0.427
559.95	0.425
560.15	0.424
560.36	0.422
560.56	0.418
560.77	0.418
560.97	0.418
561.18	0.414
561.38	0.413
561.59	0.416
561.79	0.412
562.00	0.410
562.21	0.407
562.41	0.407
562.62	0.405
562.82	0.404
563.03	0.401
563.23	0.400
563.44	0.400
563.64	0.397
563.85	0.397
564.05	0.392
564.26	0.392
564.46	0.391
564.67	0.392
564.87	0.388
565.08	0.386
565.28	0.386
565.49	0.387
565.69	0.384
565.90	0.381
566.10	0.383
566.31	0.377
566.51	0.379
566.72	0.380
566.92	0.374
567.13	0.373
567.33	0.372
567.54	0.371
567.74	0.370
567.95	0.367
568.15	0.368
568.36	0.368
568.56	0.367
568.77	0.362
568.97	0.361
569.18	0.362
569.38	0.360
569.59	0.361
569.79	0.359
570.00	0.356
570.20	0.356
570.41	0.355
570.61	0.353
570.82	0.354
571.02	0.350
571.23	0.351
571.43	0.347
571.64	0.346
571.84	0.345
572.05	0.344
572.25	0.343
572.45	0.342
572.66	0.339
572.86	0.338
573.07	0.337
573.27	0.337
573.48	0.336
573.68	0.333
573.89	0.332
574.09	0.333
574.30	0.332
574.50	0.330
574.70	0.331
574.91	0.328
575.11	0.329
575.32	0.328
575.52	0.324
575.73	0.324
575.93	0.324
576.14	0.323
576.34	0.321
576.54	0.320
576.75	0.319
576.95	0.318
577.16	0.315
577.36	0.314
577.57	0.314
577.77	0.313
577.97	0.311
578.18	0.312
578.38	0.309
578.59	0.307
578.79	0.306
579.00	0.306
579.20	0.304
579.40	0.304
579.61	0.304
579.81	0.303
580.02	0.301
580.22	0.300
580.42	0.299
580.63	0.300
580.83	0.299
581.04	0.298
581.24	0.297
581.45	0.297
581.65	0.296
581.85	0.295
582.06	0.293
582.26	0.293
582.47	0.292
582.67	0.292
582.87	0.291
583.08	0.288
583.28	0.288
583.48	0.287
583.69	0.284
583.89	0.285
584.10	0.285
584.30	0.283
584.50	0.282
584.71	0.280
584.91	0.280
585.12	0.278
585.32	0.280
585.52	0.278
585.73	0.276
585.93	0.276
586.13	0.275
586.34	0.274
586.54	0.273
586.75	0.272
586.95	0.272
587.15	0.272
587.36	0.270
587.56	0.269
587.76	0.268
587.97	0.267
588.17	0.266
588.37	0.266
588.58	0.266
588.78	0.264
588.98	0.265
589.19	0.263
589.39	0.261
589.60	0.264
589.80	0.261
590.00	0.260
590.21	0.260
590.41	0.259
590.61	0.258
590.82	0.258
591.02	0.257
591.22	0.255
591.43	0.255
591.63	0.254
591.83	0.254
592.04	0.253
592.24	0.253
592.44	0.251
592.65	0.250
592.85	0.250
593.05	0.250
593.26	0.249
593.46	0.249
593.66	0.248
593.86	0.248
594.07	0.246
594.27	0.246
594.47	0.245
594.68	0.244
594.88	0.245
595.08	0.244
595.29	0.244
595.49	0.242
595.69	0.241
595.90	0.240
596.10	0.240
596.30	0.240
596.50	0.238
596.71	0.238
596.91	0.237
597.11	0.237
597.32	0.237
597.52	0.236
597.72	0.235
597.93	0.235
598.13	0.234
598.33	0.234
598.53	0.234
598.74	0.233
598.94	0.232
599.14	0.232
599.35	0.232
599.55	0.231
599.75	0.230
599.95	0.230
600.16	0.230
600.36	0.229
600.56	0.229
600.76	0.227
600.97	0.226
601.17	0.226
601.37	0.226
601.58	0.225
601.78	0.225
601.98	0.224
602.18	0.222
602.39	0.222
602.59	0.222
602.79	0.221
602.99	0.221
603.20	0.220
603.40	0.220
603.60	0.220
603.80	0.219
604.01	0.219
604.21	0.219
604.41	0.219
604.61	0.218
604.82	0.218
605.02	0.218
605.22	0.217
605.42	0.217
605.62	0.217
605.83	0.216
606.03	0.215
606.23	0.215
606.43	0.214
606.64	0.214
606.84	0.214
607.04	0.213
607.24	0.213
607.45	0.213
607.65	0.211
607.85	0.212
608.05	0.210
608.25	0.210
608.46	0.210
608.66	0.210
608.86	0.209
609.06	0.207
609.26	0.207
609.47	0.207
609.67	0.206
609.87	0.207
610.07	0.206
610.28	0.205
610.48	0.205
610.68	0.205
610.88	0.203
611.08	0.204
611.29	0.203
611.49	0.202
611.69	0.203
611.89	0.201
612.09	0.201
612.29	0.200
612.50	0.200
612.70	0.200
612.90	0.199
613.10	0.199
613.30	0.198
613.51	0.199
613.71	0.199
613.91	0.203
614.11	0.199
614.31	0.198
614.51	0.198
614.72	0.198
614.92	0.197
615.12	0.196
615.32	0.197
615.52	0.196
615.72	0.197
615.93	0.197
616.13	0.196
616.33	0.195
616.53	0.195
616.73	0.195
616.93	0.194
617.14	0.194
617.34	0.194
617.54	0.194
617.74	0.194
617.94	0.193
618.14	0.192
618.34	0.192
618.55	0.191
618.75	0.192
618.95	0.192
619.15	0.191
619.35	0.190
619.55	0.189
619.75	0.191
619.96	0.189
620.16	0.189
620.36	0.189
620.56	0.189
620.76	0.189
620.96	0.189
621.16	0.188
621.36	0.188
621.57	0.189
621.77	0.190
621.97	0.188
622.17	0.188
622.37	0.188
622.57	0.188
622.77	0.187
622.97	0.186
623.18	0.186
623.38	0.186
623.58	0.185
623.78	0.185
623.98	0.184
624.18	0.183
624.38	0.183
624.58	0.183
624.78	0.184
624.98	0.184
625.19	0.184
625.39	0.184
625.59	0.183
625.79	0.183
625.99	0.183
626.19	0.183
626.39	0.183
626.59	0.183
626.79	0.182
626.99	0.182
627.19	0.182
627.40	0.182
627.60	0.181
627.80	0.181
628.00	0.181
628.20	0.181
628.40	0.180
628.60	0.180
628.80	0.179
629.00	0.179
629.20	0.178
629.40	0.178
629.60	0.177
629.80	0.177
630.00	0.177
630.20	0.176
630.41	0.175
630.61	0.175
630.81	0.175
631.01	0.174
631.21	0.173
631.41	0.173
631.61	0.174
631.81	0.173
632.01	0.173
632.21	0.174
632.41	0.172
632.61	0.173
632.81	0.173
633.01	0.173
633.21	0.173
633.41	0.174
633.61	0.172
633.81	0.172
634.01	0.172
634.21	0.172
634.41	0.171
634.61	0.171
634.81	0.171
635.01	0.171
635.22	0.171
635.42	0.170
635.62	0.170
635.82	0.170
636.02	0.170
636.22	0.170
636.42	0.169
636.62	0.170
636.82	0.169
637.02	0.169
637.22	0.169
637.42	0.169
637.62	0.168
637.82	0.169
638.02	0.168
638.22	0.168
638.42	0.167
638.62	0.166
638.82	0.166
639.02	0.166
639.22	0.166
639.42	0.165
639.62	0.165
639.82	0.164
640.02	0.164
640.22	0.164
640.42	0.164
640.62	0.164
640.82	0.164
641.02	0.163
641.22	0.164
641.42	0.163
641.61	0.163
641.81	0.163
642.01	0.163
642.21	0.163
642.41	0.163
642.61	0.162
642.81	0.161
643.01	0.161
643.21	0.161
643.41	0.161
643.61	0.160
643.81	0.160
644.01	0.159
644.21	0.159
644.41	0.159
644.61	0.159
644.81	0.159
645.01	0.159
645.21	0.159
645.41	0.159
645.61	0.159
645.81	0.158
646.01	0.158
646.21	0.159
646.40	0.158
646.60	0.158
646.80	0.158
647.00	0.157
647.20	0.156
647.40	0.156
647.60	0.157
647.80	0.156
648.00	0.156
648.20	0.156
648.40	0.155
648.60	0.155
648.80	0.155
649.00	0.155
649.20	0.155
649.39	0.154
649.59	0.154
649.79	0.153
649.99	0.154
650.19	0.153
650.39	0.153
650.59	0.153
650.79	0.153
650.99	0.152
651.19	0.152
651.39	0.152
651.58	0.152
651.78	0.151
651.98	0.151
652.18	0.151
652.38	0.151
652.58	0.151
652.78	0.150
652.98	0.150
653.18	0.150
653.38	0.150
653.57	0.150
653.77	0.150
653.97	0.149
654.17	0.149
654.37	0.148
654.57	0.148
654.77	0.148
654.97	0.147
655.16	0.147
655.36	0.147
655.56	0.146
655.76	0.146
655.96	0.146
656.16	0.145
656.36	0.146
656.56	0.146
656.75	0.146
656.95	0.145
657.15	0.145
657.35	0.145
657.55	0.144
657.75	0.144
657.95	0.144
658.14	0.144
658.34	0.144
658.54	0.143
658.74	0.143
658.94	0.143
659.14	0.143
659.34	0.142
659.53	0.142
659.73	0.142
659.93	0.141
660.13	0.141
660.33	0.142
660.53	0.141
660.72	0.142
660.92	0.141
661.12	0.140
661.32	0.140
661.52	0.140
661.72	0.140
661.91	0.139
662.11	0.139
662.31	0.139
662.51	0.139
662.71	0.139
662.90	0.138
663.10	0.138
663.30	0.138
663.50	0.138
663.70	0.137
663.90	0.137
664.09	0.137
664.29	0.136
664.49	0.135
664.69	0.135
664.89	0.135
665.08	0.135
665.28	0.135
665.48	0.134
665.68	0.133
665.88	0.133
666.07	0.133
666.27	0.133
666.47	0.133
666.67	0.134
666.87	0.133
667.06	0.133
667.26	0.133
667.46	0.132
667.66	0.133
667.85	0.133
668.05	0.133
668.25	0.133
668.45	0.132
668.65	0.132
668.84	0.132
669.04	0.132
669.24	0.131
669.44	0.130
669.63	0.130
669.83	0.130
670.03	0.129
670.23	0.129
670.42	0.129
670.62	0.128
670.82	0.128
671.02	0.128
671.22	0.127
671.41	0.127
671.61	0.127
671.81	0.128
672.01	0.128
672.20	0.127
672.40	0.127
672.60	0.127
672.80	0.127
672.99	0.127
673.19	0.126
673.39	0.126
673.58	0.126
673.78	0.126
673.98	0.125
674.18	0.125
674.37	0.125
674.57	0.124
674.77	0.124
674.97	0.124
675.16	0.124
675.36	0.124
675.56	0.124
675.75	0.124
675.95	0.123
676.15	0.123
676.35	0.123
676.54	0.123
676.74	0.123
676.94	0.123
677.13	0.123
677.33	0.122
677.53	0.122
677.73	0.122
677.92	0.122
678.12	0.122
678.32	0.121
678.51	0.121
678.71	0.121
678.91	0.120
679.11	0.120
679.30	0.120
679.50	0.120
679.70	0.119
679.89	0.119
680.09	0.120
680.29	0.119
680.48	0.119
680.68	0.118
680.88	0.118
681.07	0.118
681.27	0.118
681.47	0.118
681.66	0.118
681.86	0.117
682.06	0.117
682.25	0.117
682.45	0.117
682.65	0.117
682.84	0.116
683.04	0.116
683.24	0.116
683.43	0.116
683.63	0.116
683.83	0.116
684.02	0.116
684.22	0.116
684.42	0.115
684.61	0.115
684.81	0.115
685.01	0.115
685.20	0.114
685.40	0.114
685.60	0.114
685.79	0.114
685.99	0.114
686.19	0.113
686.38	0.113
686.58	0.114
686.77	0.114
686.97	0.113
687.17	0.113
687.36	0.113
687.56	0.113
687.76	0.112
687.95	0.112
688.15	0.112
688.34	0.112
688.54	0.111
688.74	0.111
688.93	0.110
689.13	0.110
689.33	0.110
689.52	0.110
689.72	0.110
689.91	0.110
690.11	0.109
690.31	0.109
690.50	0.109
690.70	0.109
690.89	0.109
691.09	0.109
691.29	0.109
691.48	0.108
691.68	0.108
691.87	0.108
692.07	0.108
692.27	0.108
692.46	0.108
692.66	0.107
692.85	0.107
693.05	0.107
693.25	0.107
693.44	0.106
693.64	0.107
693.83	0.107
694.03	0.106
694.22	0.106
694.42	0.106
694.62	0.106
694.81	0.107
695.01	0.107
695.20	0.106
695.40	0.105
695.59	0.105
695.79	0.105
695.99	0.105
696.18	0.104
696.38	0.104
696.57	0.104
696.77	0.104
696.96	0.103
697.16	0.103
697.36	0.103
697.55	0.103
697.75	0.103
697.94	0.103
698.14	0.103
698.33	0.103
698.53	0.103
698.72	0.102
698.92	0.102
699.11	0.102
699.31	0.102
699.51	0.102
699.70	0.102
699.90	0.102
700.09	0.102
700.29	0.101
700.48	0.101
700.68	0.101
700.87	0.101
701.07	0.101
701.26	0.100
701.46	0.100
701.65	0.100
701.85	0.100
702.04	0.100
702.24	0.100
702.43	0.100
702.63	0.099
702.82	0.099
703.02	0.099
703.21	0.099
703.41	0.099
703.60	0.098
703.80	0.098
703.99	0.098
704.19	0.098
704.38	0.098
704.58	0.097
704.77	0.098
704.97	0.097
705.16	0.098
705.36	0.098
705.55	0.098
705.75	0.097
705.94	0.097
706.14	0.097
706.33	0.097
706.53	0.097
706.72	0.097
706.92	0.096
707.11	0.097
707.31	0.096
707.50	0.096
707.70	0.096
707.89	0.096
708.09	0.096
708.28	0.096
708.48	0.097
708.67	0.096
708.86	0.096
709.06	0.096
709.25	0.096
709.45	0.096
709.64	0.095
709.84	0.095
710.03	0.095
710.23	0.094
710.42	0.094
710.62	0.094
710.81	0.094
711.00	0.094
711.20	0.094
711.39	0.093
711.59	0.093
711.78	0.094
711.98	0.094
712.17	0.094
712.37	0.093
712.56	0.094
712.75	0.094
712.95	0.094
713.14	0.094
713.34	0.094
713.53	0.094
713.73	0.095
713.92	0.095
714.11	0.095
714.31	0.095
714.50	0.095
714.70	0.095
714.89	0.095
715.08	0.095
715.28	0.095
715.47	0.094
715.67	0.094
715.86	0.094
716.06	0.094
716.25	0.094
716.44	0.093
716.64	0.093
716.83	0.092
717.03	0.092
717.22	0.092
717.41	0.092
717.61	0.092
717.80	0.092
717.99	0.092
718.19	0.092
718.38	0.092
718.58	0.091
718.77	0.092
718.96	0.092
719.16	0.091
719.35	0.091
719.55	0.091
719.74	0.091
719.93	0.091
720.13	0.091
720.32	0.090
720.51	0.090
720.71	0.090
720.90	0.090
721.10	0.090
721.29	0.090
721.48	0.090
721.68	0.090
721.87	0.090
722.06	0.090
722.26	0.091
722.45	0.090
722.64	0.090
722.84	0.090
723.03	0.090
723.22	0.090
723.42	0.090
723.61	0.090
723.80	0.090
724.00	0.091
724.19	0.090
724.38	0.090
724.58	0.090
724.77	0.090
724.96	0.090
725.16	0.090
725.35	0.090
725.54	0.090
725.74	0.090
725.93	0.090
726.12	0.090
726.32	0.090
726.51	0.090
726.70	0.090
726.90	0.090
727.09	0.090
727.28	0.090
727.48	0.090
727.67	0.090
727.86	0.090
728.06	0.090
728.25	0.090
728.44	0.090
728.64	0.090
728.83	0.090
729.02	0.089
729.21	0.090
729.41	0.089
729.60	0.089
729.79	0.089
729.99	0.089
730.18	0.089
730.37	0.089
730.56	0.089
730.76	0.089
730.95	0.089
731.14	0.089
731.34	0.089
731.53	0.089
731.72	0.089
731.91	0.090
732.11	0.089
732.30	0.089
732.49	0.090
732.69	0.090
732.88	0.090
733.07	0.090
733.26	0.090
733.46	0.089
733.65	0.090
733.84	0.089
734.03	0.090
734.23	0.089
734.42	0.089
734.61	0.089
734.80	0.089
735.00	0.089
735.19	0.089
735.38	0.089
735.57	0.089
735.77	0.089
735.96	0.089
736.15	0.089
736.34	0.089
736.54	0.089
736.73	0.089
736.92	0.089
737.11	0.089
737.31	0.089
737.50	0.089
737.69	0.089
737.88	0.089
738.07	0.089
738.27	0.089
738.46	0.089
738.65	0.089
738.84	0.089
739.04	0.089
739.23	0.089
739.42	0.089
739.61	0.089
739.80	0.089
740.00	0.089
740.19	0.089
740.38	0.089
740.57	0.089
740.76	0.089
740.96	0.088
741.15	0.088
741.34	0.088
741.53	0.088
741.72	0.088
741.92	0.088
742.11	0.088
742.30	0.088
742.49	0.088
742.68	0.088
742.88	0.088
743.07	0.088
743.26	0.088
743.45	0.088
743.64	0.087
743.84	0.087
744.03	0.087
744.22	0.087
744.41	0.087
744.60	0.087
744.79	0.087
744.99	0.087
745.18	0.087
745.37	0.086
745.56	0.087
745.75	0.087
745.94	0.086
746.14	0.086
746.33	0.087
746.52	0.087
746.71	0.087
746.90	0.086
747.09	0.086
747.28	0.086
747.48	0.087
747.67	0.086
747.86	0.086
748.05	0.086
748.24	0.086
748.43	0.085
748.62	0.085
748.82	0.085
749.01	0.085
749.20	0.085
749.39	0.085
749.58	0.085
749.77	0.085
749.96	0.085
750.16	0.086
750.35	0.085
750.54	0.085
750.73	0.085
750.92	0.086
751.11	0.085
751.30	0.086
751.49	0.085
751.68	0.085
751.88	0.085
752.07	0.085
752.26	0.085
752.45	0.085
752.64	0.085
752.83	0.085
753.02	0.084
753.21	0.084
753.40	0.084
753.60	0.084
753.79	0.084
753.98	0.084
754.17	0.083
754.36	0.083
754.55	0.083
754.74	0.084
754.93	0.083
755.12	0.084
755.31	0.084
755.50	0.083
755.70	0.083
755.89	0.083
756.08	0.083
756.27	0.083
756.46	0.083
756.65	0.083
756.84	0.082
757.03	0.082
757.22	0.081
757.41	0.082
757.60	0.082
757.79	0.082
757.98	0.083
758.17	0.082
758.36	0.082
758.56	0.082
758.75	0.082
758.94	0.082
759.13	0.082
759.32	0.082
759.51	0.082
759.70	0.082
759.89	0.082
760.08	0.082
760.27	0.082
760.46	0.082
760.65	0.082
760.84	0.082
761.03	0.082
761.22	0.082
761.41	0.082
761.60	0.082
761.79	0.081
761.98	0.081
762.17	0.080
762.36	0.080
762.55	0.080
762.74	0.080
762.93	0.080
763.12	0.080
763.31	0.080
763.50	0.080
763.69	0.080
763.88	0.079
764.07	0.079
764.26	0.080
764.45	0.080
764.64	0.080
764.83	0.079
765.02	0.079
765.21	0.079
765.40	0.079
765.59	0.079
765.78	0.080
765.97	0.080
766.16	0.080
766.35	0.080
766.54	0.080
766.73	0.080
766.92	0.080
767.11	0.080
767.30	0.081
767.49	0.080
767.68	0.080
767.87	0.080
768.06	0.080
768.25	0.080
768.44	0.080
768.63	0.080
768.82	0.080
769.01	0.079
769.20	0.079
769.39	0.080
769.58	0.080
769.77	0.079
769.96	0.079
770.15	0.079
770.34	0.079
770.53	0.079
770.72	0.079
770.91	0.078
771.10	0.078
771.29	0.078
771.47	0.078
771.66	0.078
771.85	0.078
772.04	0.078
772.23	0.078
772.42	0.078
772.61	0.078
772.80	0.078
772.99	0.078
773.18	0.078
773.37	0.078
773.56	0.078
773.75	0.078
773.94	0.078
774.13	0.078
774.31	0.078
774.50	0.078
774.69	0.078
774.88	0.078
775.07	0.078
775.26	0.078
775.45	0.078
775.64	0.078
775.83	0.077
776.02	0.077
776.21	0.077
776.40	0.078
776.58	0.077
776.77	0.078
776.96	0.078
777.15	0.078
777.34	0.078
777.53	0.078
777.72	0.079
777.91	0.078
778.10	0.078
778.28	0.078
778.47	0.078
778.66	0.077
778.85	0.077
779.04	0.076
779.23	0.076
779.42	0.076
779.61	0.076
779.79	0.076
779.98	0.076
780.17	0.076
780.36	0.076
780.55	0.076
780.74	0.076
780.93	0.076
781.12	0.076
781.30	0.076
781.49	0.076
781.68	0.076
781.87	0.076
782.06	0.076
782.25	0.076
782.44	0.076
782.62	0.076
782.81	0.076
783.00	0.076
783.19	0.076
783.38	0.076
783.57	0.076
783.75	0.075
783.94	0.075
784.13	0.075
784.32	0.075
784.51	0.075
784.70	0.075
784.88	0.075
785.07	0.075
785.26	0.075
785.45	0.075
785.64	0.074
785.83	0.075
786.01	0.075
786.20	0.075
786.39	0.076
786.58	0.076
786.77	0.075
786.95	0.075
787.14	0.075
787.33	0.075
787.52	0.075
787.71	0.075
787.90	0.074
788.08	0.074
788.27	0.074
788.46	0.073
788.65	0.074
788.84	0.074
789.02	0.074
789.21	0.074
789.40	0.074
789.59	0.074
789.77	0.074
789.96	0.074
790.15	0.074
790.34	0.074
790.53	0.074
790.71	0.073
790.90	0.073
791.09	0.073
791.28	0.073
791.46	0.074
791.65	0.073
791.84	0.073
792.03	0.073
792.22	0.073
792.40	0.073
792.59	0.073
792.78	0.073
792.97	0.074
793.15	0.074
793.34	0.073
793.53	0.073
793.72	0.073
793.90	0.072
794.09	0.073
794.28	0.073
794.47	0.073
794.65	0.072
794.84	0.072
795.03	0.073
795.22	0.073
795.40	0.073
795.59	0.072
795.78	0.073
795.97	0.073
796.15	0.073
796.34	0.073
796.53	0.073
796.71	0.074
796.90	0.074
797.09	0.074
797.28	0.074
797.46	0.073
797.65	0.074
797.84	0.074
798.02	0.073
798.21	0.073
798.40	0.073
798.59	0.073
798.77	0.072
798.96	0.072
799.15	0.072
799.33	0.072
799.52	0.072
799.71	0.072
799.90	0.072
800.08	0.072
800.27	0.072
800.46	0.072
800.64	0.072
800.83	0.072
801.02	0.072
801.20	0.072
801.39	0.072
801.58	0.072
801.76	0.072
801.95	0.072
802.14	0.072
802.32	0.072
802.51	0.072
802.70	0.072
802.88	0.071
803.07	0.071
803.26	0.071
803.44	0.071
803.63	0.071
803.82	0.071
804.00	0.071
804.19	0.071
804.38	0.071
804.56	0.071
804.75	0.071
804.94	0.071
805.12	0.071
805.31	0.072
805.50	0.072
805.68	0.072
805.87	0.072
806.06	0.071
806.24	0.072
806.43	0.071
806.62	0.071
806.80	0.071
806.99	0.071
807.17	0.071
807.36	0.071
807.55	0.071
807.73	0.071
807.92	0.071
808.11	0.071
808.29	0.071
808.48	0.070
808.66	0.071
808.85	0.070
809.04	0.070
809.22	0.070
809.41	0.070
809.59	0.070
809.78	0.070
809.97	0.070
810.15	0.070
810.34	0.070
810.53	0.070
810.71	0.070
810.90	0.071
811.08	0.070
811.27	0.070
811.45	0.071
811.64	0.071
811.83	0.070
812.01	0.071
812.20	0.070
812.38	0.071
812.57	0.071
812.76	0.070
812.94	0.070
813.13	0.070
813.31	0.070
813.50	0.070
813.68	0.070
813.87	0.070
814.06	0.070
814.24	0.070
814.43	0.070
814.61	0.070
814.80	0.070
814.98	0.070
815.17	0.070
815.36	0.070
815.54	0.070
815.73	0.070
815.91	0.070
816.10	0.070
816.28	0.070
816.47	0.069
816.65	0.070
816.84	0.070
817.03	0.070
817.21	0.070
817.40	0.070
817.58	0.070
817.77	0.070
817.95	0.070
818.14	0.070
818.32	0.070
818.51	0.071
818.69	0.070
818.88	0.070
819.06	0.070
819.25	0.070
819.43	0.070
819.62	0.070
819.80	0.070
819.99	0.071
820.18	0.070
820.36	0.070
820.55	0.070
820.73	0.070
820.92	0.070
821.10	0.071
821.29	0.071
821.47	0.070
821.66	0.071
821.84	0.071
822.03	0.071
822.21	0.070
822.40	0.070
822.58	0.070
822.77	0.070
822.95	0.071
823.14	0.071
823.32	0.071
823.50	0.071
823.69	0.071
823.87	0.071
824.06	0.071
824.24	0.071
824.43	0.071
824.61	0.071
824.80	0.072
824.98	0.072
825.17	0.072
825.35	0.072
825.54	0.072
825.72	0.072
825.91	0.071
826.09	0.071
826.28	0.071
826.46	0.072
826.64	0.072
826.83	0.072
827.01	0.072
827.20	0.072
827.38	0.072
827.57	0.073
827.75	0.072
827.94	0.073
828.12	0.073
828.31	0.073
828.49	0.073
828.67	0.073
828.86	0.073
829.04	0.073
829.23	0.073
829.41	0.074
829.60	0.074
829.78	0.074
829.96	0.075
830.15	0.075
830.33	0.075
830.52	0.075
830.70	0.075
830.88	0.075
831.07	0.075
831.25	0.075
831.44	0.075
831.62	0.075
831.81	0.075
831.99	0.075
832.17	0.075
832.36	0.075
832.54	0.075
832.73	0.075
832.91	0.075
833.09	0.075
833.28	0.075
833.46	0.075
833.65	0.075
833.83	0.075
834.01	0.076
834.20	0.076
834.38	0.076
834.56	0.076
834.75	0.076
834.93	0.076
835.12	0.076
835.30	0.076
835.48	0.076
835.67	0.076
835.85	0.076
836.03	0.076
836.22	0.076
836.40	0.076
836.59	0.077
836.77	0.076
836.95	0.077
837.14	0.076
837.32	0.076
837.50	0.076
837.69	0.076
837.87	0.077
838.05	0.077
838.24	0.076
838.42	0.076
838.60	0.076
838.79	0.077
838.97	0.077
839.15	0.077
839.34	0.077
839.52	0.077
839.70	0.077
839.89	0.077
840.07	0.077
840.25	0.078
840.44	0.078
840.62	0.078
840.80	0.077
840.99	0.078
841.17	0.077
841.35	0.077
841.54	0.077
841.72	0.077
841.90	0.078
842.09	0.077
842.27	0.077
842.45	0.078
842.64	0.077
842.82	0.077
843.00	0.077
843.19	0.077
843.37	0.077
843.55	0.077
843.73	0.077
843.92	0.077
844.10	0.078
844.28	0.078
844.47	0.078
844.65	0.078
844.83	0.078
845.01	0.078
845.20	0.078
845.38	0.078
845.56	0.078
845.75	0.078
845.93	0.078
846.11	0.078
846.29	0.078
846.48	0.078
846.66	0.078
846.84	0.078
847.02	0.078
847.21	0.077
847.39	0.078
847.57	0.078
847.76	0.078
847.94	0.078
848.12	0.078
848.30	0.078
848.49	0.078
848.67	0.078
848.85	0.078
849.03	0.078
849.22	0.078
849.40	0.079
849.58	0.079
849.76	0.079
849.95	0.079
850.13	0.079
850.31	0.079
850.49	0.079
850.67	0.080
850.86	0.080
851.04	0.080
851.22	0.079
851.40	0.079
851.59	0.079
851.77	0.079
851.95	0.079
852.13	0.079
852.31	0.078
852.50	0.079
852.68	0.079
852.86	0.079
853.04	0.078
853.23	0.078
853.41	0.078
853.59	0.078
853.77	0.078
853.95	0.079
854.14	0.079
854.32	0.079
854.50	0.078
854.68	0.078
854.86	0.078
855.04	0.079
855.23	0.079
855.41	0.079
855.59	0.079
855.77	0.079
855.95	0.080
856.14	0.080
856.32	0.080
856.50	0.080
856.68	0.080
856.86	0.080
857.04	0.080
857.23	0.080
857.41	0.079
857.59	0.079
857.77	0.079
857.95	0.079
858.13	0.079
858.32	0.079
858.50	0.079
858.68	0.079
858.86	0.079
859.04	0.079
859.22	0.079
859.41	0.079
859.59	0.079
859.77	0.079
859.95	0.079
860.13	0.080
860.31	0.080
860.49	0.080
860.68	0.079
860.86	0.080
861.04	0.079
861.22	0.079
861.40	0.079
861.58	0.079
861.76	0.079
861.94	0.079
862.13	0.079
862.31	0.079
862.49	0.079
862.67	0.080
862.85	0.080
863.03	0.080
863.21	0.080
863.39	0.080
863.57	0.080
863.76	0.080
863.94	0.080
864.12	0.080
864.30	0.080
864.48	0.079
864.66	0.079
864.84	0.080
865.02	0.080
865.20	0.080
865.38	0.079
865.57	0.080
865.75	0.080
865.93	0.080
866.11	0.080
866.29	0.080
866.47	0.081
866.65	0.081
866.83	0.081
867.01	0.080
867.19	0.080
867.37	0.080
867.55	0.080
867.73	0.081
867.92	0.080
868.10	0.081
868.28	0.080
868.46	0.080
868.64	0.080
868.82	0.080
869.00	0.081
869.18	0.081
869.36	0.081
869.54	0.081
869.72	0.081
869.90	0.081
870.08	0.081
870.26	0.081
870.44	0.081
870.62	0.081
870.80	0.081
870.98	0.082
871.16	0.081
871.34	0.081
871.53	0.081
871.71	0.081
871.89	0.081
872.07	0.081
872.25	0.081
872.43	0.081
872.61	0.082
872.79	0.082
872.97	0.082
873.15	0.082
873.33	0.082
873.51	0.082
873.69	0.083
873.87	0.082
874.05	0.083
874.23	0.082
874.41	0.083
874.59	0.083
874.77	0.082
874.95	0.082
875.13	0.082
875.31	0.082
875.49	0.082
875.67	0.082
875.85	0.082
876.03	0.082
876.21	0.083
876.39	0.082
876.57	0.083
876.75	0.083
876.93	0.083
877.11	0.083
877.29	0.083
877.47	0.082
877.65	0.083
877.82	0.083
878.00	0.083
878.18	0.083
878.36	0.083
878.54	0.083
878.72	0.083
878.90	0.083
879.08	0.084
879.26	0.084
879.44	0.084
879.62	0.084
879.80	0.084
879.98	0.084
880.16	0.083
880.34	0.083
880.52	0.083
880.70	0.083
880.88	0.083
881.06	0.083
881.24	0.083
881.42	0.083
881.59	0.083
881.77	0.082
881.95	0.083
882.13	0.083
882.31	0.083
882.49	0.083
882.67	0.084
882.85	0.083
883.03	0.083
883.21	0.083
883.39	0.083
883.57	0.084
883.75	0.084
883.92	0.084
884.10	0.084
884.28	0.084
884.46	0.084
884.64	0.084
884.82	0.084
885.00	0.084
885.18	0.085
885.36	0.084
885.54	0.084
885.71	0.084
885.89	0.085
886.07	0.085
886.25	0.085
886.43	0.085
886.61	0.085
886.79	0.085
886.97	0.085
887.15	0.085
887.32	0.085
887.50	0.085
887.68	0.085
887.86	0.085
888.04	0.085
888.22	0.085
888.40	0.085
888.57	0.085
888.75	0.085
888.93	0.085
889.11	0.085
889.29	0.085
889.47	0.085
889.65	0.085
889.82	0.085
890.00	0.086
890.18	0.086
890.36	0.086
890.54	0.086
890.72	0.086
890.90	0.086
891.07	0.086
891.25	0.086
891.43	0.086
891.61	0.086
891.79	0.086
891.97	0.086
892.14	0.086
892.32	0.086
892.50	0.086
892.68	0.086
892.86	0.086
893.03	0.086
893.21	0.086
893.39	0.086
893.57	0.086
893.75	0.086
893.93	0.086
894.10	0.086
894.28	0.086
894.46	0.086
894.64	0.086
894.82	0.086
894.99	0.086
895.17	0.086
895.35	0.086
895.53	0.086
895.71	0.087
895.88	0.087
896.06	0.087
896.24	0.087
896.42	0.087
896.59	0.087
896.77	0.087
896.95	0.087
897.13	0.088
897.31	0.088
897.48	0.087
897.66	0.088
897.84	0.087
898.02	0.087
898.19	0.087
898.37	0.087
898.55	0.088
898.73	0.088
898.91	0.088
899.08	0.087
899.26	0.087
899.44	0.088
899.62	0.088
899.79	0.088
899.97	0.089
900.15	0.088
900.33	0.088
900.50	0.088
900.68	0.088
900.86	0.088
901.04	0.088
901.21	0.088
901.39	0.088
901.57	0.088
901.74	0.088
901.92	0.088
902.10	0.089
902.28	0.089
902.45	0.089
902.63	0.089
902.81	0.089
902.99	0.089
903.16	0.089
903.34	0.089
903.52	0.089
903.69	0.089
903.87	0.089
904.05	0.090
904.22	0.090
904.40	0.090
904.58	0.090
904.76	0.090
904.93	0.090
905.11	0.090
905.29	0.090
905.46	0.090
905.64	0.090
905.82	0.090
905.99	0.090
906.17	0.090
906.35	0.090
906.53	0.090
906.70	0.090
906.88	0.090
907.06	0.090
907.23	0.090
907.41	0.090
907.59	0.090
907.76	0.090
907.94	0.090
908.12	0.090
908.29	0.091
908.47	0.091
908.65	0.091
908.82	0.091
909.00	0.091
909.18	0.091
909.35	0.091
909.53	0.092
909.71	0.091
909.88	0.091
910.06	0.091
910.23	0.091
910.41	0.092
910.59	0.091
910.76	0.091
910.94	0.092
911.12	0.091
911.29	0.092
911.47	0.092
911.65	0.092
911.82	0.092
912.00	0.092
912.17	0.092
912.35	0.093
912.53	0.093
912.70	0.093
912.88	0.093
913.06	0.094
913.23	0.093
913.41	0.093
913.58	0.093
913.76	0.094
913.94	0.094
914.11	0.094
914.29	0.094
914.46	0.094
914.64	0.094
914.82	0.094
914.99	0.094
915.17	0.094
915.34	0.094
915.52	0.094
915.70	0.094
915.87	0.094
916.05	0.094
916.22	0.094
916.40	0.094
916.57	0.095
916.75	0.095
916.93	0.095
917.10	0.095
917.28	0.095
917.45	0.095
917.63	0.095
917.80	0.095
917.98	0.095
918.16	0.095
918.33	0.096
918.51	0.096
918.68	0.096
918.86	0.096
919.03	0.097
919.21	0.097
919.39	0.098
919.56	0.098
919.74	0.098
919.91	0.098
920.09	0.099
920.26	0.099
920.44	0.099
920.61	0.099
920.79	0.099
920.96	0.099
921.14	0.099
921.31	0.099
921.49	0.099
921.67	0.100
921.84	0.100
922.02	0.100
922.19	0.100
922.37	0.100
922.54	0.100
922.72	0.101
922.89	0.101
923.07	0.102
923.24	0.102
923.42	0.102
923.59	0.102
923.77	0.102
923.94	0.103
924.12	0.103
924.29	0.104
924.47	0.104
924.64	0.104
924.82	0.104
924.99	0.105
925.17	0.105
925.34	0.105
925.52	0.106
925.69	0.106
925.87	0.107
926.04	0.106
926.22	0.107
926.39	0.107
926.57	0.107
926.74	0.107
926.91	0.108
927.09	0.108
927.26	0.108
927.44	0.108
927.61	0.109
927.79	0.109
927.96	0.110
928.14	0.110
928.31	0.111
928.49	0.110
928.66	0.111
928.84	0.112
929.01	0.112
929.18	0.113
929.36	0.113
929.53	0.114
929.71	0.114
929.88	0.114
930.06	0.115
930.23	0.115
930.41	0.116
930.58	0.116
930.75	0.117
930.93	0.117
931.10	0.117
931.28	0.118
931.45	0.118
931.63	0.118
931.80	0.118
931.97	0.119
932.15	0.119
932.32	0.120
932.50	0.120
932.67	0.121
932.84	0.121
933.02	0.122
933.19	0.122
933.37	0.123
933.54	0.123
933.71	0.123
933.89	0.125
934.06	0.124
934.24	0.125
934.41	0.125
934.58	0.126
934.76	0.126
934.93	0.127
935.11	0.127
935.28	0.127
935.45	0.127
935.63	0.128
935.80	0.129
935.98	0.130
936.15	0.129
936.32	0.130
936.50	0.131
936.67	0.131
936.84	0.132
937.02	0.133
937.19	0.133
937.36	0.134
937.54	0.134
937.71	0.135
937.89	0.135
938.06	0.136
938.23	0.136
938.41	0.137
938.58	0.138
938.75	0.138
938.93	0.139
939.10	0.139
939.27	0.139
939.45	0.140
939.62	0.141
939.79	0.141
939.97	0.141
940.14	0.142
940.31	0.143
940.49	0.143
940.66	0.144
940.83	0.144
941.01	0.145
941.18	0.146
941.35	0.146
941.53	0.146
941.70	0.147
941.87	0.148
942.05	0.149
942.22	0.149
942.39	0.151
942.57	0.151
942.74	0.152
942.91	0.152
943.08	0.153
943.26	0.153
943.43	0.154
943.60	0.154
943.78	0.155
943.95	0.156
944.12	0.156
944.29	0.157
944.47	0.157
944.64	0.158
944.81	0.159
944.99	0.160
945.16	0.161
945.33	0.161
945.50	0.162
945.68	0.163
945.85	0.164
946.02	0.166
946.20	0.167
946.37	0.168
946.54	0.168
946.71	0.169
946.89	0.169
947.06	0.170
947.23	0.171
947.40	0.172
947.58	0.172
947.75	0.174
947.92	0.174
948.09	0.174
948.27	0.176
948.44	0.177
948.61	0.178
948.78	0.179
948.96	0.180
949.13	0.181
949.30	0.182
949.47	0.183
949.65	0.184
949.82	0.186
949.99	0.186
950.16	0.188
950.33	0.189
950.51	0.190
950.68	0.192
950.85	0.193
951.02	0.194
951.20	0.195
951.37	0.197
951.54	0.197
951.71	0.199
951.88	0.200
952.06	0.201
952.23	0.201
952.40	0.203
952.57	0.204
952.74	0.206
952.92	0.206
953.09	0.208
953.26	0.209
953.43	0.210
953.60	0.211
953.77	0.212
953.95	0.213
954.12	0.215
954.29	0.216
954.46	0.218
954.63	0.219
954.81	0.220
954.98	0.220
955.15	0.222
955.32	0.224
955.49	0.224
955.66	0.225
955.84	0.226
956.01	0.227
956.18	0.228
956.35	0.230
956.52	0.230
956.69	0.233
956.87	0.233
957.04	0.234
957.21	0.236
957.38	0.236
957.55	0.237
957.72	0.239
957.89	0.240
958.07	0.239
958.24	0.242
958.41	0.243
958.58	0.242
958.75	0.243
958.92	0.244
959.09	0.245
959.26	0.245
959.44	0.245
959.61	0.246
959.78	0.247
959.95	0.249
960.12	0.249
960.29	0.251
960.46	0.250
960.63	0.251
960.81	0.251
960.98	0.252
961.15	0.252
961.32	0.254
961.49	0.253
961.66	0.255
961.83	0.255
962.00	0.255
962.17	0.256
962.34	0.256
962.52	0.257
962.69	0.258
962.86	0.258
963.03	0.259
963.20	0.259
963.37	0.259
963.54	0.259
963.71	0.259
963.88	0.259
964.05	0.259
964.22	0.261
964.39	0.259
964.56	0.259
964.74	0.260
964.91	0.259
965.08	0.260
965.25	0.260
965.42	0.261
965.59	0.262
965.76	0.261
965.93	0.263
966.10	0.261
966.27	0.263
966.44	0.262
966.61	0.264
966.78	0.263
966.95	0.263
967.12	0.264
967.29	0.265
967.46	0.264
967.63	0.264
967.80	0.265
967.97	0.264
968.14	0.264
968.32	0.265
968.49	0.265
968.66	0.264
968.83	0.264
969.00	0.264
969.17	0.265
969.34	0.266
969.51	0.267
969.68	0.266
969.85	0.266
970.02	0.266
970.19	0.266
970.36	0.267
970.53	0.267
970.70	0.265
970.87	0.266
971.04	0.265
971.21	0.266
971.38	0.265
971.55	0.266
971.72	0.265
971.89	0.266
972.06	0.265
972.23	0.265
972.40	0.266
972.57	0.265
972.74	0.265
972.91	0.265
973.07	0.265
973.24	0.265
973.41	0.266
973.58	0.264
973.75	0.277
973.92	0.265
974.09	0.265
974.26	0.264
974.43	0.264
974.60	0.265
974.77	0.266
974.94	0.265
975.11	0.266
975.28	0.267
975.45	0.265
975.62	0.266
975.79	0.268
975.96	0.266
976.13	0.265
976.30	0.267
976.47	0.265
976.64	0.265
976.80	0.266
976.97	0.266
977.14	0.265
977.31	0.265
977.48	0.265
977.65	0.264
977.82	0.263
977.99	0.265
978.16	0.264
978.33	0.264
978.50	0.264
978.67	0.263
978.83	0.263
979.00	0.263
979.17	0.262
979.34	0.262
979.51	0.262
979.68	0.262
979.85	0.262
980.02	0.263
980.19	0.261
980.36	0.262
980.52	0.263
980.69	0.261
980.86	0.262
981.03	0.262
981.20	0.260
981.37	0.261
981.54	0.261
981.71	0.260
981.88	0.261
982.04	0.261
982.21	0.260
982.38	0.262
982.55	0.261
982.72	0.260
982.89	0.261
983.06	0.259
983.22	0.259
983.39	0.259
983.56	0.258
983.73	0.257
983.90	0.257
984.07	0.258
984.24	0.256
984.40	0.256
984.57	0.254
984.74	0.257
984.91	0.258
985.08	0.255
985.25	0.253
985.41	0.255
985.58	0.255
985.75	0.256
985.92	0.255
986.09	0.254
986.26	0.255
986.42	0.254
986.59	0.252
986.76	0.253
986.93	0.253
987.10	0.253
987.27	0.251
987.43	0.249
987.60	0.252
987.77	0.251
987.94	0.250
988.11	0.251
988.27	0.252
988.44	0.252
988.61	0.250
988.78	0.248
988.95	0.249
989.11	0.251
989.28	0.249
989.45	0.248
989.62	0.248
989.79	0.249
989.95	0.247
990.12	0.248
990.29	0.248
990.46	0.246
990.62	0.245
990.79	0.245
990.96	0.246
991.13	0.246
991.30	0.245
991.46	0.244
991.63	0.242
991.80	0.241
991.97	0.241
992.13	0.242
992.30	0.242
992.47	0.241
992.64	0.240
992.80	0.240
992.97	0.240
993.14	0.237
993.31	0.235
993.47	0.239
993.64	0.236
993.81	0.236
993.98	0.236
994.14	0.234
994.31	0.234
994.48	0.235
994.64	0.235
994.81	0.234
994.98	0.235
995.15	0.233
995.31	0.232
995.48	0.232
995.65	0.234
995.82	0.231
995.98	0.231
996.15	0.232
996.32	0.234
996.48	0.232
996.65	0.232
996.82	0.229
996.99	0.229
997.15	0.229
997.32	0.230
997.49	0.229
997.65	0.229
997.82	0.229
997.99	0.227
998.15	0.228
998.32	0.229
998.49	0.228
998.65	0.229
998.82	0.228
998.99	0.226
999.15	0.226
999.32	0.225
999.49	0.225
999.65	0.224
999.82	0.222
999.99	0.223
1000.15	0.222
1000.32	0.222
1000.49	0.222
1000.65	0.220
1000.82	0.219
1000.99	0.220
1001.15	0.219
1001.32	0.218
1001.49	0.219
1001.65	0.219
1001.82	0.221
1001.99	0.218
1002.15	0.216
1002.32	0.217
1002.49	0.217
1002.65	0.216
1002.82	0.215
1002.99	0.215
1003.15	0.217
1003.32	0.216
1003.48	0.216
1003.65	0.215
1003.82	0.214
1003.98	0.212
1004.15	0.211
1004.32	0.212
1004.48	0.212
1004.65	0.214
1004.81	0.211
1004.98	0.210
1005.15	0.211
1005.31	0.210
1005.48	0.208
1005.64	0.208
1005.81	0.211
1005.98	0.208
1006.14	0.207
1006.31	0.207
1006.47	0.206
1006.64	0.204
1006.81	0.204
1006.97	0.205
1007.14	0.205
1007.30	0.206
1007.47	0.206
1007.63	0.203
1007.80	0.202
1007.97	0.201
1008.13	0.201
1008.30	0.201
1008.46	0.201
1008.63	0.200
1008.79	0.200
1008.96	0.200
1009.13	0.200
1009.29	0.198
1009.46	0.198
1009.62	0.198
1009.79	0.196
1009.95	0.197
1010.12	0.198
1010.28	0.197
1010.45	0.196
1010.62	0.196
1010.78	0.194
1010.95	0.193
1011.11	0.193
1011.28	0.192
1011.44	0.195
1011.61	0.192
1011.77	0.191
1011.94	0.192
1012.10	0.191
1012.27	0.191
1012.43	0.191
1012.60	0.189
1012.76	0.190
1012.93	0.190
1013.10	0.189
1013.26	0.186
1013.43	0.187
1013.59	0.195
1013.76	0.187
1013.92	0.186
1014.09	0.185
1014.25	0.186
1014.42	0.187
1014.58	0.186
1014.75	0.188
1014.91	0.186
1015.08	0.188
1015.24	0.185
1015.41	0.186
1015.57	0.186
1015.73	0.185
1015.90	0.183
1016.06	0.184
1016.23	0.182
1016.39	0.183
1016.56	0.183
1016.72	0.182
1016.89	0.182
1017.05	0.184
1017.22	0.181
1017.38	0.181
1017.55	0.179
1017.71	0.180
1017.88	0.180
1018.04	0.181
1018.21	0.178
1018.37	0.179
1018.53	0.179
1018.70	0.177
1018.86	0.176
1019.03	0.178
1019.19	0.176
1019.36	0.176
1019.52	0.177
1019.69	0.177
1019.85	0.176
1020.01	0.176
1020.18	0.174
1020.34	0.173
1020.51	0.173
1020.67	0.174
1020.84	0.172
1021.00	0.172
1021.16	0.169
1021.33	0.170
1021.49	0.169
1021.66	0.170
1021.82	0.168
1021.98	0.169
1022.15	0.170
1022.31	0.169
1022.48	0.169
1022.64	0.170
1022.80	0.170
1022.97	0.168
1023.13	0.168
1023.30	0.168
1023.46	0.169
1023.62	0.166
1023.79	0.167
1023.95	0.167
1024.12	0.166
1024.28	0.164
1024.44	0.164
1024.61	0.162
1024.77	0.162
1024.93	0.161
1025.10	0.163
1025.26	0.161
1025.43	0.162
1025.59	0.158
1025.75	0.162
1025.92	0.160
1026.08	0.160
1026.24	0.160
1026.41	0.162
1026.57	0.160
1026.73	0.158
1026.90	0.160
1027.06	0.157
1027.23	0.159
1027.39	0.159
1027.55	0.158
1027.72	0.158
1027.88	0.157
1028.04	0.158
1028.21	0.159
1028.37	0.152
1028.53	0.158
1028.70	0.156
1028.86	0.156
1029.02	0.156
1029.19	0.156
1029.35	0.155
1029.51	0.154
1029.67	0.153
1029.84	0.155
1030.00	0.148
1030.16	0.149
1030.33	0.151
1030.49	0.147
1030.65	0.144
1030.82	0.160
1030.98	0.147
1031.14	0.147
1031.31	0.148
1031.47	0.145
1031.63	0.148
1031.79	0.147
1031.96	0.149
1032.12	0.150
1032.28	0.148
1032.45	0.151
1032.61	0.149
1032.77	0.148
1032.93	0.145
1033.10	0.146
1033.26	0.148
1033.42	0.145
1033.58	0.145
1033.75	0.146
1033.91	0.144
1034.07	0.147
1034.24	0.145
1034.40	0.144
1034.56	0.143
1034.72	0.144
1034.89	0.145
1035.05	0.143
1035.21	0.143
1035.37	0.143
1035.54	0.145
1035.70	0.143
1035.86	0.142
1036.02	0.144
1036.19	0.142
1036.35	0.140
1036.51	0.144
1036.67	0.142
1036.83	0.141
1037.00	0.139
1037.16	0.139
1037.32	0.141
1037.48	0.141
1037.65	0.146
1037.81	0.141
1037.97	0.141
1038.13	0.141
1038.29	0.138
1038.46	0.135
1038.62	0.140
1038.78	0.138
1038.94	0.135
1039.10	0.139
1039.27	0.134
1039.43	0.136
1039.59	0.136
1039.75	0.136
1039.91	0.135
1040.08	0.134
1040.24	0.137
1040.40	0.139
1040.56	0.137
1040.72	0.131
1040.89	0.133
1041.05	0.135
1041.21	0.132
1041.37	0.129
1041.53	0.135
1041.69	0.133
1041.86	0.132
1042.02	0.129
1042.18	0.129
1042.34	0.130
1042.50	0.135
1042.66	0.132
1042.83	0.131
1042.99	0.135
1043.15	0.130
1043.31	0.130
1043.47	0.135
1043.63	0.131
1043.79	0.131
1043.96	0.131
1044.12	0.134
1044.28	0.129
1044.44	0.130
1044.60	0.126
1044.76	0.124
1044.92	0.127
1045.09	0.129
1045.25	0.126
1045.41	0.128
1045.57	0.123
1045.73	0.123
1045.89	0.126
1046.05	0.128
1046.21	0.136
1046.38	0.126
1046.54	0.133
1046.70	0.128
1046.86	0.126
>>>>>End Processed Spectral Data<<<<<
