SpectraSuite Data File
++++++++++++++++++++++++++++++++++++
Date: Mon May 20 12:10:58 CDT 2013
User: Students
Dark Spectrum Present: Yes
Reference Spectrum Present: Yes
Number of Sampled Component Spectra: 1
Spectrometers: USB4H00887
Integration Time (usec): 60000 (USB4H00887)
Spectra Averaged: 5 (USB4H00887)
Boxcar Smoothing: 5 (USB4H00887)
Correct for Electrical Dark: No (USB4H00887)
Strobe/Lamp Enabled: No (USB4H00887)
Correct for Detector Non-linearity: No (USB4H00887)
Correct for Stray Light: No (USB4H00887)
Number of Pixels in Processed Spectrum: 3648
>>>>>Begin Processed Spectral Data<<<<<
345.83	-0.000
346.05	-0.000
346.26	-0.000
346.48	-0.000
346.70	0.263
346.92	-0.067
347.14	0.003
347.35	0.033
347.57	0.367
347.79	-0.255
348.01	-0.211
348.23	-0.286
348.44	-0.000
348.66	0.284
348.88	-0.383
349.10	-0.204
349.32	0.078
349.53	-0.004
349.75	0.030
349.97	0.029
350.19	0.124
350.41	0.229
350.62	-0.438
350.84	0.073
351.06	0.105
351.28	0.151
351.50	0.503
351.71	0.438
351.93	0.198
352.15	0.040
352.37	0.248
352.58	0.052
352.80	0.043
353.02	0.067
353.24	0.099
353.46	0.349
353.67	-0.049
353.89	0.035
354.11	0.042
354.33	0.070
354.54	0.099
354.76	0.183
354.98	0.291
355.20	0.239
355.41	0.095
355.63	0.180
355.85	0.115
356.07	-0.000
356.28	0.124
356.50	0.205
356.72	0.082
356.94	0.321
357.15	0.436
357.37	-0.000
357.59	0.246
357.81	0.166
358.02	0.255
358.24	0.136
358.46	0.306
358.68	0.314
358.89	0.170
359.11	-0.000
359.33	0.126
359.55	-0.697
359.76	0.165
359.98	0.185
360.20	0.187
360.42	0.150
360.63	0.161
360.85	0.112
361.07	0.698
361.29	0.103
361.50	0.341
361.72	0.120
361.94	0.508
362.15	0.186
362.37	0.086
362.59	0.092
362.81	0.157
363.02	0.286
363.24	0.476
363.46	0.227
363.68	0.258
363.89	0.159
364.11	0.211
364.33	0.239
364.54	0.163
364.76	0.213
364.98	0.216
365.20	0.233
365.41	0.147
365.63	0.180
365.85	0.124
366.06	0.409
366.28	0.439
366.50	0.274
366.71	0.108
366.93	0.138
367.15	0.131
367.37	0.130
367.58	0.170
367.80	0.228
368.02	0.539
368.23	0.160
368.45	0.158
368.67	0.153
368.88	0.139
369.10	-0.000
369.32	0.129
369.53	0.085
369.75	0.131
369.97	0.275
370.19	0.129
370.40	0.073
370.62	0.222
370.84	0.085
371.05	0.428
371.27	0.138
371.49	0.183
371.70	0.180
371.92	0.273
372.14	0.120
372.35	0.149
372.57	0.159
372.79	0.500
373.00	0.100
373.22	0.180
373.44	0.162
373.65	0.098
373.87	0.119
374.09	0.673
374.30	0.127
374.52	0.147
374.74	0.104
374.95	0.616
375.17	0.141
375.39	-0.000
375.60	0.163
375.82	0.310
376.04	0.165
376.25	0.213
376.47	0.119
376.68	0.307
376.90	0.151
377.12	0.330
377.33	0.150
377.55	0.375
377.77	0.156
377.98	0.245
378.20	0.131
378.42	0.149
378.63	0.187
378.85	-0.000
379.07	0.127
379.28	0.478
379.50	0.278
379.71	0.146
379.93	0.110
380.15	0.162
380.36	0.232
380.58	0.146
380.80	0.434
381.01	0.146
381.23	0.111
381.44	0.116
381.66	0.141
381.88	0.185
382.09	-0.087
382.31	0.120
382.53	0.125
382.74	0.653
382.96	0.196
383.17	0.140
383.39	0.164
383.61	0.205
383.82	0.164
384.04	0.190
384.25	0.213
384.47	0.198
384.69	0.204
384.90	0.194
385.12	0.399
385.33	0.279
385.55	0.228
385.77	0.382
385.98	0.199
386.20	0.272
386.41	0.242
386.63	0.276
386.85	0.220
387.06	0.262
387.28	0.382
387.49	0.261
387.71	0.187
387.93	0.162
388.14	0.480
388.36	0.203
388.57	0.190
388.79	0.193
389.01	1.188
389.22	0.263
389.44	0.236
389.65	0.201
389.87	0.187
390.08	0.210
390.30	0.176
390.52	0.320
390.73	0.329
390.95	0.223
391.16	0.225
391.38	-0.000
391.59	0.266
391.81	0.229
392.03	0.209
392.24	0.251
392.46	0.205
392.67	0.170
392.89	0.261
393.10	0.406
393.32	0.285
393.53	0.326
393.75	0.203
393.97	0.230
394.18	0.309
394.40	0.284
394.61	0.301
394.83	0.260
395.04	0.326
395.26	0.206
395.47	0.303
395.69	0.247
395.91	0.265
396.12	0.319
396.34	0.299
396.55	0.197
396.77	0.285
396.98	1.096
397.20	0.367
397.41	0.398
397.63	0.287
397.84	0.273
398.06	0.249
398.27	0.257
398.49	0.304
398.71	0.239
398.92	0.283
399.14	0.371
399.35	0.463
399.57	0.428
399.78	0.293
400.00	0.275
400.21	0.335
400.43	0.278
400.64	0.283
400.86	0.634
401.07	0.340
401.29	0.293
401.50	0.319
401.72	0.438
401.93	0.290
402.15	0.368
402.36	0.345
402.58	0.295
402.79	0.324
403.01	0.559
403.22	0.424
403.44	0.283
403.65	0.457
403.87	0.507
404.08	0.400
404.30	0.684
404.51	0.334
404.73	0.404
404.94	0.344
405.16	0.352
405.37	0.273
405.59	0.474
405.80	0.296
406.02	0.376
406.23	0.372
406.45	0.412
406.66	0.423
406.88	0.286
407.09	0.439
407.31	0.332
407.52	0.426
407.74	0.360
407.95	0.433
408.17	0.404
408.38	0.418
408.60	0.279
408.81	0.476
409.03	0.367
409.24	0.368
409.45	0.413
409.67	0.423
409.88	0.373
410.10	0.474
410.31	0.401
410.53	0.398
410.74	0.574
410.96	0.562
411.17	0.567
411.39	0.422
411.60	0.385
411.82	0.447
412.03	0.411
412.24	0.398
412.46	0.585
412.67	0.458
412.89	0.438
413.10	0.426
413.32	0.380
413.53	0.446
413.75	0.454
413.96	0.357
414.17	0.484
414.39	0.502
414.60	0.402
414.82	0.509
415.03	0.413
415.25	0.452
415.46	0.317
415.68	0.448
415.89	0.790
416.10	0.659
416.32	0.370
416.53	0.441
416.75	0.420
416.96	0.516
417.18	0.449
417.39	0.420
417.60	0.430
417.82	0.626
418.03	0.545
418.25	0.458
418.46	0.483
418.67	0.427
418.89	0.446
419.10	0.459
419.32	0.604
419.53	0.541
419.75	0.465
419.96	0.411
420.17	0.509
420.39	0.486
420.60	0.509
420.82	0.632
421.03	0.510
421.24	0.424
421.46	0.467
421.67	0.518
421.89	0.454
422.10	0.490
422.31	0.480
422.53	0.688
422.74	0.498
422.96	0.394
423.17	0.431
423.38	0.526
423.60	0.456
423.81	0.578
424.03	0.489
424.24	0.553
424.45	0.558
424.67	0.560
424.88	0.499
425.09	0.538
425.31	0.496
425.52	0.530
425.74	0.596
425.95	0.647
426.16	0.499
426.38	0.579
426.59	0.524
426.80	0.594
427.02	0.616
427.23	0.480
427.45	0.627
427.66	0.629
427.87	0.488
428.09	0.515
428.30	0.571
428.51	0.552
428.73	0.605
428.94	0.549
429.15	0.531
429.37	0.509
429.58	0.535
429.79	0.493
430.01	0.579
430.22	0.569
430.44	0.591
430.65	0.526
430.86	0.566
431.08	0.559
431.29	0.504
431.50	0.597
431.72	0.787
431.93	0.640
432.14	0.484
432.36	0.535
432.57	0.548
432.78	0.564
433.00	0.522
433.21	0.522
433.42	0.632
433.64	0.556
433.85	0.633
434.06	0.519
434.28	0.552
434.49	0.573
434.70	0.582
434.92	0.593
435.13	0.636
435.34	0.642
435.56	0.598
435.77	0.598
435.98	0.765
436.20	0.636
436.41	0.546
436.62	0.537
436.83	0.616
437.05	0.692
437.26	0.604
437.47	0.537
437.69	0.593
437.90	0.549
438.11	0.540
438.33	0.589
438.54	0.606
438.75	0.768
438.97	0.749
439.18	0.562
439.39	0.582
439.60	0.638
439.82	0.596
440.03	0.550
440.24	0.787
440.46	0.602
440.67	0.581
440.88	0.623
441.10	0.584
441.31	0.587
441.52	0.631
441.73	0.718
441.95	0.633
442.16	0.590
442.37	0.919
442.58	0.583
442.80	0.569
443.01	0.738
443.22	0.678
443.44	0.576
443.65	0.677
443.86	0.676
444.07	0.719
444.29	0.622
444.50	0.786
444.71	0.600
444.92	0.559
445.14	0.706
445.35	0.742
445.56	0.582
445.78	0.683
445.99	0.684
446.20	0.590
446.41	0.665
446.63	0.670
446.84	0.632
447.05	0.638
447.26	0.765
447.48	0.651
447.69	0.621
447.90	0.719
448.11	0.644
448.33	0.665
448.54	0.695
448.75	0.722
448.96	0.726
449.18	0.772
449.39	0.684
449.60	0.668
449.81	0.805
450.03	0.694
450.24	0.746
450.45	0.703
450.66	0.689
450.87	0.714
451.09	0.667
451.30	0.648
451.51	0.719
451.72	0.729
451.94	0.747
452.15	0.816
452.36	0.684
452.57	0.706
452.78	0.698
453.00	0.723
453.21	0.680
453.42	0.657
453.63	0.750
453.85	0.712
454.06	0.707
454.27	0.834
454.48	0.737
454.69	0.666
454.91	0.728
455.12	0.645
455.33	0.724
455.54	0.745
455.75	0.710
455.97	0.735
456.18	0.730
456.39	0.735
456.60	0.757
456.81	0.705
457.03	0.719
457.24	0.714
457.45	0.798
457.66	0.749
457.87	0.706
458.09	0.728
458.30	0.646
458.51	0.763
458.72	0.787
458.93	0.789
459.15	0.697
459.36	0.756
459.57	0.783
459.78	0.830
459.99	0.740
460.20	0.707
460.42	0.781
460.63	0.737
460.84	0.718
461.05	0.738
461.26	0.797
461.47	0.724
461.69	0.773
461.90	0.804
462.11	0.759
462.32	0.813
462.53	0.751
462.74	0.844
462.96	0.740
463.17	0.732
463.38	0.770
463.59	0.873
463.80	0.726
464.01	0.743
464.23	0.820
464.44	0.785
464.65	0.788
464.86	0.814
465.07	0.823
465.28	0.784
465.49	0.804
465.71	0.760
465.92	0.797
466.13	0.840
466.34	0.781
466.55	0.830
466.76	0.795
466.97	0.822
467.19	0.812
467.40	0.838
467.61	0.848
467.82	0.771
468.03	0.755
468.24	0.819
468.45	0.853
468.66	0.838
468.88	0.849
469.09	0.853
469.30	0.898
469.51	0.825
469.72	0.867
469.93	0.835
470.14	0.820
470.35	0.911
470.57	0.856
470.78	0.797
470.99	0.928
471.20	0.864
471.41	0.826
471.62	0.875
471.83	0.850
472.04	0.877
472.25	0.921
472.47	0.840
472.68	0.840
472.89	0.846
473.10	0.885
473.31	0.835
473.52	0.893
473.73	0.910
473.94	0.835
474.15	0.855
474.36	0.858
474.57	0.875
474.79	0.853
475.00	0.858
475.21	0.847
475.42	0.930
475.63	0.841
475.84	0.869
476.05	0.878
476.26	0.849
476.47	0.878
476.68	0.925
476.89	0.862
477.10	0.910
477.32	0.897
477.53	0.943
477.74	0.868
477.95	0.906
478.16	0.861
478.37	0.895
478.58	0.903
478.79	0.917
479.00	0.912
479.21	0.872
479.42	0.906
479.63	0.909
479.84	0.877
480.05	0.877
480.26	0.902
480.47	0.919
480.69	0.924
480.90	0.892
481.11	0.891
481.32	0.946
481.53	0.894
481.74	0.943
481.95	0.913
482.16	0.932
482.37	0.944
482.58	0.912
482.79	0.928
483.00	0.957
483.21	0.905
483.42	0.881
483.63	0.957
483.84	0.984
484.05	0.970
484.26	0.942
484.47	0.936
484.68	0.897
484.89	0.903
485.10	0.948
485.31	0.927
485.52	0.933
485.73	0.932
485.94	0.969
486.15	0.922
486.37	0.936
486.58	0.905
486.79	0.922
487.00	0.969
487.21	0.961
487.42	0.955
487.63	0.959
487.84	0.976
488.05	0.971
488.26	0.934
488.47	0.936
488.68	0.966
488.89	0.944
489.10	0.935
489.31	0.945
489.52	0.976
489.73	0.947
489.94	0.982
490.15	0.941
490.36	0.983
490.57	0.936
490.78	0.921
490.99	0.958
491.20	1.027
491.41	0.986
491.62	0.932
491.83	0.959
492.04	0.954
492.25	0.962
492.45	0.960
492.66	0.979
492.87	0.968
493.08	0.959
493.29	0.945
493.50	0.939
493.71	0.947
493.92	0.944
494.13	0.958
494.34	0.978
494.55	0.980
494.76	1.010
494.97	1.003
495.18	0.971
495.39	0.983
495.60	0.937
495.81	0.937
496.02	0.955
496.23	0.951
496.44	0.981
496.65	0.972
496.86	0.981
497.07	1.005
497.28	1.000
497.49	0.953
497.70	0.959
497.91	0.977
498.12	0.963
498.32	1.005
498.53	0.988
498.74	0.979
498.95	1.003
499.16	0.956
499.37	0.961
499.58	0.970
499.79	0.998
500.00	0.994
500.21	1.019
500.42	0.965
500.63	0.967
500.84	0.987
501.05	0.965
501.26	0.990
501.46	1.029
501.67	0.990
501.88	0.992
502.09	0.970
502.30	0.973
502.51	1.021
502.72	0.982
502.93	0.995
503.14	1.014
503.35	0.988
503.56	0.986
503.77	1.012
503.97	0.994
504.18	0.992
504.39	1.024
504.60	0.997
504.81	1.022
505.02	1.013
505.23	1.013
505.44	0.996
505.65	1.004
505.86	0.983
506.07	1.047
506.27	1.009
506.48	1.013
506.69	1.001
506.90	1.020
507.11	1.017
507.32	0.994
507.53	1.002
507.74	0.995
507.95	1.007
508.15	1.015
508.36	1.019
508.57	1.028
508.78	1.013
508.99	1.009
509.20	0.985
509.41	1.008
509.62	0.999
509.82	0.996
510.03	1.004
510.24	1.004
510.45	1.022
510.66	1.013
510.87	1.011
511.08	0.976
511.29	1.015
511.49	0.994
511.70	1.039
511.91	0.977
512.12	0.975
512.33	1.004
512.54	1.019
512.75	1.003
512.95	1.027
513.16	1.018
513.37	0.997
513.58	1.032
513.79	0.999
514.00	1.003
514.20	1.019
514.41	1.009
514.62	0.979
514.83	1.016
515.04	1.007
515.25	0.987
515.46	0.999
515.66	1.000
515.87	1.013
516.08	0.986
516.29	1.007
516.50	0.989
516.71	0.982
516.91	0.990
517.12	1.009
517.33	0.996
517.54	0.984
517.75	0.988
517.95	0.999
518.16	1.009
518.37	0.976
518.58	0.981
518.79	0.958
519.00	0.987
519.20	0.998
519.41	0.970
519.62	0.986
519.83	0.994
520.04	0.960
520.24	0.955
520.45	0.965
520.66	0.985
520.87	0.951
521.08	0.949
521.28	0.952
521.49	0.968
521.70	0.943
521.91	0.957
522.12	0.941
522.32	0.961
522.53	0.945
522.74	0.934
522.95	0.944
523.16	0.944
523.36	0.953
523.57	0.936
523.78	0.930
523.99	0.934
524.20	0.927
524.40	0.940
524.61	0.946
524.82	0.922
525.03	0.927
525.23	0.927
525.44	0.913
525.65	0.911
525.86	0.932
526.06	0.906
526.27	0.905
526.48	0.913
526.69	0.894
526.90	0.899
527.10	0.931
527.31	0.890
527.52	0.884
527.73	0.877
527.93	0.886
528.14	0.889
528.35	0.881
528.56	0.882
528.76	0.875
528.97	0.868
529.18	0.860
529.39	0.859
529.59	0.861
529.80	0.891
530.01	0.868
530.22	0.866
530.42	0.840
530.63	0.855
530.84	0.833
531.05	0.845
531.25	0.847
531.46	0.838
531.67	0.819
531.88	0.835
532.08	0.826
532.29	0.820
532.50	0.815
532.70	0.807
532.91	0.797
533.12	0.800
533.33	0.825
533.53	0.797
533.74	0.796
533.95	0.802
534.15	0.790
534.36	0.793
534.57	0.778
534.78	0.777
534.98	0.786
535.19	0.761
535.40	0.762
535.60	0.778
535.81	0.759
536.02	0.761
536.23	0.752
536.43	0.755
536.64	0.742
536.85	0.748
537.05	0.757
537.26	0.738
537.47	0.740
537.67	0.729
537.88	0.724
538.09	0.732
538.30	0.723
538.50	0.715
538.71	0.726
538.92	0.713
539.12	0.710
539.33	0.705
539.54	0.703
539.74	0.708
539.95	0.699
540.16	0.697
540.36	0.688
540.57	0.688
540.78	0.681
540.98	0.680
541.19	0.678
541.40	0.666
541.60	0.675
541.81	0.670
542.02	0.670
542.22	0.660
542.43	0.655
542.64	0.651
542.84	0.650
543.05	0.642
543.26	0.643
543.46	0.647
543.67	0.645
543.88	0.641
544.08	0.630
544.29	0.625
544.50	0.626
544.70	0.625
544.91	0.617
545.12	0.618
545.32	0.613
545.53	0.616
545.74	0.604
545.94	0.601
546.15	0.599
546.35	0.597
546.56	0.593
546.77	0.590
546.97	0.588
547.18	0.580
547.39	0.581
547.59	0.580
547.80	0.576
548.01	0.581
548.21	0.576
548.42	0.568
548.62	0.568
548.83	0.565
549.04	0.561
549.24	0.555
549.45	0.555
549.65	0.550
549.86	0.546
550.07	0.544
550.27	0.541
550.48	0.550
550.69	0.536
550.89	0.536
551.10	0.533
551.30	0.530
551.51	0.530
551.72	0.520
551.92	0.521
552.13	0.521
552.33	0.522
552.54	0.517
552.75	0.510
552.95	0.511
553.16	0.506
553.36	0.505
553.57	0.504
553.78	0.502
553.98	0.502
554.19	0.493
554.39	0.490
554.60	0.493
554.80	0.492
555.01	0.484
555.22	0.485
555.42	0.482
555.63	0.476
555.83	0.479
556.04	0.473
556.25	0.475
556.45	0.467
556.66	0.466
556.86	0.469
557.07	0.467
557.27	0.466
557.48	0.460
557.68	0.458
557.89	0.459
558.10	0.455
558.30	0.452
558.51	0.450
558.71	0.448
558.92	0.443
559.12	0.444
559.33	0.447
559.54	0.442
559.74	0.439
559.95	0.437
560.15	0.437
560.36	0.435
560.56	0.430
560.77	0.430
560.97	0.429
561.18	0.425
561.38	0.424
561.59	0.426
561.79	0.422
562.00	0.420
562.21	0.417
562.41	0.415
562.62	0.414
562.82	0.411
563.03	0.408
563.23	0.408
563.44	0.407
563.64	0.404
563.85	0.406
564.05	0.399
564.26	0.399
564.46	0.398
564.67	0.399
564.87	0.395
565.08	0.393
565.28	0.392
565.49	0.392
565.69	0.390
565.90	0.386
566.10	0.388
566.31	0.382
566.51	0.384
566.72	0.385
566.92	0.378
567.13	0.378
567.33	0.376
567.54	0.375
567.74	0.374
567.95	0.370
568.15	0.371
568.36	0.371
568.56	0.369
568.77	0.365
568.97	0.364
569.18	0.364
569.38	0.362
569.59	0.363
569.79	0.361
570.00	0.358
570.20	0.357
570.41	0.355
570.61	0.353
570.82	0.354
571.02	0.350
571.23	0.352
571.43	0.348
571.64	0.347
571.84	0.346
572.05	0.345
572.25	0.344
572.45	0.343
572.66	0.340
572.86	0.339
573.07	0.338
573.27	0.338
573.48	0.337
573.68	0.333
573.89	0.333
574.09	0.334
574.30	0.332
574.50	0.331
574.70	0.331
574.91	0.329
575.11	0.329
575.32	0.329
575.52	0.324
575.73	0.324
575.93	0.324
576.14	0.322
576.34	0.320
576.54	0.319
576.75	0.317
576.95	0.316
577.16	0.314
577.36	0.314
577.57	0.313
577.77	0.312
577.97	0.309
578.18	0.310
578.38	0.307
578.59	0.306
578.79	0.304
579.00	0.305
579.20	0.303
579.40	0.303
579.61	0.301
579.81	0.301
580.02	0.299
580.22	0.299
580.42	0.297
580.63	0.297
580.83	0.296
581.04	0.294
581.24	0.294
581.45	0.293
581.65	0.291
581.85	0.290
582.06	0.288
582.26	0.287
582.47	0.286
582.67	0.286
582.87	0.285
583.08	0.283
583.28	0.283
583.48	0.281
583.69	0.279
583.89	0.279
584.10	0.280
584.30	0.278
584.50	0.277
584.71	0.276
584.91	0.276
585.12	0.274
585.32	0.275
585.52	0.273
585.73	0.272
585.93	0.271
586.13	0.270
586.34	0.270
586.54	0.269
586.75	0.267
586.95	0.266
587.15	0.266
587.36	0.265
587.56	0.264
587.76	0.263
587.97	0.262
588.17	0.261
588.37	0.261
588.58	0.261
588.78	0.258
588.98	0.259
589.19	0.258
589.39	0.256
589.60	0.258
589.80	0.256
590.00	0.255
590.21	0.255
590.41	0.254
590.61	0.253
590.82	0.253
591.02	0.252
591.22	0.251
591.43	0.251
591.63	0.250
591.83	0.249
592.04	0.248
592.24	0.248
592.44	0.245
592.65	0.244
592.85	0.244
593.05	0.244
593.26	0.242
593.46	0.242
593.66	0.241
593.86	0.240
594.07	0.239
594.27	0.239
594.47	0.238
594.68	0.237
594.88	0.238
595.08	0.237
595.29	0.238
595.49	0.235
595.69	0.235
595.90	0.234
596.10	0.234
596.30	0.233
596.50	0.232
596.71	0.232
596.91	0.231
597.11	0.230
597.32	0.230
597.52	0.229
597.72	0.228
597.93	0.228
598.13	0.226
598.33	0.226
598.53	0.225
598.74	0.225
598.94	0.224
599.14	0.223
599.35	0.224
599.55	0.223
599.75	0.222
599.95	0.221
600.16	0.222
600.36	0.220
600.56	0.220
600.76	0.220
600.97	0.218
601.17	0.218
601.37	0.218
601.58	0.217
601.78	0.218
601.98	0.217
602.18	0.216
602.39	0.215
602.59	0.216
602.79	0.215
602.99	0.214
603.20	0.213
603.40	0.213
603.60	0.213
603.80	0.213
604.01	0.212
604.21	0.211
604.41	0.210
604.61	0.209
604.82	0.209
605.02	0.209
605.22	0.208
605.42	0.208
605.62	0.208
605.83	0.207
606.03	0.206
606.23	0.206
606.43	0.206
606.64	0.206
606.84	0.205
607.04	0.204
607.24	0.204
607.45	0.204
607.65	0.202
607.85	0.203
608.05	0.202
608.25	0.201
608.46	0.201
608.66	0.201
608.86	0.201
609.06	0.200
609.26	0.199
609.47	0.200
609.67	0.198
609.87	0.199
610.07	0.198
610.28	0.197
610.48	0.197
610.68	0.197
610.88	0.196
611.08	0.196
611.29	0.195
611.49	0.195
611.69	0.196
611.89	0.194
612.09	0.193
612.29	0.193
612.50	0.192
612.70	0.192
612.90	0.191
613.10	0.190
613.30	0.190
613.51	0.190
613.71	0.189
613.91	0.193
614.11	0.188
614.31	0.188
614.51	0.187
614.72	0.187
614.92	0.186
615.12	0.186
615.32	0.187
615.52	0.186
615.72	0.186
615.93	0.186
616.13	0.186
616.33	0.186
616.53	0.185
616.73	0.186
616.93	0.185
617.14	0.185
617.34	0.185
617.54	0.185
617.74	0.185
617.94	0.184
618.14	0.183
618.34	0.183
618.55	0.182
618.75	0.183
618.95	0.182
619.15	0.182
619.35	0.181
619.55	0.180
619.75	0.181
619.96	0.180
620.16	0.181
620.36	0.180
620.56	0.180
620.76	0.180
620.96	0.179
621.16	0.179
621.36	0.179
621.57	0.179
621.77	0.180
621.97	0.179
622.17	0.178
622.37	0.178
622.57	0.178
622.77	0.177
622.97	0.176
623.18	0.176
623.38	0.176
623.58	0.176
623.78	0.175
623.98	0.174
624.18	0.174
624.38	0.173
624.58	0.174
624.78	0.174
624.98	0.174
625.19	0.174
625.39	0.174
625.59	0.173
625.79	0.173
625.99	0.172
626.19	0.172
626.39	0.172
626.59	0.171
626.79	0.171
626.99	0.171
627.19	0.170
627.40	0.170
627.60	0.170
627.80	0.170
628.00	0.170
628.20	0.169
628.40	0.169
628.60	0.169
628.80	0.169
629.00	0.169
629.20	0.168
629.40	0.168
629.60	0.167
629.80	0.167
630.00	0.167
630.20	0.167
630.41	0.166
630.61	0.165
630.81	0.165
631.01	0.165
631.21	0.165
631.41	0.165
631.61	0.165
631.81	0.165
632.01	0.165
632.21	0.165
632.41	0.164
632.61	0.164
632.81	0.164
633.01	0.164
633.21	0.164
633.41	0.164
633.61	0.163
633.81	0.163
634.01	0.162
634.21	0.162
634.41	0.161
634.61	0.162
634.81	0.161
635.01	0.161
635.22	0.161
635.42	0.160
635.62	0.160
635.82	0.161
636.02	0.160
636.22	0.159
636.42	0.159
636.62	0.159
636.82	0.159
637.02	0.158
637.22	0.159
637.42	0.159
637.62	0.158
637.82	0.157
638.02	0.157
638.22	0.157
638.42	0.157
638.62	0.157
638.82	0.157
639.02	0.156
639.22	0.156
639.42	0.156
639.62	0.155
639.82	0.155
640.02	0.155
640.22	0.155
640.42	0.155
640.62	0.154
640.82	0.154
641.02	0.153
641.22	0.154
641.42	0.153
641.61	0.153
641.81	0.153
642.01	0.153
642.21	0.153
642.41	0.153
642.61	0.153
642.81	0.152
643.01	0.152
643.21	0.152
643.41	0.152
643.61	0.151
643.81	0.151
644.01	0.150
644.21	0.149
644.41	0.149
644.61	0.149
644.81	0.149
645.01	0.149
645.21	0.148
645.41	0.148
645.61	0.148
645.81	0.148
646.01	0.148
646.21	0.148
646.40	0.148
646.60	0.148
646.80	0.148
647.00	0.147
647.20	0.147
647.40	0.147
647.60	0.147
647.80	0.147
648.00	0.147
648.20	0.146
648.40	0.146
648.60	0.146
648.80	0.145
649.00	0.146
649.20	0.146
649.39	0.145
649.59	0.145
649.79	0.145
649.99	0.145
650.19	0.144
650.39	0.144
650.59	0.144
650.79	0.143
650.99	0.143
651.19	0.142
651.39	0.142
651.58	0.142
651.78	0.142
651.98	0.142
652.18	0.141
652.38	0.141
652.58	0.141
652.78	0.141
652.98	0.140
653.18	0.141
653.38	0.141
653.57	0.140
653.77	0.141
653.97	0.140
654.17	0.140
654.37	0.139
654.57	0.139
654.77	0.139
654.97	0.139
655.16	0.139
655.36	0.138
655.56	0.138
655.76	0.137
655.96	0.138
656.16	0.137
656.36	0.137
656.56	0.136
656.75	0.137
656.95	0.136
657.15	0.136
657.35	0.136
657.55	0.136
657.75	0.136
657.95	0.136
658.14	0.136
658.34	0.136
658.54	0.136
658.74	0.136
658.94	0.136
659.14	0.135
659.34	0.135
659.53	0.135
659.73	0.134
659.93	0.133
660.13	0.133
660.33	0.133
660.53	0.133
660.72	0.133
660.92	0.132
661.12	0.131
661.32	0.132
661.52	0.131
661.72	0.131
661.91	0.131
662.11	0.131
662.31	0.130
662.51	0.130
662.71	0.130
662.90	0.129
663.10	0.129
663.30	0.129
663.50	0.129
663.70	0.128
663.90	0.128
664.09	0.128
664.29	0.127
664.49	0.127
664.69	0.127
664.89	0.127
665.08	0.127
665.28	0.127
665.48	0.126
665.68	0.126
665.88	0.126
666.07	0.126
666.27	0.126
666.47	0.125
666.67	0.125
666.87	0.125
667.06	0.124
667.26	0.124
667.46	0.124
667.66	0.124
667.85	0.124
668.05	0.124
668.25	0.124
668.45	0.123
668.65	0.124
668.84	0.124
669.04	0.123
669.24	0.123
669.44	0.123
669.63	0.122
669.83	0.122
670.03	0.122
670.23	0.121
670.42	0.121
670.62	0.121
670.82	0.120
671.02	0.120
671.22	0.120
671.41	0.119
671.61	0.120
671.81	0.120
672.01	0.119
672.20	0.119
672.40	0.119
672.60	0.119
672.80	0.119
672.99	0.119
673.19	0.118
673.39	0.118
673.58	0.118
673.78	0.118
673.98	0.117
674.18	0.117
674.37	0.116
674.57	0.116
674.77	0.116
674.97	0.116
675.16	0.116
675.36	0.115
675.56	0.115
675.75	0.115
675.95	0.114
676.15	0.115
676.35	0.115
676.54	0.115
676.74	0.114
676.94	0.115
677.13	0.114
677.33	0.114
677.53	0.114
677.73	0.114
677.92	0.114
678.12	0.114
678.32	0.113
678.51	0.113
678.71	0.113
678.91	0.112
679.11	0.112
679.30	0.112
679.50	0.112
679.70	0.111
679.89	0.111
680.09	0.111
680.29	0.110
680.48	0.110
680.68	0.110
680.88	0.110
681.07	0.110
681.27	0.110
681.47	0.110
681.66	0.109
681.86	0.109
682.06	0.109
682.25	0.109
682.45	0.109
682.65	0.109
682.84	0.108
683.04	0.108
683.24	0.108
683.43	0.108
683.63	0.108
683.83	0.108
684.02	0.107
684.22	0.107
684.42	0.106
684.61	0.106
684.81	0.106
685.01	0.106
685.20	0.105
685.40	0.106
685.60	0.105
685.79	0.105
685.99	0.105
686.19	0.105
686.38	0.105
686.58	0.106
686.77	0.106
686.97	0.105
687.17	0.106
687.36	0.105
687.56	0.105
687.76	0.105
687.95	0.105
688.15	0.105
688.34	0.105
688.54	0.104
688.74	0.103
688.93	0.103
689.13	0.103
689.33	0.103
689.52	0.103
689.72	0.103
689.91	0.102
690.11	0.102
690.31	0.101
690.50	0.102
690.70	0.102
690.89	0.101
691.09	0.101
691.29	0.101
691.48	0.100
691.68	0.100
691.87	0.100
692.07	0.100
692.27	0.100
692.46	0.100
692.66	0.100
692.85	0.099
693.05	0.099
693.25	0.099
693.44	0.099
693.64	0.099
693.83	0.099
694.03	0.098
694.22	0.098
694.42	0.098
694.62	0.099
694.81	0.098
695.01	0.099
695.20	0.099
695.40	0.098
695.59	0.098
695.79	0.097
695.99	0.098
696.18	0.098
696.38	0.098
696.57	0.098
696.77	0.097
696.96	0.098
697.16	0.097
697.36	0.097
697.55	0.097
697.75	0.097
697.94	0.096
698.14	0.096
698.33	0.096
698.53	0.095
698.72	0.095
698.92	0.095
699.11	0.095
699.31	0.095
699.51	0.095
699.70	0.095
699.90	0.094
700.09	0.095
700.29	0.094
700.48	0.095
700.68	0.094
700.87	0.094
701.07	0.094
701.26	0.094
701.46	0.094
701.65	0.094
701.85	0.094
702.04	0.094
702.24	0.093
702.43	0.094
702.63	0.093
702.82	0.093
703.02	0.093
703.21	0.093
703.41	0.092
703.60	0.092
703.80	0.092
703.99	0.092
704.19	0.092
704.38	0.091
704.58	0.091
704.77	0.091
704.97	0.091
705.16	0.091
705.36	0.092
705.55	0.091
705.75	0.091
705.94	0.091
706.14	0.091
706.33	0.091
706.53	0.091
706.72	0.091
706.92	0.091
707.11	0.091
707.31	0.090
707.50	0.089
707.70	0.089
707.89	0.089
708.09	0.089
708.28	0.089
708.48	0.089
708.67	0.089
708.86	0.089
709.06	0.089
709.25	0.089
709.45	0.089
709.64	0.089
709.84	0.089
710.03	0.089
710.23	0.089
710.42	0.088
710.62	0.088
710.81	0.088
711.00	0.088
711.20	0.088
711.39	0.088
711.59	0.088
711.78	0.088
711.98	0.088
712.17	0.088
712.37	0.088
712.56	0.088
712.75	0.088
712.95	0.088
713.14	0.088
713.34	0.087
713.53	0.088
713.73	0.088
713.92	0.087
714.11	0.087
714.31	0.087
714.50	0.087
714.70	0.087
714.89	0.087
715.08	0.087
715.28	0.087
715.47	0.086
715.67	0.086
715.86	0.086
716.06	0.086
716.25	0.086
716.44	0.086
716.64	0.086
716.83	0.086
717.03	0.086
717.22	0.085
717.41	0.086
717.61	0.086
717.80	0.086
717.99	0.086
718.19	0.086
718.38	0.086
718.58	0.085
718.77	0.085
718.96	0.085
719.16	0.085
719.35	0.085
719.55	0.085
719.74	0.084
719.93	0.084
720.13	0.083
720.32	0.084
720.51	0.084
720.71	0.084
720.90	0.084
721.10	0.084
721.29	0.084
721.48	0.084
721.68	0.083
721.87	0.084
722.06	0.084
722.26	0.084
722.45	0.084
722.64	0.084
722.84	0.084
723.03	0.084
723.22	0.085
723.42	0.085
723.61	0.084
723.80	0.085
724.00	0.085
724.19	0.085
724.38	0.085
724.58	0.084
724.77	0.084
724.96	0.084
725.16	0.084
725.35	0.084
725.54	0.084
725.74	0.084
725.93	0.084
726.12	0.084
726.32	0.084
726.51	0.084
726.70	0.084
726.90	0.084
727.09	0.084
727.28	0.084
727.48	0.084
727.67	0.084
727.86	0.084
728.06	0.084
728.25	0.084
728.44	0.084
728.64	0.083
728.83	0.083
729.02	0.083
729.21	0.084
729.41	0.083
729.60	0.083
729.79	0.083
729.99	0.083
730.18	0.083
730.37	0.083
730.56	0.083
730.76	0.083
730.95	0.083
731.14	0.083
731.34	0.083
731.53	0.083
731.72	0.084
731.91	0.084
732.11	0.083
732.30	0.083
732.49	0.083
732.69	0.084
732.88	0.084
733.07	0.083
733.26	0.084
733.46	0.084
733.65	0.084
733.84	0.083
734.03	0.083
734.23	0.084
734.42	0.084
734.61	0.084
734.80	0.083
735.00	0.083
735.19	0.083
735.38	0.083
735.57	0.083
735.77	0.083
735.96	0.084
736.15	0.083
736.34	0.083
736.54	0.084
736.73	0.084
736.92	0.084
737.11	0.084
737.31	0.083
737.50	0.084
737.69	0.084
737.88	0.083
738.07	0.083
738.27	0.083
738.46	0.083
738.65	0.083
738.84	0.083
739.04	0.083
739.23	0.083
739.42	0.083
739.61	0.083
739.80	0.083
740.00	0.083
740.19	0.083
740.38	0.083
740.57	0.083
740.76	0.082
740.96	0.082
741.15	0.081
741.34	0.081
741.53	0.082
741.72	0.081
741.92	0.081
742.11	0.081
742.30	0.081
742.49	0.082
742.68	0.081
742.88	0.082
743.07	0.082
743.26	0.082
743.45	0.082
743.64	0.082
743.84	0.081
744.03	0.081
744.22	0.082
744.41	0.081
744.60	0.081
744.79	0.081
744.99	0.081
745.18	0.081
745.37	0.081
745.56	0.080
745.75	0.080
745.94	0.080
746.14	0.081
746.33	0.081
746.52	0.081
746.71	0.081
746.90	0.080
747.09	0.081
747.28	0.080
747.48	0.080
747.67	0.080
747.86	0.080
748.05	0.080
748.24	0.079
748.43	0.079
748.62	0.079
748.82	0.079
749.01	0.079
749.20	0.079
749.39	0.079
749.58	0.079
749.77	0.079
749.96	0.079
750.16	0.079
750.35	0.079
750.54	0.079
750.73	0.079
750.92	0.080
751.11	0.080
751.30	0.080
751.49	0.080
751.68	0.080
751.88	0.079
752.07	0.079
752.26	0.079
752.45	0.079
752.64	0.079
752.83	0.079
753.02	0.079
753.21	0.078
753.40	0.078
753.60	0.078
753.79	0.078
753.98	0.078
754.17	0.078
754.36	0.078
754.55	0.078
754.74	0.078
754.93	0.078
755.12	0.078
755.31	0.078
755.50	0.078
755.70	0.078
755.89	0.078
756.08	0.078
756.27	0.078
756.46	0.078
756.65	0.078
756.84	0.077
757.03	0.077
757.22	0.077
757.41	0.077
757.60	0.077
757.79	0.077
757.98	0.077
758.17	0.077
758.36	0.077
758.56	0.077
758.75	0.076
758.94	0.077
759.13	0.077
759.32	0.076
759.51	0.076
759.70	0.077
759.89	0.077
760.08	0.076
760.27	0.076
760.46	0.076
760.65	0.076
760.84	0.077
761.03	0.077
761.22	0.077
761.41	0.077
761.60	0.077
761.79	0.076
761.98	0.076
762.17	0.076
762.36	0.076
762.55	0.075
762.74	0.076
762.93	0.075
763.12	0.075
763.31	0.075
763.50	0.075
763.69	0.075
763.88	0.075
764.07	0.075
764.26	0.075
764.45	0.075
764.64	0.075
764.83	0.075
765.02	0.075
765.21	0.075
765.40	0.075
765.59	0.075
765.78	0.075
765.97	0.075
766.16	0.075
766.35	0.075
766.54	0.075
766.73	0.075
766.92	0.075
767.11	0.074
767.30	0.075
767.49	0.074
767.68	0.074
767.87	0.074
768.06	0.074
768.25	0.074
768.44	0.074
768.63	0.074
768.82	0.074
769.01	0.074
769.20	0.074
769.39	0.074
769.58	0.075
769.77	0.074
769.96	0.075
770.15	0.074
770.34	0.074
770.53	0.074
770.72	0.074
770.91	0.073
771.10	0.073
771.29	0.073
771.47	0.073
771.66	0.073
771.85	0.073
772.04	0.073
772.23	0.073
772.42	0.073
772.61	0.073
772.80	0.073
772.99	0.073
773.18	0.073
773.37	0.074
773.56	0.074
773.75	0.074
773.94	0.074
774.13	0.074
774.31	0.074
774.50	0.073
774.69	0.073
774.88	0.073
775.07	0.073
775.26	0.073
775.45	0.072
775.64	0.073
775.83	0.073
776.02	0.072
776.21	0.072
776.40	0.073
776.58	0.073
776.77	0.072
776.96	0.073
777.15	0.073
777.34	0.073
777.53	0.073
777.72	0.073
777.91	0.073
778.10	0.072
778.28	0.072
778.47	0.073
778.66	0.072
778.85	0.072
779.04	0.072
779.23	0.072
779.42	0.072
779.61	0.072
779.79	0.071
779.98	0.071
780.17	0.071
780.36	0.071
780.55	0.070
780.74	0.070
780.93	0.070
781.12	0.070
781.30	0.070
781.49	0.070
781.68	0.070
781.87	0.070
782.06	0.070
782.25	0.070
782.44	0.071
782.62	0.070
782.81	0.071
783.00	0.071
783.19	0.071
783.38	0.070
783.57	0.071
783.75	0.070
783.94	0.070
784.13	0.070
784.32	0.070
784.51	0.070
784.70	0.070
784.88	0.070
785.07	0.070
785.26	0.070
785.45	0.070
785.64	0.069
785.83	0.070
786.01	0.070
786.20	0.070
786.39	0.070
786.58	0.070
786.77	0.069
786.95	0.070
787.14	0.069
787.33	0.070
787.52	0.070
787.71	0.070
787.90	0.069
788.08	0.069
788.27	0.069
788.46	0.069
788.65	0.069
788.84	0.069
789.02	0.069
789.21	0.069
789.40	0.069
789.59	0.069
789.77	0.069
789.96	0.069
790.15	0.069
790.34	0.069
790.53	0.068
790.71	0.068
790.90	0.069
791.09	0.068
791.28	0.069
791.46	0.069
791.65	0.069
791.84	0.069
792.03	0.069
792.22	0.069
792.40	0.068
792.59	0.069
792.78	0.069
792.97	0.069
793.15	0.069
793.34	0.069
793.53	0.069
793.72	0.069
793.90	0.068
794.09	0.069
794.28	0.069
794.47	0.069
794.65	0.068
794.84	0.068
795.03	0.068
795.22	0.068
795.40	0.068
795.59	0.068
795.78	0.068
795.97	0.068
796.15	0.068
796.34	0.068
796.53	0.068
796.71	0.068
796.90	0.068
797.09	0.068
797.28	0.068
797.46	0.068
797.65	0.068
797.84	0.068
798.02	0.068
798.21	0.067
798.40	0.067
798.59	0.067
798.77	0.067
798.96	0.067
799.15	0.067
799.33	0.067
799.52	0.067
799.71	0.067
799.90	0.067
800.08	0.067
800.27	0.067
800.46	0.067
800.64	0.066
800.83	0.067
801.02	0.067
801.20	0.067
801.39	0.067
801.58	0.066
801.76	0.066
801.95	0.066
802.14	0.066
802.32	0.066
802.51	0.066
802.70	0.066
802.88	0.066
803.07	0.066
803.26	0.066
803.44	0.065
803.63	0.066
803.82	0.065
804.00	0.066
804.19	0.066
804.38	0.066
804.56	0.066
804.75	0.067
804.94	0.067
805.12	0.067
805.31	0.067
805.50	0.067
805.68	0.067
805.87	0.067
806.06	0.067
806.24	0.067
806.43	0.067
806.62	0.067
806.80	0.067
806.99	0.067
807.17	0.067
807.36	0.067
807.55	0.067
807.73	0.066
807.92	0.067
808.11	0.066
808.29	0.066
808.48	0.066
808.66	0.066
808.85	0.066
809.04	0.066
809.22	0.066
809.41	0.066
809.59	0.066
809.78	0.066
809.97	0.065
810.15	0.065
810.34	0.065
810.53	0.065
810.71	0.065
810.90	0.065
811.08	0.065
811.27	0.065
811.45	0.065
811.64	0.065
811.83	0.065
812.01	0.065
812.20	0.065
812.38	0.065
812.57	0.065
812.76	0.065
812.94	0.065
813.13	0.066
813.31	0.066
813.50	0.066
813.68	0.066
813.87	0.066
814.06	0.066
814.24	0.066
814.43	0.066
814.61	0.066
814.80	0.065
814.98	0.066
815.17	0.066
815.36	0.066
815.54	0.066
815.73	0.066
815.91	0.065
816.10	0.065
816.28	0.065
816.47	0.065
816.65	0.066
816.84	0.066
817.03	0.066
817.21	0.066
817.40	0.066
817.58	0.066
817.77	0.066
817.95	0.066
818.14	0.066
818.32	0.066
818.51	0.066
818.69	0.066
818.88	0.066
819.06	0.066
819.25	0.066
819.43	0.066
819.62	0.066
819.80	0.066
819.99	0.066
820.18	0.066
820.36	0.066
820.55	0.066
820.73	0.066
820.92	0.066
821.10	0.066
821.29	0.066
821.47	0.066
821.66	0.066
821.84	0.066
822.03	0.066
822.21	0.066
822.40	0.066
822.58	0.066
822.77	0.066
822.95	0.066
823.14	0.066
823.32	0.067
823.50	0.067
823.69	0.067
823.87	0.067
824.06	0.067
824.24	0.067
824.43	0.067
824.61	0.067
824.80	0.067
824.98	0.067
825.17	0.067
825.35	0.067
825.54	0.067
825.72	0.067
825.91	0.067
826.09	0.067
826.28	0.067
826.46	0.067
826.64	0.067
826.83	0.067
827.01	0.068
827.20	0.068
827.38	0.067
827.57	0.068
827.75	0.068
827.94	0.068
828.12	0.068
828.31	0.068
828.49	0.068
828.67	0.068
828.86	0.068
829.04	0.068
829.23	0.068
829.41	0.069
829.60	0.069
829.78	0.069
829.96	0.070
830.15	0.070
830.33	0.070
830.52	0.070
830.70	0.070
830.88	0.070
831.07	0.070
831.25	0.070
831.44	0.070
831.62	0.070
831.81	0.070
831.99	0.070
832.17	0.070
832.36	0.070
832.54	0.071
832.73	0.071
832.91	0.070
833.09	0.070
833.28	0.071
833.46	0.071
833.65	0.071
833.83	0.071
834.01	0.072
834.20	0.072
834.38	0.072
834.56	0.072
834.75	0.072
834.93	0.072
835.12	0.072
835.30	0.072
835.48	0.073
835.67	0.072
835.85	0.073
836.03	0.072
836.22	0.073
836.40	0.072
836.59	0.072
836.77	0.072
836.95	0.072
837.14	0.072
837.32	0.071
837.50	0.071
837.69	0.071
837.87	0.071
838.05	0.071
838.24	0.071
838.42	0.072
838.60	0.072
838.79	0.073
838.97	0.072
839.15	0.073
839.34	0.073
839.52	0.073
839.70	0.073
839.89	0.073
840.07	0.073
840.25	0.073
840.44	0.073
840.62	0.072
840.80	0.072
840.99	0.072
841.17	0.072
841.35	0.072
841.54	0.072
841.72	0.073
841.90	0.073
842.09	0.073
842.27	0.073
842.45	0.073
842.64	0.073
842.82	0.074
843.00	0.074
843.19	0.073
843.37	0.073
843.55	0.073
843.73	0.072
843.92	0.073
844.10	0.073
844.28	0.073
844.47	0.073
844.65	0.072
844.83	0.073
845.01	0.073
845.20	0.073
845.38	0.073
845.56	0.073
845.75	0.073
845.93	0.073
846.11	0.073
846.29	0.073
846.48	0.073
846.66	0.073
846.84	0.073
847.02	0.073
847.21	0.073
847.39	0.073
847.57	0.074
847.76	0.074
847.94	0.074
848.12	0.074
848.30	0.074
848.49	0.074
848.67	0.074
848.85	0.074
849.03	0.074
849.22	0.074
849.40	0.074
849.58	0.074
849.76	0.074
849.95	0.074
850.13	0.074
850.31	0.074
850.49	0.075
850.67	0.075
850.86	0.075
851.04	0.074
851.22	0.074
851.40	0.074
851.59	0.074
851.77	0.074
851.95	0.074
852.13	0.074
852.31	0.074
852.50	0.074
852.68	0.074
852.86	0.074
853.04	0.074
853.23	0.074
853.41	0.074
853.59	0.074
853.77	0.074
853.95	0.075
854.14	0.074
854.32	0.074
854.50	0.074
854.68	0.074
854.86	0.074
855.04	0.074
855.23	0.074
855.41	0.075
855.59	0.075
855.77	0.075
855.95	0.075
856.14	0.075
856.32	0.075
856.50	0.075
856.68	0.075
856.86	0.075
857.04	0.075
857.23	0.075
857.41	0.075
857.59	0.075
857.77	0.074
857.95	0.074
858.13	0.074
858.32	0.074
858.50	0.074
858.68	0.074
858.86	0.074
859.04	0.074
859.22	0.074
859.41	0.075
859.59	0.075
859.77	0.075
859.95	0.075
860.13	0.075
860.31	0.075
860.49	0.075
860.68	0.075
860.86	0.075
861.04	0.075
861.22	0.075
861.40	0.075
861.58	0.075
861.76	0.074
861.94	0.075
862.13	0.074
862.31	0.075
862.49	0.075
862.67	0.075
862.85	0.075
863.03	0.075
863.21	0.075
863.39	0.075
863.57	0.075
863.76	0.076
863.94	0.076
864.12	0.076
864.30	0.075
864.48	0.075
864.66	0.075
864.84	0.075
865.02	0.075
865.20	0.076
865.38	0.076
865.57	0.076
865.75	0.076
865.93	0.076
866.11	0.076
866.29	0.076
866.47	0.076
866.65	0.076
866.83	0.076
867.01	0.076
867.19	0.076
867.37	0.075
867.55	0.076
867.73	0.075
867.92	0.075
868.10	0.075
868.28	0.075
868.46	0.075
868.64	0.075
868.82	0.076
869.00	0.076
869.18	0.076
869.36	0.076
869.54	0.076
869.72	0.077
869.90	0.077
870.08	0.077
870.26	0.077
870.44	0.077
870.62	0.077
870.80	0.076
870.98	0.077
871.16	0.077
871.34	0.076
871.53	0.076
871.71	0.076
871.89	0.076
872.07	0.076
872.25	0.076
872.43	0.077
872.61	0.077
872.79	0.077
872.97	0.077
873.15	0.077
873.33	0.078
873.51	0.078
873.69	0.078
873.87	0.078
874.05	0.078
874.23	0.078
874.41	0.078
874.59	0.078
874.77	0.078
874.95	0.077
875.13	0.078
875.31	0.077
875.49	0.078
875.67	0.077
875.85	0.077
876.03	0.077
876.21	0.078
876.39	0.078
876.57	0.078
876.75	0.078
876.93	0.078
877.11	0.078
877.29	0.078
877.47	0.078
877.65	0.078
877.82	0.079
878.00	0.078
878.18	0.079
878.36	0.078
878.54	0.079
878.72	0.078
878.90	0.079
879.08	0.079
879.26	0.079
879.44	0.079
879.62	0.079
879.80	0.079
879.98	0.079
880.16	0.079
880.34	0.079
880.52	0.079
880.70	0.079
880.88	0.079
881.06	0.079
881.24	0.079
881.42	0.078
881.59	0.078
881.77	0.078
881.95	0.078
882.13	0.078
882.31	0.078
882.49	0.078
882.67	0.078
882.85	0.078
883.03	0.078
883.21	0.078
883.39	0.078
883.57	0.079
883.75	0.079
883.92	0.079
884.10	0.079
884.28	0.079
884.46	0.080
884.64	0.079
884.82	0.080
885.00	0.079
885.18	0.080
885.36	0.080
885.54	0.080
885.71	0.080
885.89	0.080
886.07	0.080
886.25	0.081
886.43	0.080
886.61	0.080
886.79	0.080
886.97	0.080
887.15	0.080
887.32	0.080
887.50	0.080
887.68	0.080
887.86	0.080
888.04	0.080
888.22	0.080
888.40	0.080
888.57	0.080
888.75	0.080
888.93	0.081
889.11	0.080
889.29	0.081
889.47	0.081
889.65	0.081
889.82	0.081
890.00	0.081
890.18	0.081
890.36	0.081
890.54	0.082
890.72	0.081
890.90	0.081
891.07	0.081
891.25	0.081
891.43	0.081
891.61	0.081
891.79	0.081
891.97	0.081
892.14	0.080
892.32	0.080
892.50	0.080
892.68	0.081
892.86	0.081
893.03	0.081
893.21	0.081
893.39	0.081
893.57	0.082
893.75	0.082
893.93	0.082
894.10	0.082
894.28	0.082
894.46	0.082
894.64	0.082
894.82	0.082
894.99	0.082
895.17	0.082
895.35	0.082
895.53	0.082
895.71	0.082
895.88	0.082
896.06	0.082
896.24	0.082
896.42	0.082
896.59	0.082
896.77	0.082
896.95	0.082
897.13	0.082
897.31	0.083
897.48	0.083
897.66	0.083
897.84	0.083
898.02	0.083
898.19	0.082
898.37	0.083
898.55	0.083
898.73	0.083
898.91	0.083
899.08	0.083
899.26	0.083
899.44	0.083
899.62	0.083
899.79	0.083
899.97	0.083
900.15	0.083
900.33	0.083
900.50	0.083
900.68	0.083
900.86	0.083
901.04	0.083
901.21	0.084
901.39	0.083
901.57	0.084
901.74	0.084
901.92	0.084
902.10	0.084
902.28	0.084
902.45	0.085
902.63	0.085
902.81	0.084
902.99	0.085
903.16	0.085
903.34	0.085
903.52	0.085
903.69	0.085
903.87	0.085
904.05	0.085
904.22	0.085
904.40	0.086
904.58	0.085
904.76	0.086
904.93	0.085
905.11	0.085
905.29	0.085
905.46	0.085
905.64	0.085
905.82	0.085
905.99	0.085
906.17	0.085
906.35	0.085
906.53	0.085
906.70	0.085
906.88	0.086
907.06	0.086
907.23	0.086
907.41	0.086
907.59	0.086
907.76	0.087
907.94	0.087
908.12	0.086
908.29	0.086
908.47	0.086
908.65	0.086
908.82	0.086
909.00	0.086
909.18	0.087
909.35	0.086
909.53	0.086
909.71	0.086
909.88	0.086
910.06	0.086
910.23	0.086
910.41	0.087
910.59	0.086
910.76	0.086
910.94	0.086
911.12	0.086
911.29	0.087
911.47	0.087
911.65	0.088
911.82	0.088
912.00	0.088
912.17	0.088
912.35	0.088
912.53	0.088
912.70	0.088
912.88	0.089
913.06	0.089
913.23	0.089
913.41	0.089
913.58	0.089
913.76	0.089
913.94	0.089
914.11	0.089
914.29	0.089
914.46	0.090
914.64	0.089
914.82	0.089
914.99	0.089
915.17	0.089
915.34	0.089
915.52	0.089
915.70	0.089
915.87	0.089
916.05	0.089
916.22	0.089
916.40	0.089
916.57	0.090
916.75	0.090
916.93	0.090
917.10	0.090
917.28	0.091
917.45	0.090
917.63	0.090
917.80	0.091
917.98	0.091
918.16	0.091
918.33	0.091
918.51	0.091
918.68	0.091
918.86	0.091
919.03	0.092
919.21	0.092
919.39	0.092
919.56	0.093
919.74	0.093
919.91	0.093
920.09	0.093
920.26	0.093
920.44	0.093
920.61	0.094
920.79	0.094
920.96	0.094
921.14	0.094
921.31	0.094
921.49	0.094
921.67	0.095
921.84	0.095
922.02	0.095
922.19	0.096
922.37	0.096
922.54	0.096
922.72	0.096
922.89	0.097
923.07	0.097
923.24	0.098
923.42	0.098
923.59	0.098
923.77	0.099
923.94	0.099
924.12	0.099
924.29	0.100
924.47	0.100
924.64	0.100
924.82	0.100
924.99	0.100
925.17	0.100
925.34	0.101
925.52	0.101
925.69	0.102
925.87	0.102
926.04	0.102
926.22	0.103
926.39	0.103
926.57	0.103
926.74	0.103
926.91	0.104
927.09	0.104
927.26	0.104
927.44	0.104
927.61	0.104
927.79	0.104
927.96	0.105
928.14	0.105
928.31	0.106
928.49	0.106
928.66	0.107
928.84	0.107
929.01	0.108
929.18	0.108
929.36	0.109
929.53	0.109
929.71	0.110
929.88	0.110
930.06	0.110
930.23	0.111
930.41	0.111
930.58	0.112
930.75	0.112
930.93	0.113
931.10	0.113
931.28	0.113
931.45	0.114
931.63	0.114
931.80	0.114
931.97	0.114
932.15	0.115
932.32	0.115
932.50	0.115
932.67	0.115
932.84	0.116
933.02	0.117
933.19	0.117
933.37	0.118
933.54	0.118
933.71	0.119
933.89	0.120
934.06	0.120
934.24	0.120
934.41	0.121
934.58	0.121
934.76	0.121
934.93	0.122
935.11	0.122
935.28	0.122
935.45	0.123
935.63	0.124
935.80	0.124
935.98	0.125
936.15	0.125
936.32	0.126
936.50	0.126
936.67	0.127
936.84	0.127
937.02	0.128
937.19	0.129
937.36	0.129
937.54	0.129
937.71	0.130
937.89	0.130
938.06	0.131
938.23	0.131
938.41	0.132
938.58	0.132
938.75	0.133
938.93	0.133
939.10	0.133
939.27	0.133
939.45	0.135
939.62	0.135
939.79	0.136
939.97	0.136
940.14	0.137
940.31	0.138
940.49	0.139
940.66	0.139
940.83	0.139
941.01	0.140
941.18	0.141
941.35	0.142
941.53	0.143
941.70	0.143
941.87	0.144
942.05	0.144
942.22	0.144
942.39	0.146
942.57	0.146
942.74	0.147
942.91	0.147
943.08	0.147
943.26	0.148
943.43	0.148
943.60	0.149
943.78	0.149
943.95	0.150
944.12	0.150
944.29	0.151
944.47	0.152
944.64	0.153
944.81	0.154
944.99	0.155
945.16	0.155
945.33	0.156
945.50	0.157
945.68	0.158
945.85	0.158
946.02	0.160
946.20	0.161
946.37	0.162
946.54	0.163
946.71	0.164
946.89	0.164
947.06	0.165
947.23	0.166
947.40	0.167
947.58	0.167
947.75	0.169
947.92	0.169
948.09	0.169
948.27	0.170
948.44	0.172
948.61	0.172
948.78	0.173
948.96	0.175
949.13	0.175
949.30	0.176
949.47	0.178
949.65	0.179
949.82	0.181
949.99	0.181
950.16	0.183
950.33	0.183
950.51	0.185
950.68	0.186
950.85	0.187
951.02	0.189
951.20	0.189
951.37	0.191
951.54	0.191
951.71	0.193
951.88	0.194
952.06	0.195
952.23	0.196
952.40	0.198
952.57	0.199
952.74	0.200
952.92	0.201
953.09	0.202
953.26	0.204
953.43	0.205
953.60	0.206
953.77	0.207
953.95	0.208
954.12	0.210
954.29	0.211
954.46	0.213
954.63	0.214
954.81	0.215
954.98	0.216
955.15	0.218
955.32	0.219
955.49	0.219
955.66	0.221
955.84	0.222
956.01	0.222
956.18	0.224
956.35	0.226
956.52	0.226
956.69	0.228
956.87	0.229
957.04	0.230
957.21	0.232
957.38	0.231
957.55	0.233
957.72	0.234
957.89	0.235
958.07	0.235
958.24	0.236
958.41	0.238
958.58	0.237
958.75	0.238
958.92	0.239
959.09	0.240
959.26	0.241
959.44	0.241
959.61	0.242
959.78	0.243
959.95	0.244
960.12	0.245
960.29	0.247
960.46	0.246
960.63	0.247
960.81	0.247
960.98	0.248
961.15	0.249
961.32	0.249
961.49	0.249
961.66	0.251
961.83	0.251
962.00	0.251
962.17	0.252
962.34	0.251
962.52	0.252
962.69	0.253
962.86	0.253
963.03	0.253
963.20	0.254
963.37	0.253
963.54	0.254
963.71	0.254
963.88	0.254
964.05	0.255
964.22	0.256
964.39	0.255
964.56	0.255
964.74	0.256
964.91	0.256
965.08	0.256
965.25	0.257
965.42	0.257
965.59	0.258
965.76	0.257
965.93	0.258
966.10	0.256
966.27	0.257
966.44	0.257
966.61	0.258
966.78	0.258
966.95	0.257
967.12	0.258
967.29	0.260
967.46	0.259
967.63	0.259
967.80	0.260
967.97	0.260
968.14	0.260
968.32	0.261
968.49	0.261
968.66	0.260
968.83	0.261
969.00	0.260
969.17	0.260
969.34	0.261
969.51	0.261
969.68	0.260
969.85	0.261
970.02	0.261
970.19	0.260
970.36	0.261
970.53	0.262
970.70	0.260
970.87	0.261
971.04	0.260
971.21	0.261
971.38	0.261
971.55	0.261
971.72	0.261
971.89	0.262
972.06	0.261
972.23	0.260
972.40	0.260
972.57	0.259
972.74	0.260
972.91	0.261
973.07	0.261
973.24	0.260
973.41	0.261
973.58	0.260
973.75	0.272
973.92	0.261
974.09	0.260
974.26	0.260
974.43	0.259
974.60	0.260
974.77	0.260
974.94	0.259
975.11	0.260
975.28	0.261
975.45	0.260
975.62	0.260
975.79	0.262
975.96	0.260
976.13	0.259
976.30	0.261
976.47	0.259
976.64	0.260
976.80	0.260
976.97	0.260
977.14	0.259
977.31	0.259
977.48	0.260
977.65	0.259
977.82	0.259
977.99	0.260
978.16	0.259
978.33	0.259
978.50	0.258
978.67	0.258
978.83	0.258
979.00	0.259
979.17	0.258
979.34	0.257
979.51	0.256
979.68	0.257
979.85	0.257
980.02	0.258
980.19	0.256
980.36	0.257
980.52	0.259
980.69	0.257
980.86	0.257
981.03	0.257
981.20	0.255
981.37	0.257
981.54	0.257
981.71	0.256
981.88	0.256
982.04	0.256
982.21	0.255
982.38	0.256
982.55	0.256
982.72	0.255
982.89	0.256
983.06	0.255
983.22	0.254
983.39	0.255
983.56	0.254
983.73	0.253
983.90	0.252
984.07	0.254
984.24	0.253
984.40	0.252
984.57	0.250
984.74	0.252
984.91	0.253
985.08	0.251
985.25	0.249
985.41	0.250
985.58	0.249
985.75	0.251
985.92	0.250
986.09	0.248
986.26	0.248
986.42	0.248
986.59	0.246
986.76	0.248
986.93	0.248
987.10	0.247
987.27	0.245
987.43	0.244
987.60	0.245
987.77	0.245
987.94	0.244
988.11	0.245
988.27	0.245
988.44	0.244
988.61	0.243
988.78	0.242
988.95	0.243
989.11	0.245
989.28	0.243
989.45	0.243
989.62	0.242
989.79	0.243
989.95	0.242
990.12	0.243
990.29	0.243
990.46	0.241
990.62	0.240
990.79	0.240
990.96	0.240
991.13	0.240
991.30	0.239
991.46	0.238
991.63	0.236
991.80	0.235
991.97	0.236
992.13	0.236
992.30	0.237
992.47	0.235
992.64	0.235
992.80	0.235
992.97	0.235
993.14	0.232
993.31	0.230
993.47	0.233
993.64	0.231
993.81	0.230
993.98	0.230
994.14	0.229
994.31	0.229
994.48	0.230
994.64	0.231
994.81	0.229
994.98	0.230
995.15	0.228
995.31	0.229
995.48	0.229
995.65	0.230
995.82	0.227
995.98	0.227
996.15	0.227
996.32	0.229
996.48	0.227
996.65	0.227
996.82	0.225
996.99	0.225
997.15	0.224
997.32	0.225
997.49	0.224
997.65	0.225
997.82	0.224
997.99	0.222
998.15	0.223
998.32	0.224
998.49	0.222
998.65	0.223
998.82	0.222
998.99	0.219
999.15	0.220
999.32	0.219
999.49	0.219
999.65	0.219
999.82	0.216
999.99	0.217
1000.15	0.217
1000.32	0.218
1000.49	0.217
1000.65	0.215
1000.82	0.215
1000.99	0.215
1001.15	0.215
1001.32	0.215
1001.49	0.215
1001.65	0.215
1001.82	0.217
1001.99	0.213
1002.15	0.213
1002.32	0.213
1002.49	0.214
1002.65	0.212
1002.82	0.210
1002.99	0.210
1003.15	0.212
1003.32	0.210
1003.48	0.210
1003.65	0.209
1003.82	0.208
1003.98	0.205
1004.15	0.205
1004.32	0.205
1004.48	0.205
1004.65	0.206
1004.81	0.204
1004.98	0.203
1005.15	0.204
1005.31	0.203
1005.48	0.201
1005.64	0.202
1005.81	0.204
1005.98	0.201
1006.14	0.201
1006.31	0.201
1006.47	0.199
1006.64	0.198
1006.81	0.197
1006.97	0.198
1007.14	0.199
1007.30	0.200
1007.47	0.200
1007.63	0.197
1007.80	0.196
1007.97	0.196
1008.13	0.197
1008.30	0.197
1008.46	0.197
1008.63	0.195
1008.79	0.195
1008.96	0.195
1009.13	0.196
1009.29	0.193
1009.46	0.193
1009.62	0.193
1009.79	0.191
1009.95	0.191
1010.12	0.192
1010.28	0.192
1010.45	0.191
1010.62	0.190
1010.78	0.189
1010.95	0.188
1011.11	0.189
1011.28	0.189
1011.44	0.190
1011.61	0.188
1011.77	0.187
1011.94	0.187
1012.10	0.187
1012.27	0.187
1012.43	0.187
1012.60	0.186
1012.76	0.186
1012.93	0.185
1013.10	0.184
1013.26	0.181
1013.43	0.183
1013.59	0.190
1013.76	0.183
1013.92	0.182
1014.09	0.180
1014.25	0.182
1014.42	0.182
1014.58	0.181
1014.75	0.183
1014.91	0.181
1015.08	0.184
1015.24	0.180
1015.41	0.182
1015.57	0.181
1015.73	0.180
1015.90	0.177
1016.06	0.179
1016.23	0.177
1016.39	0.177
1016.56	0.178
1016.72	0.177
1016.89	0.176
1017.05	0.178
1017.22	0.174
1017.38	0.175
1017.55	0.174
1017.71	0.175
1017.88	0.175
1018.04	0.175
1018.21	0.173
1018.37	0.173
1018.53	0.173
1018.70	0.171
1018.86	0.171
1019.03	0.172
1019.19	0.170
1019.36	0.170
1019.52	0.171
1019.69	0.172
1019.85	0.171
1020.01	0.171
1020.18	0.170
1020.34	0.170
1020.51	0.170
1020.67	0.172
1020.84	0.171
1021.00	0.173
1021.16	0.170
1021.33	0.171
1021.49	0.169
1021.66	0.170
1021.82	0.169
1021.98	0.168
1022.15	0.168
1022.31	0.167
1022.48	0.164
1022.64	0.165
1022.80	0.163
1022.97	0.162
1023.13	0.161
1023.30	0.162
1023.46	0.161
1023.62	0.158
1023.79	0.160
1023.95	0.160
1024.12	0.160
1024.28	0.160
1024.44	0.161
1024.61	0.160
1024.77	0.160
1024.93	0.160
1025.10	0.161
1025.26	0.159
1025.43	0.159
1025.59	0.156
1025.75	0.160
1025.92	0.158
1026.08	0.157
1026.24	0.156
1026.41	0.157
1026.57	0.154
1026.73	0.152
1026.90	0.153
1027.06	0.151
1027.23	0.152
1027.39	0.152
1027.55	0.152
1027.72	0.151
1027.88	0.151
1028.04	0.151
1028.21	0.152
1028.37	0.147
1028.53	0.152
1028.70	0.149
1028.86	0.147
1029.02	0.148
1029.19	0.149
1029.35	0.147
1029.51	0.147
1029.67	0.146
1029.84	0.147
1030.00	0.142
1030.16	0.143
1030.33	0.145
1030.49	0.143
1030.65	0.142
1030.82	0.156
1030.98	0.143
1031.14	0.142
1031.31	0.142
1031.47	0.141
1031.63	0.144
1031.79	0.143
1031.96	0.144
1032.12	0.145
1032.28	0.142
1032.45	0.145
1032.61	0.144
1032.77	0.144
1032.93	0.142
1033.10	0.142
1033.26	0.145
1033.42	0.142
1033.58	0.142
1033.75	0.144
1033.91	0.142
1034.07	0.145
1034.24	0.145
1034.40	0.142
1034.56	0.140
1034.72	0.140
1034.89	0.141
1035.05	0.138
1035.21	0.139
1035.37	0.137
1035.54	0.139
1035.70	0.136
1035.86	0.136
1036.02	0.137
1036.19	0.136
1036.35	0.135
1036.51	0.139
1036.67	0.135
1036.83	0.135
1037.00	0.134
1037.16	0.134
1037.32	0.134
1037.48	0.135
1037.65	0.139
1037.81	0.135
1037.97	0.135
1038.13	0.134
1038.29	0.133
1038.46	0.131
1038.62	0.136
1038.78	0.133
1038.94	0.131
1039.10	0.136
1039.27	0.132
1039.43	0.133
1039.59	0.132
1039.75	0.132
1039.91	0.132
1040.08	0.131
1040.24	0.136
1040.40	0.136
1040.56	0.135
1040.72	0.129
1040.89	0.131
1041.05	0.132
1041.21	0.130
1041.37	0.128
1041.53	0.134
1041.69	0.131
1041.86	0.130
1042.02	0.126
1042.18	0.127
1042.34	0.129
1042.50	0.132
1042.66	0.129
1042.83	0.127
1042.99	0.132
1043.15	0.126
1043.31	0.127
1043.47	0.130
1043.63	0.127
1043.79	0.126
1043.96	0.129
1044.12	0.131
1044.28	0.129
1044.44	0.131
1044.60	0.126
1044.76	0.124
1044.92	0.128
1045.09	0.129
1045.25	0.126
1045.41	0.127
1045.57	0.122
1045.73	0.120
1045.89	0.123
1046.05	0.124
1046.21	0.119
1046.38	0.121
1046.54	0.123
1046.70	0.134
1046.86	0.121
>>>>>End Processed Spectral Data<<<<<
