SpectraSuite Data File
++++++++++++++++++++++++++++++++++++
Date: Mon May 20 12:12:01 CDT 2013
User: Students
Dark Spectrum Present: Yes
Reference Spectrum Present: Yes
Number of Sampled Component Spectra: 1
Spectrometers: USB4H00887
Integration Time (usec): 60000 (USB4H00887)
Spectra Averaged: 5 (USB4H00887)
Boxcar Smoothing: 5 (USB4H00887)
Correct for Electrical Dark: No (USB4H00887)
Strobe/Lamp Enabled: No (USB4H00887)
Correct for Detector Non-linearity: No (USB4H00887)
Correct for Stray Light: No (USB4H00887)
Number of Pixels in Processed Spectrum: 3648
>>>>>Begin Processed Spectral Data<<<<<
345.83	0.018
346.05	0.018
346.26	0.018
346.48	-0.079
346.70	0.079
346.92	0.066
347.14	0.064
347.35	0.063
347.57	0.373
347.79	-0.288
348.01	-0.198
348.23	-0.300
348.44	-0.000
348.66	0.263
348.88	-0.343
349.10	-0.167
349.32	0.047
349.53	-0.002
349.75	-0.046
349.97	-0.021
350.19	0.024
350.41	0.036
350.62	-0.131
350.84	-0.001
351.06	0.011
351.28	0.004
351.50	-0.016
351.71	0.021
351.93	0.017
352.15	0.027
352.37	0.076
352.58	0.017
352.80	0.017
353.02	0.015
353.24	0.030
353.46	0.014
353.67	0.068
353.89	0.010
354.11	0.006
354.33	0.031
354.54	0.055
354.76	0.105
354.98	0.136
355.20	0.152
355.41	0.074
355.63	0.162
355.85	0.098
356.07	0.872
356.28	0.060
356.50	0.124
356.72	0.040
356.94	0.140
357.15	0.200
357.37	-0.000
357.59	0.111
357.81	0.085
358.02	0.141
358.24	0.077
358.46	0.213
358.68	0.225
358.89	0.135
359.11	-0.000
359.33	0.097
359.55	-0.529
359.76	0.118
359.98	0.117
360.20	0.121
360.42	0.089
360.63	0.129
360.85	0.075
361.07	0.318
361.29	0.048
361.50	0.112
361.72	0.047
361.94	0.209
362.15	0.097
362.37	0.059
362.59	0.065
362.81	0.113
363.02	0.160
363.24	0.244
363.46	0.139
363.68	0.155
363.89	0.111
364.11	0.156
364.33	0.175
364.54	0.099
364.76	0.136
364.98	0.129
365.20	0.129
365.41	0.088
365.63	0.114
365.85	0.086
366.06	0.278
366.28	0.357
366.50	0.247
366.71	0.101
366.93	0.129
367.15	0.117
367.37	0.104
367.58	0.125
367.80	0.132
368.02	0.354
368.23	0.119
368.45	0.104
368.67	0.055
368.88	0.067
369.10	-0.000
369.32	0.121
369.53	0.072
369.75	0.119
369.97	0.220
370.19	0.151
370.40	0.063
370.62	0.178
370.84	0.082
371.05	0.462
371.27	0.118
371.49	0.116
371.70	0.130
371.92	0.182
372.14	0.091
372.35	0.112
372.57	0.122
372.79	0.314
373.00	0.076
373.22	0.125
373.44	0.142
373.65	0.101
373.87	0.145
374.09	0.731
374.30	0.142
374.52	0.159
374.74	0.123
374.95	0.471
375.17	0.138
375.39	-0.000
375.60	0.146
375.82	0.239
376.04	0.115
376.25	0.130
376.47	0.065
376.68	0.158
376.90	0.089
377.12	0.177
377.33	0.120
377.55	0.281
377.77	0.137
377.98	0.239
378.20	0.151
378.42	0.191
378.63	0.251
378.85	-0.000
379.07	0.167
379.28	0.713
379.50	0.370
379.71	0.202
379.93	0.139
380.15	0.193
380.36	0.287
380.58	0.177
380.80	0.478
381.01	0.152
381.23	0.112
381.44	0.130
381.66	0.157
381.88	0.195
382.09	-0.084
382.31	0.134
382.53	0.143
382.74	0.779
382.96	0.210
383.17	0.168
383.39	0.212
383.61	0.279
383.82	0.191
384.04	0.231
384.25	0.285
384.47	0.256
384.69	0.236
384.90	0.222
385.12	0.427
385.33	0.278
385.55	0.225
385.77	0.348
385.98	0.182
386.20	0.271
386.41	0.228
386.63	0.257
386.85	0.227
387.06	0.275
387.28	0.464
387.49	0.300
387.71	0.201
387.93	0.166
388.14	0.530
388.36	0.211
388.57	0.194
388.79	0.216
389.01	-0.000
389.22	0.289
389.44	0.248
389.65	0.198
389.87	0.201
390.08	0.239
390.30	0.193
390.52	0.371
390.73	0.378
390.95	0.252
391.16	0.246
391.38	-0.000
391.59	0.257
391.81	0.222
392.03	0.209
392.24	0.245
392.46	0.216
392.67	0.191
392.89	0.262
393.10	0.393
393.32	0.273
393.53	0.313
393.75	0.203
393.97	0.219
394.18	0.290
394.40	0.242
394.61	0.253
394.83	0.208
395.04	0.237
395.26	0.165
395.47	0.245
395.69	0.196
395.91	0.207
396.12	0.251
396.34	0.275
396.55	0.188
396.77	0.284
396.98	0.986
397.20	0.341
397.41	0.384
397.63	0.263
397.84	0.228
398.06	0.216
398.27	0.227
398.49	0.246
398.71	0.183
398.92	0.216
399.14	0.265
399.35	0.311
399.57	0.299
399.78	0.216
400.00	0.224
400.21	0.287
400.43	0.237
400.64	0.236
400.86	0.513
401.07	0.299
401.29	0.256
401.50	0.273
401.72	0.408
401.93	0.271
402.15	0.328
402.36	0.294
402.58	0.241
402.79	0.270
403.01	0.469
403.22	0.354
403.44	0.247
403.65	0.405
403.87	0.437
404.08	0.328
404.30	0.508
404.51	0.291
404.73	0.350
404.94	0.304
405.16	0.322
405.37	0.248
405.59	0.450
405.80	0.288
406.02	0.336
406.23	0.341
406.45	0.389
406.66	0.423
406.88	0.276
407.09	0.412
407.31	0.329
407.52	0.380
407.74	0.312
407.95	0.354
408.17	0.322
408.38	0.348
408.60	0.237
408.81	0.379
409.03	0.284
409.24	0.287
409.45	0.332
409.67	0.326
409.88	0.294
410.10	0.370
410.31	0.317
410.53	0.307
410.74	0.421
410.96	0.434
411.17	0.453
411.39	0.361
411.60	0.334
411.82	0.375
412.03	0.358
412.24	0.344
412.46	0.489
412.67	0.398
412.89	0.394
413.10	0.392
413.32	0.354
413.53	0.404
413.75	0.417
413.96	0.323
414.17	0.430
414.39	0.451
414.60	0.375
414.82	0.485
415.03	0.388
415.25	0.423
415.46	0.289
415.68	0.389
415.89	0.653
416.10	0.536
416.32	0.311
416.53	0.357
416.75	0.332
416.96	0.394
417.18	0.349
417.39	0.332
417.60	0.341
417.82	0.499
418.03	0.441
418.25	0.371
418.46	0.387
418.67	0.364
418.89	0.393
419.10	0.410
419.32	0.525
419.53	0.477
419.75	0.423
419.96	0.377
420.17	0.439
420.39	0.420
420.60	0.443
420.82	0.526
421.03	0.434
421.24	0.364
421.46	0.407
421.67	0.444
421.89	0.391
422.10	0.408
422.31	0.396
422.53	0.546
422.74	0.420
422.96	0.342
423.17	0.388
423.38	0.460
423.60	0.397
423.81	0.476
424.03	0.423
424.24	0.458
424.45	0.463
424.67	0.458
424.88	0.414
425.09	0.447
425.31	0.419
425.52	0.433
425.74	0.483
425.95	0.523
426.16	0.414
426.38	0.471
426.59	0.437
426.80	0.487
427.02	0.517
427.23	0.422
427.45	0.538
427.66	0.518
427.87	0.419
428.09	0.443
428.30	0.486
428.51	0.478
428.73	0.519
428.94	0.469
429.15	0.464
429.37	0.446
429.58	0.459
429.79	0.426
430.01	0.497
430.22	0.487
430.44	0.496
430.65	0.452
430.86	0.481
431.08	0.466
431.29	0.431
431.50	0.493
431.72	0.617
431.93	0.522
432.14	0.409
432.36	0.453
432.57	0.465
432.78	0.486
433.00	0.448
433.21	0.446
433.42	0.538
433.64	0.484
433.85	0.550
434.06	0.461
434.28	0.484
434.49	0.507
434.70	0.509
434.92	0.513
435.13	0.539
435.34	0.547
435.56	0.519
435.77	0.517
435.98	0.634
436.20	0.533
436.41	0.467
436.62	0.457
436.83	0.510
437.05	0.566
437.26	0.507
437.47	0.459
437.69	0.501
437.90	0.461
438.11	0.460
438.33	0.501
438.54	0.526
438.75	0.645
438.97	0.643
439.18	0.494
439.39	0.510
439.60	0.547
439.82	0.520
440.03	0.480
440.24	0.665
440.46	0.518
440.67	0.499
440.88	0.524
441.10	0.496
441.31	0.492
441.52	0.529
441.73	0.585
441.95	0.535
442.16	0.501
442.37	0.730
442.58	0.495
442.80	0.491
443.01	0.611
443.22	0.567
443.44	0.493
443.65	0.570
443.86	0.566
444.07	0.599
444.29	0.527
444.50	0.642
444.71	0.507
444.92	0.481
445.14	0.587
445.35	0.616
445.56	0.504
445.78	0.572
445.99	0.569
446.20	0.506
446.41	0.559
446.63	0.560
446.84	0.533
447.05	0.540
447.26	0.623
447.48	0.543
447.69	0.520
447.90	0.581
448.11	0.527
448.33	0.548
448.54	0.558
448.75	0.576
448.96	0.578
449.18	0.604
449.39	0.546
449.60	0.538
449.81	0.629
450.03	0.558
450.24	0.592
450.45	0.566
450.66	0.557
450.87	0.579
451.09	0.551
451.30	0.540
451.51	0.582
451.72	0.595
451.94	0.609
452.15	0.650
452.36	0.561
452.57	0.577
452.78	0.579
453.00	0.598
453.21	0.570
453.42	0.553
453.63	0.617
453.85	0.597
454.06	0.591
454.27	0.672
454.48	0.614
454.69	0.569
454.91	0.613
455.12	0.549
455.33	0.604
455.54	0.614
455.75	0.596
455.97	0.618
456.18	0.613
456.39	0.617
456.60	0.630
456.81	0.589
457.03	0.599
457.24	0.602
457.45	0.664
457.66	0.627
457.87	0.599
458.09	0.613
458.30	0.552
458.51	0.634
458.72	0.646
458.93	0.656
459.15	0.590
459.36	0.632
459.57	0.647
459.78	0.674
459.99	0.617
460.20	0.595
460.42	0.647
460.63	0.617
460.84	0.606
461.05	0.620
461.26	0.659
461.47	0.605
461.69	0.634
461.90	0.652
462.11	0.623
462.32	0.659
462.53	0.618
462.74	0.679
462.96	0.608
463.17	0.602
463.38	0.632
463.59	0.700
463.80	0.607
464.01	0.625
464.23	0.681
464.44	0.657
464.65	0.660
464.86	0.674
465.07	0.677
465.28	0.653
465.49	0.670
465.71	0.637
465.92	0.662
466.13	0.693
466.34	0.650
466.55	0.685
466.76	0.665
466.97	0.684
467.19	0.676
467.40	0.700
467.61	0.704
467.82	0.651
468.03	0.647
468.24	0.693
468.45	0.713
468.66	0.706
468.88	0.712
469.09	0.713
469.30	0.741
469.51	0.697
469.72	0.724
469.93	0.703
470.14	0.692
470.35	0.747
470.57	0.714
470.78	0.675
470.99	0.756
471.20	0.718
471.41	0.690
471.62	0.721
471.83	0.700
472.04	0.718
472.25	0.750
472.47	0.696
472.68	0.700
472.89	0.701
473.10	0.729
473.31	0.697
473.52	0.734
473.73	0.749
473.94	0.698
474.15	0.715
474.36	0.715
474.57	0.727
474.79	0.710
475.00	0.710
475.21	0.702
475.42	0.757
475.63	0.698
475.84	0.719
476.05	0.719
476.26	0.704
476.47	0.723
476.68	0.751
476.89	0.710
477.10	0.742
477.32	0.734
477.53	0.769
477.74	0.720
477.95	0.747
478.16	0.716
478.37	0.744
478.58	0.747
478.79	0.757
479.00	0.756
479.21	0.731
479.42	0.755
479.63	0.758
479.84	0.736
480.05	0.735
480.26	0.752
480.47	0.761
480.69	0.766
480.90	0.749
481.11	0.745
481.32	0.782
481.53	0.747
481.74	0.779
481.95	0.759
482.16	0.769
482.37	0.776
482.58	0.754
482.79	0.766
483.00	0.781
483.21	0.747
483.42	0.732
483.63	0.780
483.84	0.796
484.05	0.789
484.26	0.772
484.47	0.770
484.68	0.747
484.89	0.754
485.10	0.785
485.31	0.775
485.52	0.777
485.73	0.775
485.94	0.797
486.15	0.766
486.37	0.778
486.58	0.756
486.79	0.764
487.00	0.797
487.21	0.791
487.42	0.787
487.63	0.788
487.84	0.799
488.05	0.800
488.26	0.779
488.47	0.783
488.68	0.798
488.89	0.784
489.10	0.781
489.31	0.785
489.52	0.804
489.73	0.784
489.94	0.805
490.15	0.779
490.36	0.801
490.57	0.772
490.78	0.762
490.99	0.784
491.20	0.828
491.41	0.803
491.62	0.769
491.83	0.786
492.04	0.784
492.25	0.788
492.45	0.789
492.66	0.803
492.87	0.797
493.08	0.792
493.29	0.785
493.50	0.780
493.71	0.785
493.92	0.782
494.13	0.792
494.34	0.804
494.55	0.810
494.76	0.828
494.97	0.824
495.18	0.803
495.39	0.812
495.60	0.783
495.81	0.785
496.02	0.799
496.23	0.795
496.44	0.815
496.65	0.810
496.86	0.812
497.07	0.828
497.28	0.826
497.49	0.797
497.70	0.797
497.91	0.808
498.12	0.797
498.32	0.820
498.53	0.811
498.74	0.804
498.95	0.818
499.16	0.792
499.37	0.794
499.58	0.798
499.79	0.813
500.00	0.812
500.21	0.829
500.42	0.798
500.63	0.800
500.84	0.813
501.05	0.801
501.26	0.816
501.46	0.838
501.67	0.817
501.88	0.818
502.09	0.807
502.30	0.811
502.51	0.838
502.72	0.811
502.93	0.820
503.14	0.832
503.35	0.816
503.56	0.814
503.77	0.832
503.97	0.820
504.18	0.820
504.39	0.839
504.60	0.821
504.81	0.837
505.02	0.831
505.23	0.829
505.44	0.818
505.65	0.822
505.86	0.812
506.07	0.848
506.27	0.824
506.48	0.826
506.69	0.818
506.90	0.829
507.11	0.827
507.32	0.813
507.53	0.820
507.74	0.817
507.95	0.824
508.15	0.827
508.36	0.831
508.57	0.837
508.78	0.829
508.99	0.829
509.20	0.815
509.41	0.828
509.62	0.821
509.82	0.820
510.03	0.827
510.24	0.827
510.45	0.840
510.66	0.836
510.87	0.834
511.08	0.808
511.29	0.831
511.49	0.817
511.70	0.843
511.91	0.805
512.12	0.803
512.33	0.821
512.54	0.830
512.75	0.820
512.95	0.833
513.16	0.827
513.37	0.814
513.58	0.837
513.79	0.816
514.00	0.821
514.20	0.833
514.41	0.828
514.62	0.809
514.83	0.833
515.04	0.827
515.25	0.814
515.46	0.821
515.66	0.823
515.87	0.828
516.08	0.812
516.29	0.825
516.50	0.812
516.71	0.807
516.91	0.812
517.12	0.822
517.33	0.814
517.54	0.808
517.75	0.810
517.95	0.816
518.16	0.824
518.37	0.804
518.58	0.808
518.79	0.795
519.00	0.812
519.20	0.818
519.41	0.800
519.62	0.812
519.83	0.817
520.04	0.797
520.24	0.796
520.45	0.800
520.66	0.814
520.87	0.791
521.08	0.790
521.28	0.791
521.49	0.800
521.70	0.783
521.91	0.790
522.12	0.779
522.32	0.790
522.53	0.780
522.74	0.773
522.95	0.778
523.16	0.778
523.36	0.783
523.57	0.772
523.78	0.769
523.99	0.771
524.20	0.767
524.40	0.773
524.61	0.778
524.82	0.762
525.03	0.766
525.23	0.766
525.44	0.756
525.65	0.756
525.86	0.768
526.06	0.751
526.27	0.752
526.48	0.758
526.69	0.749
526.90	0.751
527.10	0.772
527.31	0.743
527.52	0.740
527.73	0.735
527.93	0.740
528.14	0.744
528.35	0.737
528.56	0.737
528.76	0.731
528.97	0.724
529.18	0.719
529.39	0.719
529.59	0.721
529.80	0.739
530.01	0.722
530.22	0.721
530.42	0.701
530.63	0.711
530.84	0.696
531.05	0.706
531.25	0.706
531.46	0.700
531.67	0.686
531.88	0.698
532.08	0.692
532.29	0.690
532.50	0.685
532.70	0.681
532.91	0.675
533.12	0.677
533.33	0.693
533.53	0.675
533.74	0.674
533.95	0.678
534.15	0.670
534.36	0.670
534.57	0.658
534.78	0.659
534.98	0.666
535.19	0.647
535.40	0.648
535.60	0.659
535.81	0.646
536.02	0.648
536.23	0.641
536.43	0.642
536.64	0.634
536.85	0.640
537.05	0.646
537.26	0.629
537.47	0.632
537.67	0.623
537.88	0.620
538.09	0.623
538.30	0.615
538.50	0.610
538.71	0.618
538.92	0.608
539.12	0.605
539.33	0.602
539.54	0.602
539.74	0.604
539.95	0.598
540.16	0.596
540.36	0.592
540.57	0.592
540.78	0.587
540.98	0.585
541.19	0.585
541.40	0.577
541.60	0.584
541.81	0.580
542.02	0.581
542.22	0.574
542.43	0.569
542.64	0.565
542.84	0.566
543.05	0.560
543.26	0.561
543.46	0.563
543.67	0.561
543.88	0.557
544.08	0.550
544.29	0.545
544.50	0.546
544.70	0.548
544.91	0.541
545.12	0.542
545.32	0.539
545.53	0.541
545.74	0.533
545.94	0.531
546.15	0.530
546.35	0.528
546.56	0.526
546.77	0.524
546.97	0.522
547.18	0.517
547.39	0.517
547.59	0.515
547.80	0.513
548.01	0.516
548.21	0.513
548.42	0.506
548.62	0.506
548.83	0.505
549.04	0.502
549.24	0.496
549.45	0.496
549.65	0.493
549.86	0.490
550.07	0.489
550.27	0.487
550.48	0.493
550.69	0.482
550.89	0.482
551.10	0.479
551.30	0.477
551.51	0.477
551.72	0.469
551.92	0.471
552.13	0.471
552.33	0.472
552.54	0.467
552.75	0.462
552.95	0.464
553.16	0.460
553.36	0.459
553.57	0.458
553.78	0.456
553.98	0.457
554.19	0.449
554.39	0.447
554.60	0.449
554.80	0.450
555.01	0.444
555.22	0.445
555.42	0.441
555.63	0.436
555.83	0.439
556.04	0.434
556.25	0.436
556.45	0.429
556.66	0.428
556.86	0.431
557.07	0.429
557.27	0.428
557.48	0.424
557.68	0.423
557.89	0.424
558.10	0.421
558.30	0.418
558.51	0.417
558.71	0.415
558.92	0.410
559.12	0.412
559.33	0.415
559.54	0.411
559.74	0.407
559.95	0.406
560.15	0.405
560.36	0.404
560.56	0.399
560.77	0.400
560.97	0.400
561.18	0.397
561.38	0.396
561.59	0.398
561.79	0.395
562.00	0.394
562.21	0.391
562.41	0.390
562.62	0.390
562.82	0.389
563.03	0.386
563.23	0.386
563.44	0.386
563.64	0.384
563.85	0.385
564.05	0.379
564.26	0.378
564.46	0.378
564.67	0.379
564.87	0.376
565.08	0.373
565.28	0.372
565.49	0.373
565.69	0.371
565.90	0.368
566.10	0.370
566.31	0.365
566.51	0.368
566.72	0.368
566.92	0.363
567.13	0.362
567.33	0.361
567.54	0.360
567.74	0.360
567.95	0.356
568.15	0.358
568.36	0.357
568.56	0.356
568.77	0.352
568.97	0.350
569.18	0.350
569.38	0.349
569.59	0.350
569.79	0.347
570.00	0.345
570.20	0.344
570.41	0.342
570.61	0.341
570.82	0.342
571.02	0.339
571.23	0.341
571.43	0.337
571.64	0.336
571.84	0.336
572.05	0.335
572.25	0.335
572.45	0.333
572.66	0.330
572.86	0.329
573.07	0.328
573.27	0.329
573.48	0.329
573.68	0.326
573.89	0.325
574.09	0.327
574.30	0.325
574.50	0.323
574.70	0.324
574.91	0.322
575.11	0.323
575.32	0.322
575.52	0.318
575.73	0.318
575.93	0.317
576.14	0.316
576.34	0.315
576.54	0.314
576.75	0.313
576.95	0.313
577.16	0.311
577.36	0.310
577.57	0.310
577.77	0.308
577.97	0.306
578.18	0.308
578.38	0.304
578.59	0.303
578.79	0.301
579.00	0.301
579.20	0.300
579.40	0.299
579.61	0.299
579.81	0.297
580.02	0.296
580.22	0.296
580.42	0.295
580.63	0.296
580.83	0.295
581.04	0.293
581.24	0.293
581.45	0.291
581.65	0.291
581.85	0.291
582.06	0.289
582.26	0.289
582.47	0.287
582.67	0.287
582.87	0.286
583.08	0.284
583.28	0.284
583.48	0.283
583.69	0.281
583.89	0.281
584.10	0.281
584.30	0.279
584.50	0.278
584.71	0.278
584.91	0.278
585.12	0.276
585.32	0.277
585.52	0.275
585.73	0.274
585.93	0.273
586.13	0.272
586.34	0.271
586.54	0.271
586.75	0.270
586.95	0.268
587.15	0.268
587.36	0.267
587.56	0.267
587.76	0.265
587.97	0.265
588.17	0.264
588.37	0.264
588.58	0.264
588.78	0.262
588.98	0.263
589.19	0.262
589.39	0.260
589.60	0.262
589.80	0.259
590.00	0.259
590.21	0.259
590.41	0.257
590.61	0.257
590.82	0.257
591.02	0.256
591.22	0.254
591.43	0.256
591.63	0.254
591.83	0.254
592.04	0.252
592.24	0.253
592.44	0.251
592.65	0.250
592.85	0.250
593.05	0.250
593.26	0.249
593.46	0.249
593.66	0.249
593.86	0.247
594.07	0.245
594.27	0.246
594.47	0.244
594.68	0.244
594.88	0.245
595.08	0.244
595.29	0.245
595.49	0.242
595.69	0.242
595.90	0.241
596.10	0.242
596.30	0.241
596.50	0.240
596.71	0.240
596.91	0.239
597.11	0.238
597.32	0.237
597.52	0.237
597.72	0.237
597.93	0.236
598.13	0.235
598.33	0.235
598.53	0.234
598.74	0.234
598.94	0.233
599.14	0.233
599.35	0.234
599.55	0.234
599.75	0.233
599.95	0.231
600.16	0.232
600.36	0.230
600.56	0.231
600.76	0.230
600.97	0.229
601.17	0.228
601.37	0.228
601.58	0.227
601.78	0.227
601.98	0.226
602.18	0.225
602.39	0.225
602.59	0.225
602.79	0.224
602.99	0.224
603.20	0.223
603.40	0.223
603.60	0.223
603.80	0.223
604.01	0.223
604.21	0.222
604.41	0.222
604.61	0.221
604.82	0.220
605.02	0.221
605.22	0.220
605.42	0.220
605.62	0.220
605.83	0.218
606.03	0.217
606.23	0.217
606.43	0.217
606.64	0.217
606.84	0.216
607.04	0.215
607.24	0.215
607.45	0.215
607.65	0.213
607.85	0.214
608.05	0.213
608.25	0.213
608.46	0.213
608.66	0.213
608.86	0.213
609.06	0.212
609.26	0.211
609.47	0.212
609.67	0.211
609.87	0.212
610.07	0.210
610.28	0.209
610.48	0.209
610.68	0.209
610.88	0.208
611.08	0.208
611.29	0.207
611.49	0.206
611.69	0.207
611.89	0.206
612.09	0.205
612.29	0.205
612.50	0.205
612.70	0.205
612.90	0.204
613.10	0.203
613.30	0.202
613.51	0.203
613.71	0.203
613.91	0.207
614.11	0.202
614.31	0.202
614.51	0.202
614.72	0.201
614.92	0.201
615.12	0.201
615.32	0.201
615.52	0.201
615.72	0.201
615.93	0.201
616.13	0.200
616.33	0.200
616.53	0.200
616.73	0.200
616.93	0.198
617.14	0.199
617.34	0.199
617.54	0.199
617.74	0.199
617.94	0.198
618.14	0.198
618.34	0.197
618.55	0.197
618.75	0.197
618.95	0.197
619.15	0.197
619.35	0.196
619.55	0.194
619.75	0.195
619.96	0.194
620.16	0.194
620.36	0.194
620.56	0.193
620.76	0.193
620.96	0.193
621.16	0.193
621.36	0.192
621.57	0.192
621.77	0.193
621.97	0.191
622.17	0.191
622.37	0.191
622.57	0.191
622.77	0.190
622.97	0.189
623.18	0.189
623.38	0.190
623.58	0.190
623.78	0.189
623.98	0.189
624.18	0.188
624.38	0.188
624.58	0.188
624.78	0.188
624.98	0.188
625.19	0.187
625.39	0.187
625.59	0.186
625.79	0.186
625.99	0.185
626.19	0.185
626.39	0.185
626.59	0.185
626.79	0.185
626.99	0.185
627.19	0.185
627.40	0.185
627.60	0.184
627.80	0.184
628.00	0.184
628.20	0.184
628.40	0.184
628.60	0.183
628.80	0.182
629.00	0.182
629.20	0.181
629.40	0.181
629.60	0.180
629.80	0.181
630.00	0.180
630.20	0.180
630.41	0.179
630.61	0.179
630.81	0.179
631.01	0.179
631.21	0.178
631.41	0.179
631.61	0.179
631.81	0.179
632.01	0.178
632.21	0.178
632.41	0.177
632.61	0.177
632.81	0.177
633.01	0.177
633.21	0.177
633.41	0.178
633.61	0.176
633.81	0.176
634.01	0.176
634.21	0.176
634.41	0.175
634.61	0.176
634.81	0.175
635.01	0.175
635.22	0.175
635.42	0.175
635.62	0.175
635.82	0.175
636.02	0.174
636.22	0.174
636.42	0.173
636.62	0.173
636.82	0.173
637.02	0.173
637.22	0.173
637.42	0.172
637.62	0.171
637.82	0.171
638.02	0.170
638.22	0.170
638.42	0.170
638.62	0.170
638.82	0.170
639.02	0.170
639.22	0.170
639.42	0.169
639.62	0.169
639.82	0.169
640.02	0.169
640.22	0.168
640.42	0.168
640.62	0.168
640.82	0.168
641.02	0.167
641.22	0.167
641.42	0.166
641.61	0.166
641.81	0.167
642.01	0.167
642.21	0.167
642.41	0.167
642.61	0.166
642.81	0.165
643.01	0.165
643.21	0.166
643.41	0.166
643.61	0.165
643.81	0.165
644.01	0.163
644.21	0.163
644.41	0.164
644.61	0.164
644.81	0.164
645.01	0.164
645.21	0.163
645.41	0.163
645.61	0.162
645.81	0.162
646.01	0.162
646.21	0.162
646.40	0.161
646.60	0.161
646.80	0.161
647.00	0.161
647.20	0.160
647.40	0.160
647.60	0.160
647.80	0.159
648.00	0.160
648.20	0.159
648.40	0.159
648.60	0.158
648.80	0.158
649.00	0.159
649.20	0.159
649.39	0.158
649.59	0.158
649.79	0.157
649.99	0.157
650.19	0.157
650.39	0.157
650.59	0.157
650.79	0.156
650.99	0.156
651.19	0.155
651.39	0.155
651.58	0.155
651.78	0.155
651.98	0.155
652.18	0.154
652.38	0.154
652.58	0.154
652.78	0.153
652.98	0.153
653.18	0.154
653.38	0.154
653.57	0.154
653.77	0.154
653.97	0.153
654.17	0.153
654.37	0.152
654.57	0.153
654.77	0.152
654.97	0.152
655.16	0.152
655.36	0.151
655.56	0.151
655.76	0.150
655.96	0.151
656.16	0.149
656.36	0.150
656.56	0.149
656.75	0.149
656.95	0.149
657.15	0.149
657.35	0.148
657.55	0.148
657.75	0.148
657.95	0.148
658.14	0.147
658.34	0.148
658.54	0.147
658.74	0.147
658.94	0.147
659.14	0.147
659.34	0.146
659.53	0.146
659.73	0.145
659.93	0.145
660.13	0.144
660.33	0.144
660.53	0.144
660.72	0.145
660.92	0.144
661.12	0.144
661.32	0.144
661.52	0.143
661.72	0.143
661.91	0.143
662.11	0.143
662.31	0.143
662.51	0.143
662.71	0.143
662.90	0.142
663.10	0.141
663.30	0.141
663.50	0.141
663.70	0.141
663.90	0.141
664.09	0.141
664.29	0.141
664.49	0.140
664.69	0.140
664.89	0.140
665.08	0.140
665.28	0.139
665.48	0.139
665.68	0.138
665.88	0.138
666.07	0.137
666.27	0.137
666.47	0.137
666.67	0.137
666.87	0.137
667.06	0.137
667.26	0.137
667.46	0.136
667.66	0.136
667.85	0.136
668.05	0.136
668.25	0.136
668.45	0.136
668.65	0.135
668.84	0.135
669.04	0.135
669.24	0.135
669.44	0.134
669.63	0.134
669.83	0.134
670.03	0.133
670.23	0.133
670.42	0.132
670.62	0.132
670.82	0.131
671.02	0.131
671.22	0.130
671.41	0.130
671.61	0.130
671.81	0.130
672.01	0.130
672.20	0.130
672.40	0.130
672.60	0.130
672.80	0.130
672.99	0.129
673.19	0.129
673.39	0.129
673.58	0.129
673.78	0.129
673.98	0.128
674.18	0.128
674.37	0.128
674.57	0.127
674.77	0.127
674.97	0.127
675.16	0.127
675.36	0.127
675.56	0.126
675.75	0.126
675.95	0.125
676.15	0.126
676.35	0.126
676.54	0.125
676.74	0.125
676.94	0.126
677.13	0.125
677.33	0.124
677.53	0.124
677.73	0.124
677.92	0.123
678.12	0.124
678.32	0.123
678.51	0.123
678.71	0.123
678.91	0.123
679.11	0.123
679.30	0.123
679.50	0.123
679.70	0.122
679.89	0.122
680.09	0.123
680.29	0.122
680.48	0.122
680.68	0.121
680.88	0.121
681.07	0.121
681.27	0.121
681.47	0.120
681.66	0.120
681.86	0.120
682.06	0.120
682.25	0.119
682.45	0.119
682.65	0.119
682.84	0.118
683.04	0.118
683.24	0.117
683.43	0.118
683.63	0.117
683.83	0.117
684.02	0.117
684.22	0.117
684.42	0.117
684.61	0.117
684.81	0.117
685.01	0.116
685.20	0.116
685.40	0.116
685.60	0.116
685.79	0.116
685.99	0.115
686.19	0.115
686.38	0.115
686.58	0.115
686.77	0.115
686.97	0.115
687.17	0.115
687.36	0.115
687.56	0.114
687.76	0.114
687.95	0.114
688.15	0.114
688.34	0.114
688.54	0.113
688.74	0.113
688.93	0.112
689.13	0.112
689.33	0.113
689.52	0.112
689.72	0.113
689.91	0.112
690.11	0.111
690.31	0.111
690.50	0.111
690.70	0.111
690.89	0.111
691.09	0.110
691.29	0.110
691.48	0.109
691.68	0.109
691.87	0.109
692.07	0.109
692.27	0.109
692.46	0.109
692.66	0.109
692.85	0.109
693.05	0.109
693.25	0.109
693.44	0.109
693.64	0.109
693.83	0.109
694.03	0.108
694.22	0.108
694.42	0.108
694.62	0.108
694.81	0.108
695.01	0.108
695.20	0.107
695.40	0.107
695.59	0.107
695.79	0.107
695.99	0.106
696.18	0.106
696.38	0.106
696.57	0.106
696.77	0.105
696.96	0.106
697.16	0.106
697.36	0.105
697.55	0.105
697.75	0.105
697.94	0.105
698.14	0.105
698.33	0.104
698.53	0.104
698.72	0.104
698.92	0.104
699.11	0.104
699.31	0.104
699.51	0.104
699.70	0.103
699.90	0.103
700.09	0.103
700.29	0.103
700.48	0.103
700.68	0.103
700.87	0.103
701.07	0.102
701.26	0.102
701.46	0.101
701.65	0.101
701.85	0.101
702.04	0.101
702.24	0.101
702.43	0.101
702.63	0.100
702.82	0.100
703.02	0.100
703.21	0.101
703.41	0.101
703.60	0.100
703.80	0.100
703.99	0.100
704.19	0.100
704.38	0.100
704.58	0.099
704.77	0.099
704.97	0.099
705.16	0.099
705.36	0.099
705.55	0.099
705.75	0.099
705.94	0.099
706.14	0.099
706.33	0.099
706.53	0.099
706.72	0.099
706.92	0.098
707.11	0.098
707.31	0.098
707.50	0.098
707.70	0.098
707.89	0.098
708.09	0.097
708.28	0.097
708.48	0.097
708.67	0.097
708.86	0.097
709.06	0.097
709.25	0.097
709.45	0.097
709.64	0.096
709.84	0.096
710.03	0.095
710.23	0.095
710.42	0.095
710.62	0.095
710.81	0.095
711.00	0.095
711.20	0.095
711.39	0.094
711.59	0.094
711.78	0.095
711.98	0.095
712.17	0.095
712.37	0.095
712.56	0.095
712.75	0.095
712.95	0.095
713.14	0.095
713.34	0.095
713.53	0.095
713.73	0.095
713.92	0.095
714.11	0.095
714.31	0.095
714.50	0.095
714.70	0.095
714.89	0.095
715.08	0.095
715.28	0.094
715.47	0.094
715.67	0.094
715.86	0.094
716.06	0.094
716.25	0.094
716.44	0.094
716.64	0.093
716.83	0.093
717.03	0.093
717.22	0.093
717.41	0.093
717.61	0.093
717.80	0.093
717.99	0.093
718.19	0.093
718.38	0.093
718.58	0.092
718.77	0.092
718.96	0.092
719.16	0.092
719.35	0.092
719.55	0.092
719.74	0.092
719.93	0.092
720.13	0.091
720.32	0.091
720.51	0.091
720.71	0.091
720.90	0.091
721.10	0.091
721.29	0.091
721.48	0.091
721.68	0.091
721.87	0.091
722.06	0.091
722.26	0.091
722.45	0.091
722.64	0.091
722.84	0.091
723.03	0.091
723.22	0.090
723.42	0.090
723.61	0.090
723.80	0.090
724.00	0.090
724.19	0.090
724.38	0.090
724.58	0.090
724.77	0.090
724.96	0.090
725.16	0.090
725.35	0.090
725.54	0.090
725.74	0.090
725.93	0.090
726.12	0.090
726.32	0.090
726.51	0.090
726.70	0.090
726.90	0.090
727.09	0.090
727.28	0.090
727.48	0.090
727.67	0.090
727.86	0.090
728.06	0.090
728.25	0.090
728.44	0.090
728.64	0.089
728.83	0.090
729.02	0.089
729.21	0.090
729.41	0.090
729.60	0.090
729.79	0.090
729.99	0.090
730.18	0.090
730.37	0.089
730.56	0.089
730.76	0.089
730.95	0.089
731.14	0.089
731.34	0.089
731.53	0.089
731.72	0.089
731.91	0.089
732.11	0.089
732.30	0.089
732.49	0.090
732.69	0.090
732.88	0.090
733.07	0.090
733.26	0.090
733.46	0.089
733.65	0.090
733.84	0.090
734.03	0.090
734.23	0.090
734.42	0.090
734.61	0.090
734.80	0.090
735.00	0.090
735.19	0.089
735.38	0.090
735.57	0.090
735.77	0.090
735.96	0.089
736.15	0.089
736.34	0.089
736.54	0.090
736.73	0.090
736.92	0.090
737.11	0.090
737.31	0.090
737.50	0.090
737.69	0.090
737.88	0.090
738.07	0.090
738.27	0.090
738.46	0.090
738.65	0.089
738.84	0.089
739.04	0.089
739.23	0.089
739.42	0.089
739.61	0.089
739.80	0.089
740.00	0.089
740.19	0.089
740.38	0.089
740.57	0.089
740.76	0.089
740.96	0.089
741.15	0.088
741.34	0.088
741.53	0.088
741.72	0.088
741.92	0.088
742.11	0.088
742.30	0.088
742.49	0.088
742.68	0.088
742.88	0.088
743.07	0.087
743.26	0.087
743.45	0.088
743.64	0.087
743.84	0.087
744.03	0.087
744.22	0.087
744.41	0.087
744.60	0.086
744.79	0.086
744.99	0.086
745.18	0.086
745.37	0.086
745.56	0.086
745.75	0.086
745.94	0.086
746.14	0.086
746.33	0.086
746.52	0.086
746.71	0.086
746.90	0.086
747.09	0.087
747.28	0.086
747.48	0.087
747.67	0.086
747.86	0.086
748.05	0.086
748.24	0.085
748.43	0.085
748.62	0.085
748.82	0.085
749.01	0.085
749.20	0.085
749.39	0.085
749.58	0.085
749.77	0.084
749.96	0.084
750.16	0.084
750.35	0.084
750.54	0.084
750.73	0.084
750.92	0.084
751.11	0.084
751.30	0.084
751.49	0.084
751.68	0.084
751.88	0.084
752.07	0.084
752.26	0.084
752.45	0.084
752.64	0.084
752.83	0.084
753.02	0.084
753.21	0.084
753.40	0.084
753.60	0.084
753.79	0.084
753.98	0.083
754.17	0.083
754.36	0.083
754.55	0.083
754.74	0.084
754.93	0.083
755.12	0.083
755.31	0.083
755.50	0.083
755.70	0.083
755.89	0.082
756.08	0.082
756.27	0.082
756.46	0.083
756.65	0.082
756.84	0.082
757.03	0.082
757.22	0.082
757.41	0.082
757.60	0.081
757.79	0.081
757.98	0.082
758.17	0.082
758.36	0.082
758.56	0.082
758.75	0.081
758.94	0.082
759.13	0.081
759.32	0.081
759.51	0.081
759.70	0.081
759.89	0.081
760.08	0.081
760.27	0.081
760.46	0.081
760.65	0.081
760.84	0.081
761.03	0.081
761.22	0.082
761.41	0.082
761.60	0.081
761.79	0.081
761.98	0.081
762.17	0.080
762.36	0.080
762.55	0.080
762.74	0.079
762.93	0.079
763.12	0.079
763.31	0.079
763.50	0.078
763.69	0.079
763.88	0.079
764.07	0.079
764.26	0.079
764.45	0.079
764.64	0.079
764.83	0.079
765.02	0.079
765.21	0.079
765.40	0.079
765.59	0.079
765.78	0.079
765.97	0.079
766.16	0.079
766.35	0.079
766.54	0.079
766.73	0.079
766.92	0.079
767.11	0.079
767.30	0.079
767.49	0.079
767.68	0.079
767.87	0.079
768.06	0.079
768.25	0.079
768.44	0.079
768.63	0.079
768.82	0.079
769.01	0.079
769.20	0.079
769.39	0.079
769.58	0.079
769.77	0.079
769.96	0.079
770.15	0.078
770.34	0.079
770.53	0.078
770.72	0.078
770.91	0.078
771.10	0.078
771.29	0.077
771.47	0.077
771.66	0.077
771.85	0.077
772.04	0.077
772.23	0.077
772.42	0.077
772.61	0.077
772.80	0.078
772.99	0.078
773.18	0.077
773.37	0.078
773.56	0.078
773.75	0.078
773.94	0.078
774.13	0.077
774.31	0.077
774.50	0.077
774.69	0.077
774.88	0.077
775.07	0.077
775.26	0.077
775.45	0.076
775.64	0.076
775.83	0.076
776.02	0.076
776.21	0.076
776.40	0.077
776.58	0.077
776.77	0.077
776.96	0.077
777.15	0.077
777.34	0.077
777.53	0.078
777.72	0.077
777.91	0.077
778.10	0.077
778.28	0.077
778.47	0.077
778.66	0.076
778.85	0.076
779.04	0.076
779.23	0.075
779.42	0.075
779.61	0.075
779.79	0.075
779.98	0.074
780.17	0.075
780.36	0.075
780.55	0.074
780.74	0.074
780.93	0.073
781.12	0.074
781.30	0.074
781.49	0.074
781.68	0.074
781.87	0.074
782.06	0.074
782.25	0.074
782.44	0.074
782.62	0.074
782.81	0.075
783.00	0.075
783.19	0.075
783.38	0.075
783.57	0.075
783.75	0.074
783.94	0.074
784.13	0.074
784.32	0.074
784.51	0.074
784.70	0.074
784.88	0.074
785.07	0.074
785.26	0.073
785.45	0.073
785.64	0.073
785.83	0.074
786.01	0.073
786.20	0.073
786.39	0.073
786.58	0.073
786.77	0.073
786.95	0.073
787.14	0.073
787.33	0.073
787.52	0.073
787.71	0.073
787.90	0.073
788.08	0.073
788.27	0.072
788.46	0.072
788.65	0.073
788.84	0.073
789.02	0.072
789.21	0.072
789.40	0.073
789.59	0.073
789.77	0.073
789.96	0.073
790.15	0.073
790.34	0.073
790.53	0.073
790.71	0.073
790.90	0.073
791.09	0.072
791.28	0.073
791.46	0.073
791.65	0.072
791.84	0.072
792.03	0.072
792.22	0.072
792.40	0.072
792.59	0.072
792.78	0.071
792.97	0.072
793.15	0.072
793.34	0.072
793.53	0.072
793.72	0.072
793.90	0.071
794.09	0.072
794.28	0.072
794.47	0.072
794.65	0.072
794.84	0.072
795.03	0.072
795.22	0.072
795.40	0.072
795.59	0.071
795.78	0.072
795.97	0.072
796.15	0.072
796.34	0.072
796.53	0.072
796.71	0.072
796.90	0.072
797.09	0.072
797.28	0.072
797.46	0.072
797.65	0.072
797.84	0.072
798.02	0.072
798.21	0.071
798.40	0.071
798.59	0.071
798.77	0.071
798.96	0.071
799.15	0.071
799.33	0.070
799.52	0.070
799.71	0.070
799.90	0.071
800.08	0.071
800.27	0.071
800.46	0.071
800.64	0.071
800.83	0.071
801.02	0.071
801.20	0.071
801.39	0.071
801.58	0.071
801.76	0.071
801.95	0.071
802.14	0.071
802.32	0.070
802.51	0.071
802.70	0.070
802.88	0.070
803.07	0.070
803.26	0.070
803.44	0.070
803.63	0.070
803.82	0.070
804.00	0.070
804.19	0.070
804.38	0.070
804.56	0.070
804.75	0.070
804.94	0.070
805.12	0.070
805.31	0.070
805.50	0.071
805.68	0.071
805.87	0.071
806.06	0.070
806.24	0.070
806.43	0.070
806.62	0.070
806.80	0.070
806.99	0.070
807.17	0.070
807.36	0.070
807.55	0.070
807.73	0.070
807.92	0.070
808.11	0.070
808.29	0.069
808.48	0.069
808.66	0.069
808.85	0.068
809.04	0.069
809.22	0.069
809.41	0.069
809.59	0.069
809.78	0.069
809.97	0.068
810.15	0.069
810.34	0.069
810.53	0.069
810.71	0.069
810.90	0.069
811.08	0.069
811.27	0.069
811.45	0.069
811.64	0.069
811.83	0.069
812.01	0.069
812.20	0.069
812.38	0.069
812.57	0.069
812.76	0.069
812.94	0.069
813.13	0.069
813.31	0.069
813.50	0.069
813.68	0.069
813.87	0.069
814.06	0.069
814.24	0.069
814.43	0.069
814.61	0.069
814.80	0.069
814.98	0.069
815.17	0.068
815.36	0.068
815.54	0.068
815.73	0.068
815.91	0.069
816.10	0.069
816.28	0.069
816.47	0.069
816.65	0.069
816.84	0.069
817.03	0.069
817.21	0.069
817.40	0.069
817.58	0.069
817.77	0.069
817.95	0.069
818.14	0.069
818.32	0.069
818.51	0.070
818.69	0.069
818.88	0.069
819.06	0.069
819.25	0.069
819.43	0.069
819.62	0.069
819.80	0.069
819.99	0.069
820.18	0.069
820.36	0.068
820.55	0.068
820.73	0.068
820.92	0.068
821.10	0.069
821.29	0.068
821.47	0.068
821.66	0.068
821.84	0.068
822.03	0.069
822.21	0.069
822.40	0.068
822.58	0.069
822.77	0.068
822.95	0.069
823.14	0.069
823.32	0.069
823.50	0.070
823.69	0.070
823.87	0.070
824.06	0.070
824.24	0.070
824.43	0.070
824.61	0.070
824.80	0.070
824.98	0.070
825.17	0.070
825.35	0.070
825.54	0.070
825.72	0.070
825.91	0.070
826.09	0.070
826.28	0.070
826.46	0.071
826.64	0.071
826.83	0.071
827.01	0.071
827.20	0.071
827.38	0.071
827.57	0.071
827.75	0.071
827.94	0.071
828.12	0.071
828.31	0.071
828.49	0.071
828.67	0.071
828.86	0.072
829.04	0.071
829.23	0.071
829.41	0.072
829.60	0.072
829.78	0.072
829.96	0.072
830.15	0.072
830.33	0.073
830.52	0.073
830.70	0.073
830.88	0.073
831.07	0.074
831.25	0.074
831.44	0.074
831.62	0.074
831.81	0.074
831.99	0.074
832.17	0.074
832.36	0.074
832.54	0.074
832.73	0.074
832.91	0.074
833.09	0.074
833.28	0.074
833.46	0.075
833.65	0.075
833.83	0.075
834.01	0.076
834.20	0.075
834.38	0.075
834.56	0.075
834.75	0.075
834.93	0.075
835.12	0.075
835.30	0.075
835.48	0.075
835.67	0.075
835.85	0.075
836.03	0.074
836.22	0.074
836.40	0.075
836.59	0.075
836.77	0.074
836.95	0.075
837.14	0.074
837.32	0.074
837.50	0.075
837.69	0.075
837.87	0.075
838.05	0.075
838.24	0.075
838.42	0.075
838.60	0.075
838.79	0.076
838.97	0.076
839.15	0.076
839.34	0.076
839.52	0.076
839.70	0.076
839.89	0.076
840.07	0.077
840.25	0.076
840.44	0.076
840.62	0.076
840.80	0.076
840.99	0.076
841.17	0.076
841.35	0.076
841.54	0.076
841.72	0.076
841.90	0.076
842.09	0.076
842.27	0.076
842.45	0.076
842.64	0.076
842.82	0.076
843.00	0.076
843.19	0.076
843.37	0.076
843.55	0.076
843.73	0.076
843.92	0.076
844.10	0.076
844.28	0.076
844.47	0.076
844.65	0.076
844.83	0.076
845.01	0.076
845.20	0.077
845.38	0.077
845.56	0.077
845.75	0.077
845.93	0.077
846.11	0.077
846.29	0.077
846.48	0.077
846.66	0.077
846.84	0.076
847.02	0.076
847.21	0.076
847.39	0.076
847.57	0.076
847.76	0.077
847.94	0.076
848.12	0.077
848.30	0.077
848.49	0.077
848.67	0.077
848.85	0.077
849.03	0.078
849.22	0.078
849.40	0.078
849.58	0.078
849.76	0.078
849.95	0.078
850.13	0.078
850.31	0.078
850.49	0.078
850.67	0.078
850.86	0.078
851.04	0.078
851.22	0.077
851.40	0.077
851.59	0.077
851.77	0.077
851.95	0.077
852.13	0.077
852.31	0.077
852.50	0.078
852.68	0.078
852.86	0.077
853.04	0.077
853.23	0.078
853.41	0.078
853.59	0.078
853.77	0.078
853.95	0.078
854.14	0.078
854.32	0.078
854.50	0.077
854.68	0.077
854.86	0.077
855.04	0.078
855.23	0.078
855.41	0.077
855.59	0.077
855.77	0.077
855.95	0.078
856.14	0.078
856.32	0.078
856.50	0.078
856.68	0.078
856.86	0.078
857.04	0.077
857.23	0.077
857.41	0.077
857.59	0.077
857.77	0.077
857.95	0.077
858.13	0.077
858.32	0.077
858.50	0.077
858.68	0.077
858.86	0.077
859.04	0.078
859.22	0.078
859.41	0.078
859.59	0.078
859.77	0.077
859.95	0.077
860.13	0.078
860.31	0.078
860.49	0.077
860.68	0.077
860.86	0.078
861.04	0.078
861.22	0.077
861.40	0.077
861.58	0.078
861.76	0.078
861.94	0.078
862.13	0.078
862.31	0.078
862.49	0.078
862.67	0.078
862.85	0.078
863.03	0.078
863.21	0.079
863.39	0.079
863.57	0.079
863.76	0.079
863.94	0.079
864.12	0.079
864.30	0.078
864.48	0.078
864.66	0.079
864.84	0.079
865.02	0.079
865.20	0.079
865.38	0.079
865.57	0.079
865.75	0.080
865.93	0.080
866.11	0.079
866.29	0.079
866.47	0.080
866.65	0.080
866.83	0.079
867.01	0.079
867.19	0.079
867.37	0.079
867.55	0.079
867.73	0.079
867.92	0.079
868.10	0.079
868.28	0.079
868.46	0.079
868.64	0.079
868.82	0.080
869.00	0.080
869.18	0.080
869.36	0.080
869.54	0.080
869.72	0.080
869.90	0.080
870.08	0.080
870.26	0.080
870.44	0.080
870.62	0.080
870.80	0.080
870.98	0.080
871.16	0.080
871.34	0.080
871.53	0.080
871.71	0.079
871.89	0.080
872.07	0.080
872.25	0.079
872.43	0.080
872.61	0.080
872.79	0.080
872.97	0.080
873.15	0.080
873.33	0.081
873.51	0.081
873.69	0.081
873.87	0.081
874.05	0.081
874.23	0.082
874.41	0.081
874.59	0.082
874.77	0.081
874.95	0.081
875.13	0.081
875.31	0.081
875.49	0.081
875.67	0.081
875.85	0.081
876.03	0.081
876.21	0.081
876.39	0.081
876.57	0.081
876.75	0.081
876.93	0.081
877.11	0.081
877.29	0.081
877.47	0.081
877.65	0.081
877.82	0.082
878.00	0.081
878.18	0.081
878.36	0.081
878.54	0.081
878.72	0.081
878.90	0.081
879.08	0.082
879.26	0.082
879.44	0.082
879.62	0.082
879.80	0.082
879.98	0.082
880.16	0.082
880.34	0.081
880.52	0.082
880.70	0.081
880.88	0.082
881.06	0.082
881.24	0.081
881.42	0.081
881.59	0.081
881.77	0.081
881.95	0.081
882.13	0.081
882.31	0.082
882.49	0.081
882.67	0.082
882.85	0.081
883.03	0.082
883.21	0.082
883.39	0.082
883.57	0.082
883.75	0.082
883.92	0.082
884.10	0.082
884.28	0.082
884.46	0.082
884.64	0.082
884.82	0.083
885.00	0.083
885.18	0.083
885.36	0.083
885.54	0.083
885.71	0.083
885.89	0.084
886.07	0.084
886.25	0.084
886.43	0.083
886.61	0.083
886.79	0.083
886.97	0.083
887.15	0.083
887.32	0.083
887.50	0.083
887.68	0.083
887.86	0.083
888.04	0.083
888.22	0.083
888.40	0.084
888.57	0.084
888.75	0.084
888.93	0.084
889.11	0.084
889.29	0.085
889.47	0.084
889.65	0.084
889.82	0.084
890.00	0.085
890.18	0.085
890.36	0.084
890.54	0.085
890.72	0.084
890.90	0.084
891.07	0.084
891.25	0.084
891.43	0.083
891.61	0.084
891.79	0.084
891.97	0.084
892.14	0.084
892.32	0.084
892.50	0.084
892.68	0.084
892.86	0.084
893.03	0.084
893.21	0.085
893.39	0.085
893.57	0.085
893.75	0.085
893.93	0.085
894.10	0.085
894.28	0.085
894.46	0.085
894.64	0.085
894.82	0.085
894.99	0.085
895.17	0.085
895.35	0.084
895.53	0.085
895.71	0.084
895.88	0.085
896.06	0.085
896.24	0.085
896.42	0.085
896.59	0.085
896.77	0.085
896.95	0.085
897.13	0.085
897.31	0.086
897.48	0.085
897.66	0.086
897.84	0.085
898.02	0.086
898.19	0.086
898.37	0.086
898.55	0.086
898.73	0.086
898.91	0.086
899.08	0.086
899.26	0.086
899.44	0.086
899.62	0.086
899.79	0.086
899.97	0.086
900.15	0.086
900.33	0.085
900.50	0.085
900.68	0.085
900.86	0.086
901.04	0.086
901.21	0.086
901.39	0.086
901.57	0.086
901.74	0.086
901.92	0.086
902.10	0.087
902.28	0.087
902.45	0.087
902.63	0.087
902.81	0.087
902.99	0.087
903.16	0.087
903.34	0.087
903.52	0.087
903.69	0.087
903.87	0.087
904.05	0.088
904.22	0.088
904.40	0.088
904.58	0.088
904.76	0.087
904.93	0.088
905.11	0.088
905.29	0.088
905.46	0.088
905.64	0.088
905.82	0.088
905.99	0.088
906.17	0.088
906.35	0.088
906.53	0.089
906.70	0.089
906.88	0.089
907.06	0.089
907.23	0.089
907.41	0.089
907.59	0.089
907.76	0.089
907.94	0.089
908.12	0.089
908.29	0.089
908.47	0.089
908.65	0.090
908.82	0.089
909.00	0.089
909.18	0.090
909.35	0.090
909.53	0.090
909.71	0.090
909.88	0.090
910.06	0.090
910.23	0.090
910.41	0.090
910.59	0.090
910.76	0.090
910.94	0.090
911.12	0.090
911.29	0.090
911.47	0.090
911.65	0.090
911.82	0.091
912.00	0.091
912.17	0.091
912.35	0.092
912.53	0.092
912.70	0.092
912.88	0.092
913.06	0.093
913.23	0.093
913.41	0.092
913.58	0.092
913.76	0.093
913.94	0.093
914.11	0.093
914.29	0.093
914.46	0.093
914.64	0.093
914.82	0.093
914.99	0.093
915.17	0.093
915.34	0.093
915.52	0.093
915.70	0.093
915.87	0.093
916.05	0.094
916.22	0.093
916.40	0.093
916.57	0.094
916.75	0.094
916.93	0.094
917.10	0.093
917.28	0.094
917.45	0.094
917.63	0.094
917.80	0.094
917.98	0.094
918.16	0.094
918.33	0.094
918.51	0.094
918.68	0.095
918.86	0.095
919.03	0.096
919.21	0.096
919.39	0.096
919.56	0.097
919.74	0.097
919.91	0.097
920.09	0.097
920.26	0.097
920.44	0.097
920.61	0.097
920.79	0.097
920.96	0.097
921.14	0.098
921.31	0.098
921.49	0.098
921.67	0.098
921.84	0.098
922.02	0.098
922.19	0.099
922.37	0.099
922.54	0.100
922.72	0.100
922.89	0.100
923.07	0.100
923.24	0.100
923.42	0.100
923.59	0.101
923.77	0.101
923.94	0.101
924.12	0.102
924.29	0.102
924.47	0.102
924.64	0.102
924.82	0.102
924.99	0.103
925.17	0.103
925.34	0.103
925.52	0.104
925.69	0.104
925.87	0.104
926.04	0.104
926.22	0.105
926.39	0.105
926.57	0.106
926.74	0.106
926.91	0.106
927.09	0.107
927.26	0.107
927.44	0.107
927.61	0.108
927.79	0.108
927.96	0.109
928.14	0.109
928.31	0.109
928.49	0.109
928.66	0.110
928.84	0.111
929.01	0.111
929.18	0.111
929.36	0.112
929.53	0.112
929.71	0.112
929.88	0.113
930.06	0.113
930.23	0.114
930.41	0.114
930.58	0.115
930.75	0.115
930.93	0.116
931.10	0.115
931.28	0.116
931.45	0.117
931.63	0.117
931.80	0.117
931.97	0.118
932.15	0.118
932.32	0.118
932.50	0.119
932.67	0.119
932.84	0.120
933.02	0.120
933.19	0.120
933.37	0.121
933.54	0.122
933.71	0.122
933.89	0.123
934.06	0.123
934.24	0.124
934.41	0.124
934.58	0.125
934.76	0.125
934.93	0.126
935.11	0.126
935.28	0.126
935.45	0.127
935.63	0.127
935.80	0.127
935.98	0.128
936.15	0.128
936.32	0.128
936.50	0.129
936.67	0.129
936.84	0.130
937.02	0.131
937.19	0.132
937.36	0.132
937.54	0.132
937.71	0.133
937.89	0.134
938.06	0.134
938.23	0.135
938.41	0.135
938.58	0.136
938.75	0.136
938.93	0.137
939.10	0.137
939.27	0.137
939.45	0.138
939.62	0.139
939.79	0.140
939.97	0.140
940.14	0.141
940.31	0.142
940.49	0.142
940.66	0.142
940.83	0.143
941.01	0.144
941.18	0.144
941.35	0.145
941.53	0.146
941.70	0.146
941.87	0.146
942.05	0.147
942.22	0.148
942.39	0.149
942.57	0.149
942.74	0.150
942.91	0.151
943.08	0.151
943.26	0.151
943.43	0.152
943.60	0.153
943.78	0.154
943.95	0.154
944.12	0.154
944.29	0.156
944.47	0.156
944.64	0.157
944.81	0.158
944.99	0.159
945.16	0.160
945.33	0.161
945.50	0.161
945.68	0.162
945.85	0.163
946.02	0.164
946.20	0.164
946.37	0.165
946.54	0.166
946.71	0.167
946.89	0.167
947.06	0.167
947.23	0.168
947.40	0.170
947.58	0.170
947.75	0.171
947.92	0.172
948.09	0.172
948.27	0.174
948.44	0.175
948.61	0.176
948.78	0.177
948.96	0.179
949.13	0.179
949.30	0.181
949.47	0.182
949.65	0.183
949.82	0.184
949.99	0.184
950.16	0.186
950.33	0.187
950.51	0.188
950.68	0.189
950.85	0.190
951.02	0.191
951.20	0.192
951.37	0.193
951.54	0.194
951.71	0.195
951.88	0.197
952.06	0.198
952.23	0.199
952.40	0.200
952.57	0.202
952.74	0.203
952.92	0.204
953.09	0.206
953.26	0.207
953.43	0.208
953.60	0.209
953.77	0.210
953.95	0.211
954.12	0.214
954.29	0.214
954.46	0.217
954.63	0.218
954.81	0.219
954.98	0.219
955.15	0.221
955.32	0.223
955.49	0.223
955.66	0.224
955.84	0.225
956.01	0.225
956.18	0.228
956.35	0.229
956.52	0.229
956.69	0.231
956.87	0.231
957.04	0.232
957.21	0.234
957.38	0.234
957.55	0.236
957.72	0.237
957.89	0.238
958.07	0.238
958.24	0.240
958.41	0.241
958.58	0.241
958.75	0.242
958.92	0.243
959.09	0.243
959.26	0.244
959.44	0.244
959.61	0.246
959.78	0.246
959.95	0.248
960.12	0.248
960.29	0.250
960.46	0.250
960.63	0.250
960.81	0.251
960.98	0.252
961.15	0.252
961.32	0.254
961.49	0.253
961.66	0.254
961.83	0.254
962.00	0.255
962.17	0.256
962.34	0.255
962.52	0.256
962.69	0.257
962.86	0.256
963.03	0.256
963.20	0.257
963.37	0.256
963.54	0.257
963.71	0.257
963.88	0.257
964.05	0.257
964.22	0.259
964.39	0.258
964.56	0.258
964.74	0.259
964.91	0.259
965.08	0.259
965.25	0.260
965.42	0.260
965.59	0.261
965.76	0.261
965.93	0.262
966.10	0.260
966.27	0.261
966.44	0.261
966.61	0.262
966.78	0.261
966.95	0.260
967.12	0.261
967.29	0.263
967.46	0.262
967.63	0.262
967.80	0.262
967.97	0.262
968.14	0.261
968.32	0.262
968.49	0.262
968.66	0.262
968.83	0.262
969.00	0.262
969.17	0.262
969.34	0.264
969.51	0.264
969.68	0.263
969.85	0.264
970.02	0.264
970.19	0.264
970.36	0.265
970.53	0.265
970.70	0.263
970.87	0.264
971.04	0.263
971.21	0.264
971.38	0.264
971.55	0.264
971.72	0.264
971.89	0.265
972.06	0.264
972.23	0.264
972.40	0.265
972.57	0.264
972.74	0.264
972.91	0.265
973.07	0.265
973.24	0.265
973.41	0.265
973.58	0.264
973.75	0.276
973.92	0.265
974.09	0.264
974.26	0.264
974.43	0.263
974.60	0.264
974.77	0.264
974.94	0.263
975.11	0.264
975.28	0.265
975.45	0.263
975.62	0.265
975.79	0.266
975.96	0.264
976.13	0.264
976.30	0.266
976.47	0.264
976.64	0.265
976.80	0.265
976.97	0.265
977.14	0.265
977.31	0.265
977.48	0.264
977.65	0.264
977.82	0.263
977.99	0.263
978.16	0.263
978.33	0.262
978.50	0.261
978.67	0.261
978.83	0.260
979.00	0.261
979.17	0.261
979.34	0.261
979.51	0.260
979.68	0.261
979.85	0.261
980.02	0.262
980.19	0.261
980.36	0.263
980.52	0.264
980.69	0.263
980.86	0.262
981.03	0.262
981.20	0.260
981.37	0.261
981.54	0.262
981.71	0.260
981.88	0.261
982.04	0.260
982.21	0.259
982.38	0.260
982.55	0.259
982.72	0.257
982.89	0.258
983.06	0.257
983.22	0.257
983.39	0.258
983.56	0.257
983.73	0.256
983.90	0.255
984.07	0.256
984.24	0.255
984.40	0.255
984.57	0.253
984.74	0.256
984.91	0.257
985.08	0.254
985.25	0.252
985.41	0.253
985.58	0.253
985.75	0.254
985.92	0.254
986.09	0.252
986.26	0.252
986.42	0.251
986.59	0.250
986.76	0.250
986.93	0.251
987.10	0.251
987.27	0.248
987.43	0.247
987.60	0.250
987.77	0.250
987.94	0.248
988.11	0.249
988.27	0.249
988.44	0.249
988.61	0.248
988.78	0.246
988.95	0.246
989.11	0.249
989.28	0.247
989.45	0.246
989.62	0.245
989.79	0.246
989.95	0.245
990.12	0.247
990.29	0.247
990.46	0.245
990.62	0.243
990.79	0.243
990.96	0.243
991.13	0.243
991.30	0.242
991.46	0.240
991.63	0.238
991.80	0.237
991.97	0.236
992.13	0.236
992.30	0.237
992.47	0.236
992.64	0.235
992.80	0.236
992.97	0.236
993.14	0.234
993.31	0.232
993.47	0.235
993.64	0.234
993.81	0.234
993.98	0.235
994.14	0.233
994.31	0.233
994.48	0.234
994.64	0.234
994.81	0.232
994.98	0.233
995.15	0.231
995.31	0.231
995.48	0.231
995.65	0.233
995.82	0.230
995.98	0.229
996.15	0.230
996.32	0.232
996.48	0.230
996.65	0.230
996.82	0.227
996.99	0.227
997.15	0.227
997.32	0.229
997.49	0.227
997.65	0.228
997.82	0.227
997.99	0.225
998.15	0.226
998.32	0.227
998.49	0.226
998.65	0.227
998.82	0.226
998.99	0.223
999.15	0.223
999.32	0.223
999.49	0.222
999.65	0.223
999.82	0.220
999.99	0.220
1000.15	0.220
1000.32	0.221
1000.49	0.220
1000.65	0.218
1000.82	0.218
1000.99	0.218
1001.15	0.217
1001.32	0.217
1001.49	0.217
1001.65	0.217
1001.82	0.219
1001.99	0.215
1002.15	0.214
1002.32	0.214
1002.49	0.216
1002.65	0.214
1002.82	0.213
1002.99	0.213
1003.15	0.215
1003.32	0.214
1003.48	0.213
1003.65	0.213
1003.82	0.212
1003.98	0.210
1004.15	0.209
1004.32	0.210
1004.48	0.210
1004.65	0.211
1004.81	0.209
1004.98	0.208
1005.15	0.209
1005.31	0.209
1005.48	0.207
1005.64	0.207
1005.81	0.210
1005.98	0.207
1006.14	0.207
1006.31	0.207
1006.47	0.205
1006.64	0.204
1006.81	0.203
1006.97	0.203
1007.14	0.203
1007.30	0.203
1007.47	0.203
1007.63	0.201
1007.80	0.200
1007.97	0.199
1008.13	0.199
1008.30	0.199
1008.46	0.200
1008.63	0.199
1008.79	0.199
1008.96	0.199
1009.13	0.200
1009.29	0.197
1009.46	0.197
1009.62	0.197
1009.79	0.195
1009.95	0.196
1010.12	0.196
1010.28	0.196
1010.45	0.194
1010.62	0.193
1010.78	0.192
1010.95	0.191
1011.11	0.192
1011.28	0.191
1011.44	0.193
1011.61	0.191
1011.77	0.191
1011.94	0.191
1012.10	0.191
1012.27	0.191
1012.43	0.191
1012.60	0.190
1012.76	0.190
1012.93	0.190
1013.10	0.189
1013.26	0.186
1013.43	0.187
1013.59	0.194
1013.76	0.186
1013.92	0.184
1014.09	0.183
1014.25	0.184
1014.42	0.185
1014.58	0.185
1014.75	0.186
1014.91	0.184
1015.08	0.186
1015.24	0.183
1015.41	0.184
1015.57	0.185
1015.73	0.183
1015.90	0.181
1016.06	0.183
1016.23	0.181
1016.39	0.182
1016.56	0.182
1016.72	0.181
1016.89	0.181
1017.05	0.183
1017.22	0.179
1017.38	0.179
1017.55	0.178
1017.71	0.179
1017.88	0.178
1018.04	0.179
1018.21	0.176
1018.37	0.177
1018.53	0.177
1018.70	0.175
1018.86	0.175
1019.03	0.178
1019.19	0.177
1019.36	0.176
1019.52	0.178
1019.69	0.179
1019.85	0.178
1020.01	0.177
1020.18	0.175
1020.34	0.175
1020.51	0.174
1020.67	0.174
1020.84	0.172
1021.00	0.172
1021.16	0.169
1021.33	0.170
1021.49	0.167
1021.66	0.168
1021.82	0.167
1021.98	0.168
1022.15	0.168
1022.31	0.168
1022.48	0.166
1022.64	0.168
1022.80	0.167
1022.97	0.166
1023.13	0.166
1023.30	0.167
1023.46	0.167
1023.62	0.164
1023.79	0.166
1023.95	0.166
1024.12	0.165
1024.28	0.165
1024.44	0.165
1024.61	0.164
1024.77	0.163
1024.93	0.163
1025.10	0.164
1025.26	0.161
1025.43	0.162
1025.59	0.158
1025.75	0.161
1025.92	0.160
1026.08	0.159
1026.24	0.159
1026.41	0.160
1026.57	0.158
1026.73	0.156
1026.90	0.158
1027.06	0.156
1027.23	0.158
1027.39	0.159
1027.55	0.159
1027.72	0.158
1027.88	0.157
1028.04	0.157
1028.21	0.157
1028.37	0.152
1028.53	0.157
1028.70	0.155
1028.86	0.152
1029.02	0.152
1029.19	0.152
1029.35	0.149
1029.51	0.149
1029.67	0.148
1029.84	0.151
1030.00	0.146
1030.16	0.146
1030.33	0.149
1030.49	0.146
1030.65	0.145
1030.82	0.159
1030.98	0.146
1031.14	0.147
1031.31	0.148
1031.47	0.146
1031.63	0.149
1031.79	0.147
1031.96	0.149
1032.12	0.149
1032.28	0.147
1032.45	0.151
1032.61	0.149
1032.77	0.148
1032.93	0.145
1033.10	0.146
1033.26	0.148
1033.42	0.145
1033.58	0.146
1033.75	0.147
1033.91	0.146
1034.07	0.149
1034.24	0.146
1034.40	0.145
1034.56	0.144
1034.72	0.145
1034.89	0.145
1035.05	0.142
1035.21	0.142
1035.37	0.141
1035.54	0.143
1035.70	0.141
1035.86	0.139
1036.02	0.141
1036.19	0.138
1036.35	0.137
1036.51	0.141
1036.67	0.139
1036.83	0.139
1037.00	0.138
1037.16	0.139
1037.32	0.139
1037.48	0.138
1037.65	0.143
1037.81	0.137
1037.97	0.138
1038.13	0.137
1038.29	0.136
1038.46	0.133
1038.62	0.136
1038.78	0.133
1038.94	0.129
1039.10	0.133
1039.27	0.130
1039.43	0.133
1039.59	0.133
1039.75	0.134
1039.91	0.132
1040.08	0.130
1040.24	0.134
1040.40	0.136
1040.56	0.135
1040.72	0.130
1040.89	0.133
1041.05	0.135
1041.21	0.131
1041.37	0.131
1041.53	0.136
1041.69	0.135
1041.86	0.134
1042.02	0.131
1042.18	0.130
1042.34	0.131
1042.50	0.134
1042.66	0.131
1042.83	0.130
1042.99	0.133
1043.15	0.127
1043.31	0.127
1043.47	0.131
1043.63	0.128
1043.79	0.127
1043.96	0.128
1044.12	0.131
1044.28	0.129
1044.44	0.131
1044.60	0.126
1044.76	0.124
1044.92	0.127
1045.09	0.128
1045.25	0.125
1045.41	0.127
1045.57	0.123
1045.73	0.123
1045.89	0.125
1046.05	0.126
1046.21	0.137
1046.38	0.121
1046.54	0.127
1046.70	0.134
1046.86	0.123
>>>>>End Processed Spectral Data<<<<<
