SpectraSuite Data File
++++++++++++++++++++++++++++++++++++
Date: Mon May 20 12:12:39 CDT 2013
User: Students
Dark Spectrum Present: Yes
Reference Spectrum Present: Yes
Number of Sampled Component Spectra: 1
Spectrometers: USB4H00887
Integration Time (usec): 60000 (USB4H00887)
Spectra Averaged: 5 (USB4H00887)
Boxcar Smoothing: 5 (USB4H00887)
Correct for Electrical Dark: No (USB4H00887)
Strobe/Lamp Enabled: No (USB4H00887)
Correct for Detector Non-linearity: No (USB4H00887)
Correct for Stray Light: No (USB4H00887)
Number of Pixels in Processed Spectrum: 3648
>>>>>Begin Processed Spectral Data<<<<<
345.83	0.596
346.05	0.596
346.26	0.596
346.48	-0.000
346.70	0.228
346.92	-0.064
347.14	0.000
347.35	0.017
347.57	0.127
347.79	-0.138
348.01	-0.141
348.23	-0.250
348.44	-0.000
348.66	0.302
348.88	-0.389
349.10	-0.253
349.32	0.131
349.53	-0.037
349.75	-0.061
349.97	-0.039
350.19	-0.013
350.41	0.010
350.62	-0.004
350.84	0.001
351.06	-0.002
351.28	-0.029
351.50	-0.070
351.71	-0.108
351.93	-0.077
352.15	-0.020
352.37	-0.129
352.58	-0.012
352.80	0.018
353.02	0.068
353.24	0.105
353.46	0.870
353.67	-0.244
353.89	0.096
354.11	0.095
354.33	0.109
354.54	0.205
354.76	0.444
354.98	0.853
355.20	0.354
355.41	0.124
355.63	0.233
355.85	0.094
356.07	0.879
356.28	0.074
356.50	0.143
356.72	0.043
356.94	0.110
357.15	0.124
357.37	-0.000
357.59	0.051
357.81	0.001
358.02	0.043
358.24	0.048
358.46	0.134
358.68	0.097
358.89	0.039
359.11	-0.000
359.33	0.027
359.55	-0.340
359.76	0.085
359.98	0.109
360.20	0.135
360.42	0.098
360.63	0.101
360.85	0.048
361.07	0.196
361.29	0.055
361.50	0.206
361.72	0.093
361.94	0.348
362.15	0.137
362.37	0.083
362.59	0.067
362.81	0.118
363.02	0.162
363.24	0.311
363.46	0.210
363.68	0.266
363.89	0.139
364.11	0.198
364.33	0.219
364.54	0.123
364.76	0.152
364.98	0.177
365.20	0.186
365.41	0.131
365.63	0.163
365.85	0.092
366.06	0.267
366.28	0.283
366.50	0.153
366.71	0.071
366.93	0.118
367.15	0.092
367.37	0.096
367.58	0.133
367.80	0.149
368.02	0.330
368.23	0.166
368.45	0.151
368.67	0.164
368.88	0.167
369.10	-0.000
369.32	0.146
369.53	0.104
369.75	0.163
369.97	0.397
370.19	0.251
370.40	0.101
370.62	0.253
370.84	0.102
371.05	0.521
371.27	0.137
371.49	0.165
371.70	0.209
371.92	0.277
372.14	0.117
372.35	0.142
372.57	0.149
372.79	0.516
373.00	0.121
373.22	0.219
373.44	0.215
373.65	0.141
373.87	0.194
374.09	0.841
374.30	0.151
374.52	0.176
374.74	0.098
374.95	0.459
375.17	0.117
375.39	-0.000
375.60	0.125
375.82	0.202
376.04	0.099
376.25	0.117
376.47	0.093
376.68	0.232
376.90	0.122
377.12	0.309
377.33	0.155
377.55	0.365
377.77	0.185
377.98	0.253
378.20	0.131
378.42	0.155
378.63	0.207
378.85	-0.000
379.07	0.125
379.28	0.457
379.50	0.291
379.71	0.161
379.93	0.110
380.15	0.135
380.36	0.203
380.58	0.161
380.80	0.420
381.01	0.125
381.23	0.108
381.44	0.124
381.66	0.155
381.88	0.170
382.09	-0.075
382.31	0.108
382.53	0.120
382.74	0.657
382.96	0.175
383.17	0.155
383.39	0.208
383.61	0.262
383.82	0.188
384.04	0.210
384.25	0.281
384.47	0.261
384.69	0.239
384.90	0.229
385.12	0.435
385.33	0.289
385.55	0.231
385.77	0.386
385.98	0.194
386.20	0.256
386.41	0.221
386.63	0.238
386.85	0.193
387.06	0.261
387.28	0.394
387.49	0.260
387.71	0.185
387.93	0.158
388.14	0.436
388.36	0.197
388.57	0.183
388.79	0.213
389.01	-0.000
389.22	0.289
389.44	0.229
389.65	0.203
389.87	0.207
390.08	0.243
390.30	0.175
390.52	0.346
390.73	0.345
390.95	0.241
391.16	0.237
391.38	-0.000
391.59	0.294
391.81	0.262
392.03	0.233
392.24	0.265
392.46	0.223
392.67	0.215
392.89	0.297
393.10	0.457
393.32	0.297
393.53	0.359
393.75	0.212
393.97	0.239
394.18	0.328
394.40	0.285
394.61	0.315
394.83	0.271
395.04	0.312
395.26	0.203
395.47	0.312
395.69	0.264
395.91	0.271
396.12	0.336
396.34	0.333
396.55	0.214
396.77	0.318
396.98	1.235
397.20	0.349
397.41	0.408
397.63	0.293
397.84	0.248
398.06	0.228
398.27	0.224
398.49	0.265
398.71	0.206
398.92	0.261
399.14	0.333
399.35	0.430
399.57	0.425
399.78	0.266
400.00	0.268
400.21	0.343
400.43	0.282
400.64	0.290
400.86	0.644
401.07	0.350
401.29	0.303
401.50	0.323
401.72	0.461
401.93	0.286
402.15	0.367
402.36	0.342
402.58	0.277
402.79	0.306
403.01	0.511
403.22	0.395
403.44	0.260
403.65	0.381
403.87	0.418
404.08	0.327
404.30	0.531
404.51	0.293
404.73	0.339
404.94	0.301
405.16	0.308
405.37	0.244
405.59	0.419
405.80	0.267
406.02	0.332
406.23	0.327
406.45	0.358
406.66	0.379
406.88	0.258
407.09	0.375
407.31	0.308
407.52	0.379
407.74	0.322
407.95	0.383
408.17	0.366
408.38	0.386
408.60	0.258
408.81	0.434
409.03	0.331
409.24	0.339
409.45	0.407
409.67	0.388
409.88	0.342
410.10	0.424
410.31	0.351
410.53	0.333
410.74	0.467
410.96	0.470
411.17	0.488
411.39	0.381
411.60	0.346
411.82	0.387
412.03	0.378
412.24	0.373
412.46	0.539
412.67	0.451
412.89	0.461
413.10	0.459
413.32	0.409
413.53	0.463
413.75	0.474
413.96	0.360
414.17	0.475
414.39	0.484
414.60	0.392
414.82	0.521
415.03	0.397
415.25	0.430
415.46	0.299
415.68	0.421
415.89	0.737
416.10	0.598
416.32	0.344
416.53	0.402
416.75	0.376
416.96	0.443
417.18	0.380
417.39	0.378
417.60	0.373
417.82	0.532
418.03	0.482
418.25	0.412
418.46	0.433
418.67	0.395
418.89	0.426
419.10	0.454
419.32	0.596
419.53	0.548
419.75	0.451
419.96	0.399
420.17	0.479
420.39	0.442
420.60	0.456
420.82	0.564
421.03	0.465
421.24	0.388
421.46	0.424
421.67	0.470
421.89	0.405
422.10	0.449
422.31	0.450
422.53	0.643
422.74	0.483
422.96	0.394
423.17	0.428
423.38	0.509
423.60	0.445
423.81	0.546
424.03	0.481
424.24	0.537
424.45	0.519
424.67	0.515
424.88	0.458
425.09	0.492
425.31	0.448
425.52	0.475
425.74	0.542
425.95	0.568
426.16	0.445
426.38	0.501
426.59	0.462
426.80	0.521
427.02	0.550
427.23	0.436
427.45	0.560
427.66	0.543
427.87	0.435
428.09	0.462
428.30	0.516
428.51	0.510
428.73	0.557
428.94	0.498
429.15	0.489
429.37	0.470
429.58	0.496
429.79	0.451
430.01	0.535
430.22	0.530
430.44	0.541
430.65	0.489
430.86	0.525
431.08	0.510
431.29	0.468
431.50	0.548
431.72	0.699
431.93	0.577
432.14	0.453
432.36	0.495
432.57	0.503
432.78	0.522
433.00	0.483
433.21	0.473
433.42	0.579
433.64	0.517
433.85	0.585
434.06	0.482
434.28	0.506
434.49	0.519
434.70	0.535
434.92	0.541
435.13	0.576
435.34	0.577
435.56	0.550
435.77	0.549
435.98	0.692
436.20	0.586
436.41	0.515
436.62	0.510
436.83	0.575
437.05	0.635
437.26	0.562
437.47	0.502
437.69	0.552
437.90	0.516
438.11	0.501
438.33	0.544
438.54	0.554
438.75	0.689
438.97	0.678
439.18	0.528
439.39	0.556
439.60	0.606
439.82	0.572
440.03	0.524
440.24	0.734
440.46	0.566
440.67	0.552
440.88	0.600
441.10	0.561
441.31	0.562
441.52	0.604
441.73	0.676
441.95	0.597
442.16	0.554
442.37	0.831
442.58	0.546
442.80	0.542
443.01	0.685
443.22	0.630
443.44	0.540
443.65	0.631
443.86	0.624
444.07	0.658
444.29	0.579
444.50	0.725
444.71	0.576
444.92	0.541
445.14	0.672
445.35	0.705
445.56	0.559
445.78	0.655
445.99	0.660
446.20	0.576
446.41	0.643
446.63	0.635
446.84	0.598
447.05	0.594
447.26	0.692
447.48	0.600
447.69	0.573
447.90	0.644
448.11	0.577
448.33	0.590
448.54	0.602
448.75	0.623
448.96	0.646
449.18	0.676
449.39	0.616
449.60	0.605
449.81	0.715
450.03	0.629
450.24	0.683
450.45	0.644
450.66	0.634
450.87	0.667
451.09	0.629
451.30	0.605
451.51	0.668
451.72	0.675
451.94	0.686
452.15	0.746
452.36	0.634
452.57	0.645
452.78	0.644
453.00	0.670
453.21	0.634
453.42	0.609
453.63	0.686
453.85	0.661
454.06	0.655
454.27	0.763
454.48	0.687
454.69	0.624
454.91	0.680
455.12	0.602
455.33	0.666
455.54	0.679
455.75	0.662
455.97	0.685
456.18	0.673
456.39	0.675
456.60	0.691
456.81	0.641
457.03	0.654
457.24	0.650
457.45	0.716
457.66	0.671
457.87	0.634
458.09	0.646
458.30	0.579
458.51	0.675
458.72	0.695
458.93	0.706
459.15	0.636
459.36	0.687
459.57	0.711
459.78	0.751
459.99	0.683
460.20	0.656
460.42	0.725
460.63	0.693
460.84	0.677
461.05	0.693
461.26	0.735
461.47	0.666
461.69	0.708
461.90	0.739
462.11	0.702
462.32	0.744
462.53	0.694
462.74	0.768
462.96	0.679
463.17	0.668
463.38	0.704
463.59	0.797
463.80	0.679
464.01	0.693
464.23	0.758
464.44	0.730
464.65	0.739
464.86	0.758
465.07	0.762
465.28	0.731
465.49	0.752
465.71	0.714
465.92	0.740
466.13	0.774
466.34	0.727
466.55	0.768
466.76	0.739
466.97	0.760
467.19	0.750
467.40	0.782
467.61	0.787
467.82	0.722
468.03	0.708
468.24	0.766
468.45	0.792
468.66	0.777
468.88	0.784
469.09	0.786
469.30	0.814
469.51	0.759
469.72	0.790
469.93	0.768
470.14	0.755
470.35	0.828
470.57	0.785
470.78	0.742
470.99	0.848
471.20	0.799
471.41	0.762
471.62	0.809
471.83	0.787
472.04	0.808
472.25	0.840
472.47	0.771
472.68	0.769
472.89	0.776
473.10	0.807
473.31	0.765
473.52	0.811
473.73	0.831
473.94	0.767
474.15	0.787
474.36	0.789
474.57	0.809
474.79	0.790
475.00	0.797
475.21	0.787
475.42	0.854
475.63	0.785
475.84	0.808
476.05	0.812
476.26	0.792
476.47	0.816
476.68	0.853
476.89	0.796
477.10	0.833
477.32	0.823
477.53	0.862
477.74	0.801
477.95	0.831
478.16	0.790
478.37	0.825
478.58	0.828
478.79	0.839
479.00	0.837
479.21	0.806
479.42	0.835
479.63	0.838
479.84	0.811
480.05	0.811
480.26	0.832
480.47	0.849
480.69	0.848
480.90	0.822
481.11	0.822
481.32	0.870
481.53	0.828
481.74	0.871
481.95	0.844
482.16	0.855
482.37	0.862
482.58	0.839
482.79	0.853
483.00	0.874
483.21	0.833
483.42	0.812
483.63	0.871
483.84	0.889
484.05	0.879
484.26	0.856
484.47	0.856
484.68	0.826
484.89	0.831
485.10	0.866
485.31	0.853
485.52	0.857
485.73	0.855
485.94	0.883
486.15	0.844
486.37	0.858
486.58	0.831
486.79	0.840
487.00	0.879
487.21	0.871
487.42	0.867
487.63	0.873
487.84	0.887
488.05	0.884
488.26	0.853
488.47	0.858
488.68	0.880
488.89	0.865
489.10	0.859
489.31	0.865
489.52	0.892
489.73	0.868
489.94	0.893
490.15	0.861
490.36	0.892
490.57	0.860
490.78	0.849
490.99	0.878
491.20	0.937
491.41	0.903
491.62	0.862
491.83	0.883
492.04	0.881
492.25	0.886
492.45	0.886
492.66	0.904
492.87	0.893
493.08	0.884
493.29	0.872
493.50	0.863
493.71	0.870
493.92	0.867
494.13	0.876
494.34	0.891
494.55	0.896
494.76	0.920
494.97	0.911
495.18	0.886
495.39	0.897
495.60	0.861
495.81	0.863
496.02	0.877
496.23	0.872
496.44	0.899
496.65	0.893
496.86	0.898
497.07	0.920
497.28	0.917
497.49	0.879
497.70	0.881
497.91	0.895
498.12	0.881
498.32	0.914
498.53	0.903
498.74	0.893
498.95	0.911
499.16	0.878
499.37	0.877
499.58	0.886
499.79	0.910
500.00	0.907
500.21	0.928
500.42	0.888
500.63	0.890
500.84	0.902
501.05	0.885
501.26	0.905
501.46	0.934
501.67	0.908
501.88	0.908
502.09	0.888
502.30	0.896
502.51	0.931
502.72	0.897
502.93	0.911
503.14	0.930
503.35	0.910
503.56	0.906
503.77	0.927
503.97	0.911
504.18	0.911
504.39	0.938
504.60	0.913
504.81	0.934
505.02	0.929
505.23	0.926
505.44	0.912
505.65	0.917
505.86	0.906
506.07	0.956
506.27	0.925
506.48	0.928
506.69	0.916
506.90	0.931
507.11	0.928
507.32	0.908
507.53	0.916
507.74	0.909
507.95	0.918
508.15	0.922
508.36	0.924
508.57	0.930
508.78	0.919
508.99	0.919
509.20	0.901
509.41	0.921
509.62	0.913
509.82	0.911
510.03	0.921
510.24	0.921
510.45	0.936
510.66	0.932
510.87	0.931
511.08	0.899
511.29	0.929
511.49	0.912
511.70	0.945
511.91	0.895
512.12	0.892
512.33	0.917
512.54	0.927
512.75	0.915
512.95	0.930
513.16	0.924
513.37	0.908
513.58	0.935
513.79	0.908
514.00	0.912
514.20	0.926
514.41	0.919
514.62	0.895
514.83	0.925
515.04	0.919
515.25	0.905
515.46	0.914
515.66	0.914
515.87	0.923
516.08	0.899
516.29	0.918
516.50	0.904
516.71	0.899
516.91	0.907
517.12	0.919
517.33	0.908
517.54	0.899
517.75	0.902
517.95	0.911
518.16	0.919
518.37	0.896
518.58	0.899
518.79	0.880
519.00	0.901
519.20	0.908
519.41	0.888
519.62	0.903
519.83	0.911
520.04	0.884
520.24	0.884
520.45	0.891
520.66	0.905
520.87	0.877
521.08	0.876
521.28	0.879
521.49	0.889
521.70	0.867
521.91	0.877
522.12	0.861
522.32	0.877
522.53	0.862
522.74	0.854
522.95	0.862
523.16	0.865
523.36	0.872
523.57	0.858
523.78	0.854
523.99	0.858
524.20	0.854
524.40	0.861
524.61	0.868
524.82	0.849
525.03	0.851
525.23	0.852
525.44	0.840
525.65	0.838
525.86	0.854
526.06	0.833
526.27	0.832
526.48	0.838
526.69	0.824
526.90	0.827
527.10	0.854
527.31	0.819
527.52	0.813
527.73	0.807
527.93	0.818
528.14	0.822
528.35	0.814
528.56	0.815
528.76	0.810
528.97	0.805
529.18	0.796
529.39	0.796
529.59	0.798
529.80	0.822
530.01	0.800
530.22	0.798
530.42	0.773
530.63	0.787
530.84	0.769
531.05	0.780
531.25	0.780
531.46	0.775
531.67	0.756
531.88	0.771
532.08	0.765
532.29	0.762
532.50	0.755
532.70	0.750
532.91	0.742
533.12	0.744
533.33	0.761
533.53	0.739
533.74	0.737
533.95	0.742
534.15	0.733
534.36	0.735
534.57	0.722
534.78	0.723
534.98	0.732
535.19	0.708
535.40	0.709
535.60	0.724
535.81	0.708
536.02	0.711
536.23	0.704
536.43	0.707
536.64	0.696
536.85	0.701
537.05	0.708
537.26	0.690
537.47	0.692
537.67	0.683
537.88	0.679
538.09	0.684
538.30	0.675
538.50	0.667
538.71	0.675
538.92	0.664
539.12	0.661
539.33	0.658
539.54	0.657
539.74	0.661
539.95	0.653
540.16	0.651
540.36	0.645
540.57	0.644
540.78	0.638
540.98	0.638
541.19	0.636
541.40	0.626
541.60	0.634
541.81	0.629
542.02	0.629
542.22	0.620
542.43	0.616
542.64	0.612
542.84	0.612
543.05	0.605
543.26	0.605
543.46	0.608
543.67	0.607
543.88	0.604
544.08	0.596
544.29	0.591
544.50	0.592
544.70	0.593
544.91	0.585
545.12	0.586
545.32	0.582
545.53	0.585
545.74	0.575
545.94	0.572
546.15	0.570
546.35	0.567
546.56	0.564
546.77	0.562
546.97	0.559
547.18	0.553
547.39	0.554
547.59	0.552
547.80	0.549
548.01	0.553
548.21	0.550
548.42	0.542
548.62	0.542
548.83	0.540
549.04	0.537
549.24	0.530
549.45	0.530
549.65	0.526
549.86	0.522
550.07	0.521
550.27	0.519
550.48	0.526
550.69	0.514
550.89	0.514
551.10	0.510
551.30	0.509
551.51	0.509
551.72	0.500
551.92	0.501
552.13	0.501
552.33	0.501
552.54	0.497
552.75	0.491
552.95	0.493
553.16	0.488
553.36	0.487
553.57	0.485
553.78	0.483
553.98	0.483
554.19	0.475
554.39	0.473
554.60	0.476
554.80	0.476
555.01	0.469
555.22	0.470
555.42	0.467
555.63	0.462
555.83	0.465
556.04	0.460
556.25	0.462
556.45	0.454
556.66	0.452
556.86	0.455
557.07	0.452
557.27	0.451
557.48	0.447
557.68	0.446
557.89	0.446
558.10	0.443
558.30	0.441
558.51	0.438
558.71	0.437
558.92	0.433
559.12	0.434
559.33	0.438
559.54	0.433
559.74	0.429
559.95	0.427
560.15	0.427
560.36	0.425
560.56	0.420
560.77	0.421
560.97	0.421
561.18	0.416
561.38	0.415
561.59	0.418
561.79	0.414
562.00	0.412
562.21	0.409
562.41	0.407
562.62	0.407
562.82	0.405
563.03	0.402
563.23	0.402
563.44	0.402
563.64	0.399
563.85	0.401
564.05	0.394
564.26	0.394
564.46	0.394
564.67	0.395
564.87	0.391
565.08	0.388
565.28	0.389
565.49	0.388
565.69	0.385
565.90	0.382
566.10	0.384
566.31	0.379
566.51	0.381
566.72	0.381
566.92	0.374
567.13	0.374
567.33	0.373
567.54	0.372
567.74	0.371
567.95	0.368
568.15	0.369
568.36	0.369
568.56	0.367
568.77	0.362
568.97	0.361
569.18	0.361
569.38	0.360
569.59	0.360
569.79	0.358
570.00	0.356
570.20	0.354
570.41	0.353
570.61	0.352
570.82	0.353
571.02	0.350
571.23	0.351
571.43	0.347
571.64	0.346
571.84	0.345
572.05	0.344
572.25	0.344
572.45	0.342
572.66	0.340
572.86	0.339
573.07	0.338
573.27	0.337
573.48	0.337
573.68	0.333
573.89	0.332
574.09	0.333
574.30	0.331
574.50	0.329
574.70	0.330
574.91	0.328
575.11	0.328
575.32	0.327
575.52	0.323
575.73	0.324
575.93	0.324
576.14	0.323
576.34	0.321
576.54	0.320
576.75	0.318
576.95	0.318
577.16	0.316
577.36	0.315
577.57	0.314
577.77	0.312
577.97	0.309
578.18	0.310
578.38	0.307
578.59	0.305
578.79	0.304
579.00	0.305
579.20	0.304
579.40	0.303
579.61	0.302
579.81	0.301
580.02	0.299
580.22	0.300
580.42	0.299
580.63	0.300
580.83	0.299
581.04	0.297
581.24	0.296
581.45	0.295
581.65	0.295
581.85	0.294
582.06	0.292
582.26	0.292
582.47	0.291
582.67	0.290
582.87	0.290
583.08	0.287
583.28	0.287
583.48	0.285
583.69	0.282
583.89	0.283
584.10	0.284
584.30	0.282
584.50	0.280
584.71	0.279
584.91	0.279
585.12	0.277
585.32	0.278
585.52	0.276
585.73	0.275
585.93	0.274
586.13	0.273
586.34	0.273
586.54	0.272
586.75	0.271
586.95	0.270
587.15	0.270
587.36	0.268
587.56	0.267
587.76	0.267
587.97	0.266
588.17	0.265
588.37	0.266
588.58	0.265
588.78	0.263
588.98	0.263
589.19	0.262
589.39	0.260
589.60	0.262
589.80	0.259
590.00	0.258
590.21	0.259
590.41	0.257
590.61	0.257
590.82	0.257
591.02	0.256
591.22	0.254
591.43	0.255
591.63	0.254
591.83	0.253
592.04	0.251
592.24	0.252
592.44	0.250
592.65	0.248
592.85	0.248
593.05	0.248
593.26	0.247
593.46	0.247
593.66	0.247
593.86	0.246
594.07	0.244
594.27	0.244
594.47	0.243
594.68	0.242
594.88	0.243
595.08	0.242
595.29	0.242
595.49	0.240
595.69	0.240
595.90	0.239
596.10	0.239
596.30	0.239
596.50	0.238
596.71	0.237
596.91	0.236
597.11	0.236
597.32	0.236
597.52	0.235
597.72	0.235
597.93	0.234
598.13	0.233
598.33	0.233
598.53	0.232
598.74	0.231
598.94	0.231
599.14	0.231
599.35	0.231
599.55	0.230
599.75	0.229
599.95	0.228
600.16	0.229
600.36	0.227
600.56	0.227
600.76	0.226
600.97	0.225
601.17	0.225
601.37	0.225
601.58	0.223
601.78	0.223
601.98	0.222
602.18	0.221
602.39	0.221
602.59	0.221
602.79	0.220
602.99	0.219
603.20	0.218
603.40	0.218
603.60	0.218
603.80	0.218
604.01	0.218
604.21	0.217
604.41	0.216
604.61	0.215
604.82	0.215
605.02	0.215
605.22	0.214
605.42	0.214
605.62	0.214
605.83	0.212
606.03	0.212
606.23	0.212
606.43	0.212
606.64	0.212
606.84	0.211
607.04	0.211
607.24	0.211
607.45	0.210
607.65	0.209
607.85	0.210
608.05	0.209
608.25	0.208
608.46	0.207
608.66	0.208
608.86	0.207
609.06	0.206
609.26	0.205
609.47	0.206
609.67	0.204
609.87	0.205
610.07	0.204
610.28	0.203
610.48	0.203
610.68	0.203
610.88	0.202
611.08	0.202
611.29	0.201
611.49	0.201
611.69	0.202
611.89	0.200
612.09	0.200
612.29	0.199
612.50	0.199
612.70	0.199
612.90	0.198
613.10	0.198
613.30	0.197
613.51	0.197
613.71	0.197
613.91	0.201
614.11	0.196
614.31	0.196
614.51	0.196
614.72	0.195
614.92	0.195
615.12	0.195
615.32	0.195
615.52	0.194
615.72	0.195
615.93	0.194
616.13	0.193
616.33	0.193
616.53	0.193
616.73	0.193
616.93	0.191
617.14	0.192
617.34	0.192
617.54	0.192
617.74	0.191
617.94	0.190
618.14	0.190
618.34	0.189
618.55	0.189
618.75	0.190
618.95	0.189
619.15	0.189
619.35	0.188
619.55	0.187
619.75	0.188
619.96	0.187
620.16	0.188
620.36	0.187
620.56	0.187
620.76	0.187
620.96	0.186
621.16	0.186
621.36	0.186
621.57	0.186
621.77	0.186
621.97	0.185
622.17	0.185
622.37	0.185
622.57	0.185
622.77	0.184
622.97	0.183
623.18	0.183
623.38	0.183
623.58	0.183
623.78	0.182
623.98	0.181
624.18	0.180
624.38	0.180
624.58	0.180
624.78	0.181
624.98	0.181
625.19	0.181
625.39	0.181
625.59	0.180
625.79	0.180
625.99	0.180
626.19	0.180
626.39	0.179
626.59	0.179
626.79	0.179
626.99	0.179
627.19	0.178
627.40	0.178
627.60	0.178
627.80	0.178
628.00	0.178
628.20	0.177
628.40	0.177
628.60	0.177
628.80	0.175
629.00	0.175
629.20	0.174
629.40	0.175
629.60	0.173
629.80	0.173
630.00	0.173
630.20	0.173
630.41	0.172
630.61	0.172
630.81	0.172
631.01	0.172
631.21	0.171
631.41	0.171
631.61	0.172
631.81	0.172
632.01	0.171
632.21	0.172
632.41	0.171
632.61	0.171
632.81	0.172
633.01	0.172
633.21	0.171
633.41	0.172
633.61	0.171
633.81	0.170
634.01	0.170
634.21	0.170
634.41	0.169
634.61	0.170
634.81	0.169
635.01	0.169
635.22	0.169
635.42	0.168
635.62	0.168
635.82	0.169
636.02	0.168
636.22	0.167
636.42	0.167
636.62	0.167
636.82	0.166
637.02	0.166
637.22	0.166
637.42	0.165
637.62	0.164
637.82	0.164
638.02	0.164
638.22	0.163
638.42	0.163
638.62	0.163
638.82	0.163
639.02	0.163
639.22	0.163
639.42	0.162
639.62	0.162
639.82	0.162
640.02	0.162
640.22	0.161
640.42	0.161
640.62	0.161
640.82	0.161
641.02	0.160
641.22	0.161
641.42	0.160
641.61	0.160
641.81	0.160
642.01	0.160
642.21	0.160
642.41	0.160
642.61	0.159
642.81	0.158
643.01	0.158
643.21	0.158
643.41	0.158
643.61	0.158
643.81	0.157
644.01	0.156
644.21	0.156
644.41	0.156
644.61	0.156
644.81	0.157
645.01	0.157
645.21	0.156
645.41	0.156
645.61	0.156
645.81	0.156
646.01	0.155
646.21	0.156
646.40	0.155
646.60	0.155
646.80	0.156
647.00	0.155
647.20	0.154
647.40	0.154
647.60	0.154
647.80	0.153
648.00	0.153
648.20	0.153
648.40	0.153
648.60	0.152
648.80	0.152
649.00	0.152
649.20	0.152
649.39	0.151
649.59	0.151
649.79	0.151
649.99	0.151
650.19	0.151
650.39	0.151
650.59	0.150
650.79	0.150
650.99	0.150
651.19	0.149
651.39	0.149
651.58	0.149
651.78	0.149
651.98	0.148
652.18	0.147
652.38	0.147
652.58	0.147
652.78	0.147
652.98	0.147
653.18	0.147
653.38	0.147
653.57	0.147
653.77	0.147
653.97	0.146
654.17	0.146
654.37	0.146
654.57	0.146
654.77	0.146
654.97	0.145
655.16	0.145
655.36	0.145
655.56	0.144
655.76	0.143
655.96	0.145
656.16	0.143
656.36	0.143
656.56	0.143
656.75	0.143
656.95	0.143
657.15	0.143
657.35	0.142
657.55	0.142
657.75	0.142
657.95	0.142
658.14	0.142
658.34	0.142
658.54	0.142
658.74	0.141
658.94	0.141
659.14	0.140
659.34	0.140
659.53	0.140
659.73	0.139
659.93	0.139
660.13	0.138
660.33	0.138
660.53	0.138
660.72	0.138
660.92	0.138
661.12	0.138
661.32	0.138
661.52	0.137
661.72	0.137
661.91	0.137
662.11	0.137
662.31	0.137
662.51	0.137
662.71	0.136
662.90	0.135
663.10	0.135
663.30	0.135
663.50	0.135
663.70	0.134
663.90	0.135
664.09	0.134
664.29	0.134
664.49	0.134
664.69	0.133
664.89	0.133
665.08	0.133
665.28	0.132
665.48	0.132
665.68	0.132
665.88	0.132
666.07	0.131
666.27	0.131
666.47	0.131
666.67	0.131
666.87	0.131
667.06	0.131
667.26	0.130
667.46	0.130
667.66	0.130
667.85	0.130
668.05	0.130
668.25	0.130
668.45	0.130
668.65	0.130
668.84	0.129
669.04	0.129
669.24	0.129
669.44	0.128
669.63	0.128
669.83	0.128
670.03	0.127
670.23	0.126
670.42	0.126
670.62	0.126
670.82	0.126
671.02	0.125
671.22	0.125
671.41	0.125
671.61	0.125
671.81	0.125
672.01	0.125
672.20	0.125
672.40	0.125
672.60	0.125
672.80	0.124
672.99	0.124
673.19	0.124
673.39	0.124
673.58	0.123
673.78	0.123
673.98	0.123
674.18	0.123
674.37	0.122
674.57	0.122
674.77	0.122
674.97	0.122
675.16	0.122
675.36	0.121
675.56	0.121
675.75	0.121
675.95	0.121
676.15	0.121
676.35	0.121
676.54	0.121
676.74	0.121
676.94	0.121
677.13	0.120
677.33	0.119
677.53	0.120
677.73	0.119
677.92	0.119
678.12	0.119
678.32	0.118
678.51	0.118
678.71	0.118
678.91	0.117
679.11	0.117
679.30	0.117
679.50	0.117
679.70	0.117
679.89	0.117
680.09	0.117
680.29	0.116
680.48	0.116
680.68	0.116
680.88	0.115
681.07	0.116
681.27	0.115
681.47	0.115
681.66	0.115
681.86	0.115
682.06	0.114
682.25	0.114
682.45	0.114
682.65	0.114
682.84	0.114
683.04	0.114
683.24	0.113
683.43	0.114
683.63	0.113
683.83	0.113
684.02	0.113
684.22	0.112
684.42	0.112
684.61	0.112
684.81	0.112
685.01	0.112
685.20	0.111
685.40	0.111
685.60	0.111
685.79	0.111
685.99	0.111
686.19	0.111
686.38	0.110
686.58	0.111
686.77	0.111
686.97	0.110
687.17	0.110
687.36	0.110
687.56	0.110
687.76	0.109
687.95	0.109
688.15	0.109
688.34	0.109
688.54	0.108
688.74	0.108
688.93	0.108
689.13	0.108
689.33	0.108
689.52	0.107
689.72	0.108
689.91	0.107
690.11	0.106
690.31	0.106
690.50	0.107
690.70	0.107
690.89	0.107
691.09	0.106
691.29	0.106
691.48	0.106
691.68	0.106
691.87	0.106
692.07	0.106
692.27	0.105
692.46	0.105
692.66	0.105
692.85	0.104
693.05	0.104
693.25	0.104
693.44	0.103
693.64	0.103
693.83	0.103
694.03	0.103
694.22	0.102
694.42	0.102
694.62	0.102
694.81	0.102
695.01	0.103
695.20	0.102
695.40	0.102
695.59	0.102
695.79	0.102
695.99	0.102
696.18	0.102
696.38	0.103
696.57	0.103
696.77	0.102
696.96	0.102
697.16	0.102
697.36	0.102
697.55	0.102
697.75	0.101
697.94	0.101
698.14	0.101
698.33	0.101
698.53	0.101
698.72	0.100
698.92	0.101
699.11	0.101
699.31	0.100
699.51	0.100
699.70	0.100
699.90	0.100
700.09	0.100
700.29	0.099
700.48	0.099
700.68	0.099
700.87	0.099
701.07	0.098
701.26	0.098
701.46	0.098
701.65	0.097
701.85	0.097
702.04	0.097
702.24	0.097
702.43	0.097
702.63	0.097
702.82	0.097
703.02	0.097
703.21	0.097
703.41	0.097
703.60	0.097
703.80	0.097
703.99	0.096
704.19	0.097
704.38	0.096
704.58	0.096
704.77	0.096
704.97	0.095
705.16	0.095
705.36	0.095
705.55	0.095
705.75	0.095
705.94	0.095
706.14	0.095
706.33	0.094
706.53	0.094
706.72	0.094
706.92	0.094
707.11	0.094
707.31	0.094
707.50	0.094
707.70	0.094
707.89	0.094
708.09	0.094
708.28	0.094
708.48	0.094
708.67	0.094
708.86	0.094
709.06	0.094
709.25	0.093
709.45	0.093
709.64	0.093
709.84	0.093
710.03	0.093
710.23	0.093
710.42	0.093
710.62	0.092
710.81	0.092
711.00	0.092
711.20	0.092
711.39	0.092
711.59	0.092
711.78	0.092
711.98	0.091
712.17	0.092
712.37	0.092
712.56	0.092
712.75	0.092
712.95	0.092
713.14	0.092
713.34	0.092
713.53	0.092
713.73	0.093
713.92	0.093
714.11	0.092
714.31	0.092
714.50	0.091
714.70	0.091
714.89	0.091
715.08	0.091
715.28	0.091
715.47	0.091
715.67	0.091
715.86	0.090
716.06	0.091
716.25	0.090
716.44	0.090
716.64	0.090
716.83	0.090
717.03	0.090
717.22	0.089
717.41	0.089
717.61	0.089
717.80	0.089
717.99	0.089
718.19	0.089
718.38	0.089
718.58	0.089
718.77	0.089
718.96	0.089
719.16	0.089
719.35	0.089
719.55	0.089
719.74	0.088
719.93	0.088
720.13	0.088
720.32	0.088
720.51	0.088
720.71	0.088
720.90	0.088
721.10	0.088
721.29	0.088
721.48	0.088
721.68	0.088
721.87	0.088
722.06	0.088
722.26	0.088
722.45	0.088
722.64	0.088
722.84	0.088
723.03	0.088
723.22	0.088
723.42	0.088
723.61	0.088
723.80	0.088
724.00	0.088
724.19	0.088
724.38	0.088
724.58	0.088
724.77	0.088
724.96	0.088
725.16	0.088
725.35	0.088
725.54	0.088
725.74	0.088
725.93	0.088
726.12	0.088
726.32	0.088
726.51	0.088
726.70	0.088
726.90	0.088
727.09	0.088
727.28	0.087
727.48	0.087
727.67	0.087
727.86	0.087
728.06	0.087
728.25	0.087
728.44	0.087
728.64	0.087
728.83	0.087
729.02	0.087
729.21	0.087
729.41	0.087
729.60	0.087
729.79	0.087
729.99	0.087
730.18	0.087
730.37	0.086
730.56	0.086
730.76	0.086
730.95	0.086
731.14	0.086
731.34	0.086
731.53	0.087
731.72	0.087
731.91	0.087
732.11	0.087
732.30	0.087
732.49	0.087
732.69	0.088
732.88	0.088
733.07	0.088
733.26	0.088
733.46	0.087
733.65	0.088
733.84	0.087
734.03	0.088
734.23	0.087
734.42	0.087
734.61	0.087
734.80	0.087
735.00	0.087
735.19	0.087
735.38	0.087
735.57	0.087
735.77	0.087
735.96	0.087
736.15	0.087
736.34	0.087
736.54	0.087
736.73	0.087
736.92	0.087
737.11	0.087
737.31	0.087
737.50	0.087
737.69	0.088
737.88	0.087
738.07	0.087
738.27	0.087
738.46	0.087
738.65	0.087
738.84	0.088
739.04	0.088
739.23	0.087
739.42	0.087
739.61	0.087
739.80	0.087
740.00	0.087
740.19	0.087
740.38	0.087
740.57	0.087
740.76	0.086
740.96	0.086
741.15	0.086
741.34	0.086
741.53	0.086
741.72	0.086
741.92	0.085
742.11	0.085
742.30	0.085
742.49	0.085
742.68	0.085
742.88	0.086
743.07	0.086
743.26	0.086
743.45	0.086
743.64	0.086
743.84	0.085
744.03	0.086
744.22	0.086
744.41	0.085
744.60	0.085
744.79	0.085
744.99	0.085
745.18	0.085
745.37	0.085
745.56	0.085
745.75	0.084
745.94	0.084
746.14	0.084
746.33	0.084
746.52	0.084
746.71	0.084
746.90	0.084
747.09	0.084
747.28	0.083
747.48	0.083
747.67	0.083
747.86	0.083
748.05	0.083
748.24	0.083
748.43	0.083
748.62	0.083
748.82	0.083
749.01	0.083
749.20	0.083
749.39	0.083
749.58	0.083
749.77	0.083
749.96	0.083
750.16	0.083
750.35	0.083
750.54	0.083
750.73	0.083
750.92	0.083
751.11	0.083
751.30	0.083
751.49	0.083
751.68	0.083
751.88	0.083
752.07	0.083
752.26	0.083
752.45	0.083
752.64	0.083
752.83	0.082
753.02	0.082
753.21	0.082
753.40	0.082
753.60	0.082
753.79	0.082
753.98	0.082
754.17	0.082
754.36	0.081
754.55	0.081
754.74	0.081
754.93	0.081
755.12	0.081
755.31	0.081
755.50	0.081
755.70	0.081
755.89	0.081
756.08	0.081
756.27	0.081
756.46	0.081
756.65	0.081
756.84	0.081
757.03	0.081
757.22	0.081
757.41	0.081
757.60	0.081
757.79	0.081
757.98	0.081
758.17	0.081
758.36	0.081
758.56	0.080
758.75	0.080
758.94	0.080
759.13	0.080
759.32	0.080
759.51	0.080
759.70	0.080
759.89	0.080
760.08	0.079
760.27	0.079
760.46	0.080
760.65	0.080
760.84	0.080
761.03	0.080
761.22	0.080
761.41	0.080
761.60	0.080
761.79	0.080
761.98	0.080
762.17	0.080
762.36	0.080
762.55	0.079
762.74	0.079
762.93	0.079
763.12	0.079
763.31	0.079
763.50	0.079
763.69	0.079
763.88	0.079
764.07	0.078
764.26	0.078
764.45	0.078
764.64	0.078
764.83	0.078
765.02	0.078
765.21	0.078
765.40	0.078
765.59	0.078
765.78	0.078
765.97	0.078
766.16	0.078
766.35	0.078
766.54	0.079
766.73	0.079
766.92	0.079
767.11	0.079
767.30	0.079
767.49	0.079
767.68	0.079
767.87	0.078
768.06	0.078
768.25	0.078
768.44	0.078
768.63	0.077
768.82	0.077
769.01	0.077
769.20	0.077
769.39	0.077
769.58	0.077
769.77	0.077
769.96	0.077
770.15	0.077
770.34	0.077
770.53	0.076
770.72	0.076
770.91	0.076
771.10	0.076
771.29	0.076
771.47	0.076
771.66	0.076
771.85	0.076
772.04	0.076
772.23	0.076
772.42	0.075
772.61	0.076
772.80	0.076
772.99	0.076
773.18	0.076
773.37	0.076
773.56	0.076
773.75	0.076
773.94	0.076
774.13	0.076
774.31	0.076
774.50	0.076
774.69	0.076
774.88	0.076
775.07	0.076
775.26	0.076
775.45	0.076
775.64	0.076
775.83	0.076
776.02	0.076
776.21	0.076
776.40	0.076
776.58	0.075
776.77	0.075
776.96	0.075
777.15	0.075
777.34	0.076
777.53	0.076
777.72	0.076
777.91	0.076
778.10	0.075
778.28	0.075
778.47	0.075
778.66	0.075
778.85	0.075
779.04	0.075
779.23	0.075
779.42	0.074
779.61	0.074
779.79	0.074
779.98	0.073
780.17	0.074
780.36	0.074
780.55	0.073
780.74	0.073
780.93	0.073
781.12	0.073
781.30	0.073
781.49	0.073
781.68	0.073
781.87	0.074
782.06	0.074
782.25	0.074
782.44	0.074
782.62	0.074
782.81	0.074
783.00	0.074
783.19	0.074
783.38	0.074
783.57	0.074
783.75	0.073
783.94	0.073
784.13	0.073
784.32	0.073
784.51	0.073
784.70	0.073
784.88	0.073
785.07	0.073
785.26	0.073
785.45	0.073
785.64	0.073
785.83	0.073
786.01	0.072
786.20	0.072
786.39	0.073
786.58	0.072
786.77	0.072
786.95	0.072
787.14	0.072
787.33	0.072
787.52	0.072
787.71	0.072
787.90	0.072
788.08	0.072
788.27	0.072
788.46	0.071
788.65	0.072
788.84	0.072
789.02	0.072
789.21	0.072
789.40	0.072
789.59	0.072
789.77	0.072
789.96	0.072
790.15	0.072
790.34	0.072
790.53	0.072
790.71	0.072
790.90	0.071
791.09	0.071
791.28	0.072
791.46	0.072
791.65	0.071
791.84	0.071
792.03	0.071
792.22	0.071
792.40	0.071
792.59	0.071
792.78	0.071
792.97	0.072
793.15	0.072
793.34	0.071
793.53	0.071
793.72	0.071
793.90	0.071
794.09	0.072
794.28	0.072
794.47	0.072
794.65	0.071
794.84	0.071
795.03	0.071
795.22	0.071
795.40	0.071
795.59	0.071
795.78	0.071
795.97	0.071
796.15	0.070
796.34	0.070
796.53	0.071
796.71	0.071
796.90	0.070
797.09	0.071
797.28	0.071
797.46	0.071
797.65	0.071
797.84	0.071
798.02	0.071
798.21	0.071
798.40	0.071
798.59	0.071
798.77	0.071
798.96	0.070
799.15	0.070
799.33	0.070
799.52	0.070
799.71	0.070
799.90	0.070
800.08	0.070
800.27	0.070
800.46	0.070
800.64	0.070
800.83	0.070
801.02	0.070
801.20	0.070
801.39	0.070
801.58	0.069
801.76	0.069
801.95	0.070
802.14	0.070
802.32	0.069
802.51	0.070
802.70	0.069
802.88	0.069
803.07	0.069
803.26	0.069
803.44	0.069
803.63	0.069
803.82	0.069
804.00	0.069
804.19	0.069
804.38	0.069
804.56	0.069
804.75	0.069
804.94	0.070
805.12	0.070
805.31	0.069
805.50	0.069
805.68	0.069
805.87	0.069
806.06	0.069
806.24	0.069
806.43	0.069
806.62	0.069
806.80	0.069
806.99	0.069
807.17	0.069
807.36	0.069
807.55	0.069
807.73	0.069
807.92	0.069
808.11	0.069
808.29	0.069
808.48	0.068
808.66	0.068
808.85	0.068
809.04	0.068
809.22	0.068
809.41	0.068
809.59	0.068
809.78	0.068
809.97	0.068
810.15	0.068
810.34	0.068
810.53	0.068
810.71	0.068
810.90	0.068
811.08	0.068
811.27	0.068
811.45	0.068
811.64	0.068
811.83	0.068
812.01	0.068
812.20	0.068
812.38	0.068
812.57	0.068
812.76	0.068
812.94	0.068
813.13	0.068
813.31	0.068
813.50	0.068
813.68	0.068
813.87	0.068
814.06	0.068
814.24	0.068
814.43	0.068
814.61	0.068
814.80	0.068
814.98	0.068
815.17	0.068
815.36	0.068
815.54	0.068
815.73	0.068
815.91	0.068
816.10	0.068
816.28	0.068
816.47	0.068
816.65	0.068
816.84	0.069
817.03	0.069
817.21	0.069
817.40	0.069
817.58	0.069
817.77	0.069
817.95	0.069
818.14	0.069
818.32	0.069
818.51	0.069
818.69	0.069
818.88	0.069
819.06	0.069
819.25	0.069
819.43	0.069
819.62	0.069
819.80	0.069
819.99	0.069
820.18	0.069
820.36	0.068
820.55	0.069
820.73	0.069
820.92	0.069
821.10	0.068
821.29	0.068
821.47	0.068
821.66	0.068
821.84	0.068
822.03	0.068
822.21	0.068
822.40	0.069
822.58	0.069
822.77	0.068
822.95	0.069
823.14	0.069
823.32	0.069
823.50	0.069
823.69	0.069
823.87	0.069
824.06	0.069
824.24	0.069
824.43	0.069
824.61	0.069
824.80	0.070
824.98	0.070
825.17	0.070
825.35	0.070
825.54	0.070
825.72	0.070
825.91	0.070
826.09	0.070
826.28	0.070
826.46	0.070
826.64	0.071
826.83	0.071
827.01	0.071
827.20	0.071
827.38	0.070
827.57	0.071
827.75	0.071
827.94	0.071
828.12	0.071
828.31	0.071
828.49	0.071
828.67	0.071
828.86	0.071
829.04	0.071
829.23	0.071
829.41	0.071
829.60	0.071
829.78	0.072
829.96	0.073
830.15	0.073
830.33	0.073
830.52	0.073
830.70	0.073
830.88	0.073
831.07	0.074
831.25	0.074
831.44	0.074
831.62	0.074
831.81	0.074
831.99	0.074
832.17	0.074
832.36	0.074
832.54	0.074
832.73	0.074
832.91	0.074
833.09	0.073
833.28	0.073
833.46	0.074
833.65	0.074
833.83	0.074
834.01	0.074
834.20	0.074
834.38	0.074
834.56	0.074
834.75	0.074
834.93	0.075
835.12	0.075
835.30	0.075
835.48	0.075
835.67	0.075
835.85	0.075
836.03	0.075
836.22	0.075
836.40	0.075
836.59	0.075
836.77	0.074
836.95	0.074
837.14	0.075
837.32	0.074
837.50	0.074
837.69	0.075
837.87	0.075
838.05	0.075
838.24	0.075
838.42	0.075
838.60	0.075
838.79	0.076
838.97	0.075
839.15	0.075
839.34	0.075
839.52	0.075
839.70	0.075
839.89	0.075
840.07	0.075
840.25	0.076
840.44	0.075
840.62	0.075
840.80	0.075
840.99	0.076
841.17	0.075
841.35	0.075
841.54	0.075
841.72	0.075
841.90	0.075
842.09	0.075
842.27	0.075
842.45	0.075
842.64	0.075
842.82	0.075
843.00	0.075
843.19	0.075
843.37	0.075
843.55	0.075
843.73	0.075
843.92	0.075
844.10	0.076
844.28	0.076
844.47	0.076
844.65	0.076
844.83	0.076
845.01	0.076
845.20	0.076
845.38	0.076
845.56	0.076
845.75	0.076
845.93	0.076
846.11	0.076
846.29	0.076
846.48	0.076
846.66	0.077
846.84	0.077
847.02	0.076
847.21	0.076
847.39	0.076
847.57	0.076
847.76	0.077
847.94	0.076
848.12	0.076
848.30	0.077
848.49	0.077
848.67	0.076
848.85	0.076
849.03	0.077
849.22	0.077
849.40	0.077
849.58	0.077
849.76	0.077
849.95	0.077
850.13	0.077
850.31	0.077
850.49	0.077
850.67	0.078
850.86	0.077
851.04	0.077
851.22	0.077
851.40	0.077
851.59	0.077
851.77	0.077
851.95	0.077
852.13	0.077
852.31	0.077
852.50	0.077
852.68	0.077
852.86	0.077
853.04	0.077
853.23	0.077
853.41	0.077
853.59	0.077
853.77	0.077
853.95	0.077
854.14	0.077
854.32	0.078
854.50	0.077
854.68	0.077
854.86	0.077
855.04	0.078
855.23	0.077
855.41	0.077
855.59	0.078
855.77	0.078
855.95	0.078
856.14	0.078
856.32	0.077
856.50	0.077
856.68	0.077
856.86	0.077
857.04	0.077
857.23	0.076
857.41	0.076
857.59	0.076
857.77	0.076
857.95	0.076
858.13	0.076
858.32	0.076
858.50	0.077
858.68	0.077
858.86	0.077
859.04	0.077
859.22	0.077
859.41	0.078
859.59	0.077
859.77	0.077
859.95	0.077
860.13	0.078
860.31	0.077
860.49	0.077
860.68	0.077
860.86	0.078
861.04	0.077
861.22	0.077
861.40	0.077
861.58	0.077
861.76	0.077
861.94	0.077
862.13	0.077
862.31	0.077
862.49	0.077
862.67	0.077
862.85	0.077
863.03	0.077
863.21	0.078
863.39	0.078
863.57	0.079
863.76	0.079
863.94	0.079
864.12	0.079
864.30	0.079
864.48	0.078
864.66	0.078
864.84	0.079
865.02	0.079
865.20	0.078
865.38	0.078
865.57	0.078
865.75	0.078
865.93	0.078
866.11	0.078
866.29	0.078
866.47	0.078
866.65	0.079
866.83	0.079
867.01	0.078
867.19	0.078
867.37	0.078
867.55	0.079
867.73	0.079
867.92	0.079
868.10	0.079
868.28	0.079
868.46	0.079
868.64	0.079
868.82	0.079
869.00	0.079
869.18	0.080
869.36	0.079
869.54	0.080
869.72	0.080
869.90	0.080
870.08	0.079
870.26	0.079
870.44	0.080
870.62	0.079
870.80	0.079
870.98	0.079
871.16	0.079
871.34	0.079
871.53	0.079
871.71	0.079
871.89	0.079
872.07	0.079
872.25	0.079
872.43	0.079
872.61	0.079
872.79	0.080
872.97	0.080
873.15	0.080
873.33	0.080
873.51	0.080
873.69	0.080
873.87	0.080
874.05	0.080
874.23	0.080
874.41	0.080
874.59	0.081
874.77	0.080
874.95	0.080
875.13	0.080
875.31	0.080
875.49	0.081
875.67	0.080
875.85	0.080
876.03	0.080
876.21	0.081
876.39	0.081
876.57	0.081
876.75	0.081
876.93	0.081
877.11	0.081
877.29	0.081
877.47	0.081
877.65	0.082
877.82	0.082
878.00	0.081
878.18	0.081
878.36	0.081
878.54	0.081
878.72	0.081
878.90	0.081
879.08	0.081
879.26	0.081
879.44	0.081
879.62	0.081
879.80	0.081
879.98	0.081
880.16	0.081
880.34	0.081
880.52	0.081
880.70	0.081
880.88	0.081
881.06	0.081
881.24	0.081
881.42	0.081
881.59	0.081
881.77	0.081
881.95	0.081
882.13	0.081
882.31	0.081
882.49	0.081
882.67	0.082
882.85	0.081
883.03	0.081
883.21	0.081
883.39	0.082
883.57	0.082
883.75	0.082
883.92	0.082
884.10	0.082
884.28	0.082
884.46	0.082
884.64	0.082
884.82	0.082
885.00	0.082
885.18	0.083
885.36	0.083
885.54	0.082
885.71	0.082
885.89	0.083
886.07	0.083
886.25	0.083
886.43	0.083
886.61	0.083
886.79	0.082
886.97	0.082
887.15	0.083
887.32	0.082
887.50	0.083
887.68	0.083
887.86	0.083
888.04	0.083
888.22	0.083
888.40	0.083
888.57	0.083
888.75	0.083
888.93	0.083
889.11	0.083
889.29	0.083
889.47	0.083
889.65	0.083
889.82	0.083
890.00	0.084
890.18	0.084
890.36	0.083
890.54	0.084
890.72	0.084
890.90	0.084
891.07	0.084
891.25	0.084
891.43	0.083
891.61	0.084
891.79	0.084
891.97	0.084
892.14	0.083
892.32	0.084
892.50	0.084
892.68	0.084
892.86	0.084
893.03	0.084
893.21	0.085
893.39	0.085
893.57	0.085
893.75	0.085
893.93	0.085
894.10	0.085
894.28	0.085
894.46	0.085
894.64	0.085
894.82	0.085
894.99	0.085
895.17	0.084
895.35	0.084
895.53	0.084
895.71	0.084
895.88	0.084
896.06	0.084
896.24	0.085
896.42	0.085
896.59	0.085
896.77	0.085
896.95	0.085
897.13	0.085
897.31	0.086
897.48	0.085
897.66	0.086
897.84	0.085
898.02	0.086
898.19	0.085
898.37	0.085
898.55	0.086
898.73	0.086
898.91	0.086
899.08	0.086
899.26	0.086
899.44	0.086
899.62	0.086
899.79	0.087
899.97	0.087
900.15	0.087
900.33	0.087
900.50	0.087
900.68	0.086
900.86	0.086
901.04	0.087
901.21	0.086
901.39	0.087
901.57	0.086
901.74	0.087
901.92	0.086
902.10	0.087
902.28	0.086
902.45	0.086
902.63	0.086
902.81	0.086
902.99	0.087
903.16	0.087
903.34	0.087
903.52	0.087
903.69	0.087
903.87	0.087
904.05	0.087
904.22	0.088
904.40	0.088
904.58	0.088
904.76	0.088
904.93	0.088
905.11	0.088
905.29	0.088
905.46	0.088
905.64	0.088
905.82	0.088
905.99	0.088
906.17	0.088
906.35	0.088
906.53	0.088
906.70	0.088
906.88	0.088
907.06	0.088
907.23	0.088
907.41	0.088
907.59	0.088
907.76	0.089
907.94	0.089
908.12	0.089
908.29	0.089
908.47	0.089
908.65	0.089
908.82	0.089
909.00	0.089
909.18	0.089
909.35	0.089
909.53	0.090
909.71	0.090
909.88	0.090
910.06	0.089
910.23	0.089
910.41	0.090
910.59	0.090
910.76	0.089
910.94	0.089
911.12	0.089
911.29	0.089
911.47	0.089
911.65	0.090
911.82	0.090
912.00	0.090
912.17	0.090
912.35	0.090
912.53	0.091
912.70	0.091
912.88	0.091
913.06	0.091
913.23	0.091
913.41	0.091
913.58	0.092
913.76	0.092
913.94	0.092
914.11	0.092
914.29	0.092
914.46	0.092
914.64	0.092
914.82	0.092
914.99	0.093
915.17	0.092
915.34	0.093
915.52	0.093
915.70	0.093
915.87	0.093
916.05	0.093
916.22	0.093
916.40	0.093
916.57	0.093
916.75	0.094
916.93	0.094
917.10	0.094
917.28	0.094
917.45	0.094
917.63	0.094
917.80	0.094
917.98	0.094
918.16	0.094
918.33	0.094
918.51	0.094
918.68	0.094
918.86	0.094
919.03	0.094
919.21	0.095
919.39	0.095
919.56	0.095
919.74	0.096
919.91	0.096
920.09	0.097
920.26	0.097
920.44	0.097
920.61	0.097
920.79	0.097
920.96	0.097
921.14	0.097
921.31	0.097
921.49	0.097
921.67	0.097
921.84	0.098
922.02	0.098
922.19	0.098
922.37	0.098
922.54	0.099
922.72	0.099
922.89	0.100
923.07	0.100
923.24	0.100
923.42	0.100
923.59	0.100
923.77	0.100
923.94	0.100
924.12	0.101
924.29	0.101
924.47	0.102
924.64	0.102
924.82	0.102
924.99	0.103
925.17	0.103
925.34	0.104
925.52	0.104
925.69	0.104
925.87	0.105
926.04	0.105
926.22	0.105
926.39	0.105
926.57	0.105
926.74	0.106
926.91	0.106
927.09	0.106
927.26	0.106
927.44	0.107
927.61	0.107
927.79	0.107
927.96	0.108
928.14	0.108
928.31	0.108
928.49	0.109
928.66	0.109
928.84	0.110
929.01	0.110
929.18	0.110
929.36	0.111
929.53	0.111
929.71	0.112
929.88	0.112
930.06	0.113
930.23	0.113
930.41	0.113
930.58	0.114
930.75	0.114
930.93	0.115
931.10	0.115
931.28	0.116
931.45	0.116
931.63	0.116
931.80	0.117
931.97	0.117
932.15	0.118
932.32	0.118
932.50	0.118
932.67	0.119
932.84	0.119
933.02	0.120
933.19	0.120
933.37	0.120
933.54	0.121
933.71	0.121
933.89	0.122
934.06	0.122
934.24	0.123
934.41	0.123
934.58	0.124
934.76	0.124
934.93	0.125
935.11	0.125
935.28	0.126
935.45	0.126
935.63	0.127
935.80	0.127
935.98	0.128
936.15	0.128
936.32	0.129
936.50	0.129
936.67	0.129
936.84	0.129
937.02	0.130
937.19	0.131
937.36	0.131
937.54	0.131
937.71	0.133
937.89	0.133
938.06	0.133
938.23	0.134
938.41	0.135
938.58	0.136
938.75	0.136
938.93	0.137
939.10	0.137
939.27	0.137
939.45	0.138
939.62	0.138
939.79	0.139
939.97	0.139
940.14	0.140
940.31	0.141
940.49	0.141
940.66	0.141
940.83	0.142
941.01	0.143
941.18	0.144
941.35	0.144
941.53	0.145
941.70	0.146
941.87	0.146
942.05	0.147
942.22	0.148
942.39	0.149
942.57	0.150
942.74	0.150
942.91	0.151
943.08	0.151
943.26	0.152
943.43	0.153
943.60	0.153
943.78	0.154
943.95	0.155
944.12	0.154
944.29	0.156
944.47	0.156
944.64	0.157
944.81	0.159
944.99	0.159
945.16	0.160
945.33	0.160
945.50	0.161
945.68	0.162
945.85	0.162
946.02	0.164
946.20	0.165
946.37	0.165
946.54	0.166
946.71	0.166
946.89	0.167
947.06	0.167
947.23	0.168
947.40	0.169
947.58	0.170
947.75	0.171
947.92	0.172
948.09	0.172
948.27	0.173
948.44	0.174
948.61	0.176
948.78	0.176
948.96	0.178
949.13	0.179
949.30	0.180
949.47	0.181
949.65	0.182
949.82	0.184
949.99	0.184
950.16	0.186
950.33	0.187
950.51	0.188
950.68	0.190
950.85	0.191
951.02	0.192
951.20	0.193
951.37	0.194
951.54	0.195
951.71	0.196
951.88	0.198
952.06	0.199
952.23	0.200
952.40	0.201
952.57	0.202
952.74	0.203
952.92	0.204
953.09	0.205
953.26	0.207
953.43	0.208
953.60	0.208
953.77	0.209
953.95	0.210
954.12	0.212
954.29	0.213
954.46	0.215
954.63	0.216
954.81	0.217
954.98	0.218
955.15	0.220
955.32	0.222
955.49	0.222
955.66	0.223
955.84	0.224
956.01	0.225
956.18	0.227
956.35	0.228
956.52	0.229
956.69	0.230
956.87	0.231
957.04	0.232
957.21	0.234
957.38	0.234
957.55	0.235
957.72	0.236
957.89	0.237
958.07	0.237
958.24	0.240
958.41	0.241
958.58	0.241
958.75	0.242
958.92	0.242
959.09	0.243
959.26	0.243
959.44	0.244
959.61	0.245
959.78	0.246
959.95	0.248
960.12	0.248
960.29	0.250
960.46	0.249
960.63	0.249
960.81	0.249
960.98	0.250
961.15	0.251
961.32	0.252
961.49	0.251
961.66	0.253
961.83	0.253
962.00	0.253
962.17	0.254
962.34	0.254
962.52	0.255
962.69	0.256
962.86	0.256
963.03	0.257
963.20	0.257
963.37	0.256
963.54	0.257
963.71	0.257
963.88	0.257
964.05	0.258
964.22	0.259
964.39	0.258
964.56	0.258
964.74	0.259
964.91	0.258
965.08	0.259
965.25	0.259
965.42	0.259
965.59	0.260
965.76	0.259
965.93	0.260
966.10	0.258
966.27	0.260
966.44	0.259
966.61	0.260
966.78	0.260
966.95	0.260
967.12	0.261
967.29	0.263
967.46	0.263
967.63	0.261
967.80	0.263
967.97	0.262
968.14	0.262
968.32	0.262
968.49	0.263
968.66	0.262
968.83	0.263
969.00	0.263
969.17	0.263
969.34	0.264
969.51	0.265
969.68	0.263
969.85	0.264
970.02	0.264
970.19	0.264
970.36	0.264
970.53	0.264
970.70	0.263
970.87	0.264
971.04	0.262
971.21	0.263
971.38	0.263
971.55	0.263
971.72	0.263
971.89	0.264
972.06	0.263
972.23	0.263
972.40	0.263
972.57	0.263
972.74	0.262
972.91	0.264
973.07	0.264
973.24	0.264
973.41	0.264
973.58	0.262
973.75	0.274
973.92	0.263
974.09	0.262
974.26	0.263
974.43	0.262
974.60	0.263
974.77	0.263
974.94	0.263
975.11	0.263
975.28	0.265
975.45	0.263
975.62	0.264
975.79	0.266
975.96	0.264
976.13	0.263
976.30	0.265
976.47	0.263
976.64	0.263
976.80	0.263
976.97	0.263
977.14	0.263
977.31	0.263
977.48	0.263
977.65	0.263
977.82	0.261
977.99	0.263
978.16	0.262
978.33	0.262
978.50	0.261
978.67	0.262
978.83	0.262
979.00	0.261
979.17	0.261
979.34	0.260
979.51	0.260
979.68	0.261
979.85	0.260
980.02	0.261
980.19	0.259
980.36	0.260
980.52	0.261
980.69	0.260
980.86	0.260
981.03	0.259
981.20	0.258
981.37	0.259
981.54	0.259
981.71	0.257
981.88	0.258
982.04	0.258
982.21	0.257
982.38	0.259
982.55	0.258
982.72	0.257
982.89	0.258
983.06	0.257
983.22	0.256
983.39	0.256
983.56	0.256
983.73	0.255
983.90	0.255
984.07	0.256
984.24	0.255
984.40	0.254
984.57	0.253
984.74	0.255
984.91	0.255
985.08	0.253
985.25	0.251
985.41	0.252
985.58	0.252
985.75	0.254
985.92	0.252
986.09	0.251
986.26	0.252
986.42	0.251
986.59	0.250
986.76	0.251
986.93	0.252
987.10	0.252
987.27	0.250
987.43	0.248
987.60	0.249
987.77	0.250
987.94	0.248
988.11	0.248
988.27	0.248
988.44	0.247
988.61	0.246
988.78	0.244
988.95	0.245
989.11	0.246
989.28	0.244
989.45	0.244
989.62	0.243
989.79	0.244
989.95	0.242
990.12	0.244
990.29	0.244
990.46	0.242
990.62	0.241
990.79	0.242
990.96	0.242
991.13	0.242
991.30	0.241
991.46	0.240
991.63	0.239
991.80	0.238
991.97	0.238
992.13	0.239
992.30	0.240
992.47	0.238
992.64	0.238
992.80	0.238
992.97	0.238
993.14	0.236
993.31	0.234
993.47	0.237
993.64	0.235
993.81	0.235
993.98	0.235
994.14	0.234
994.31	0.233
994.48	0.235
994.64	0.235
994.81	0.234
994.98	0.234
995.15	0.232
995.31	0.232
995.48	0.231
995.65	0.233
995.82	0.230
995.98	0.229
996.15	0.230
996.32	0.232
996.48	0.230
996.65	0.229
996.82	0.227
996.99	0.227
997.15	0.227
997.32	0.229
997.49	0.228
997.65	0.228
997.82	0.228
997.99	0.226
998.15	0.227
998.32	0.228
998.49	0.226
998.65	0.227
998.82	0.226
998.99	0.223
999.15	0.224
999.32	0.223
999.49	0.222
999.65	0.222
999.82	0.219
999.99	0.219
1000.15	0.219
1000.32	0.219
1000.49	0.219
1000.65	0.218
1000.82	0.217
1000.99	0.218
1001.15	0.218
1001.32	0.217
1001.49	0.217
1001.65	0.217
1001.82	0.220
1001.99	0.217
1002.15	0.216
1002.32	0.215
1002.49	0.215
1002.65	0.214
1002.82	0.213
1002.99	0.212
1003.15	0.214
1003.32	0.213
1003.48	0.213
1003.65	0.212
1003.82	0.210
1003.98	0.208
1004.15	0.209
1004.32	0.210
1004.48	0.211
1004.65	0.211
1004.81	0.209
1004.98	0.208
1005.15	0.209
1005.31	0.208
1005.48	0.206
1005.64	0.206
1005.81	0.209
1005.98	0.205
1006.14	0.204
1006.31	0.204
1006.47	0.202
1006.64	0.201
1006.81	0.201
1006.97	0.200
1007.14	0.200
1007.30	0.202
1007.47	0.202
1007.63	0.199
1007.80	0.198
1007.97	0.198
1008.13	0.199
1008.30	0.198
1008.46	0.199
1008.63	0.197
1008.79	0.197
1008.96	0.198
1009.13	0.199
1009.29	0.196
1009.46	0.196
1009.62	0.196
1009.79	0.193
1009.95	0.194
1010.12	0.195
1010.28	0.194
1010.45	0.194
1010.62	0.194
1010.78	0.192
1010.95	0.191
1011.11	0.192
1011.28	0.191
1011.44	0.193
1011.61	0.191
1011.77	0.190
1011.94	0.189
1012.10	0.190
1012.27	0.189
1012.43	0.189
1012.60	0.187
1012.76	0.188
1012.93	0.188
1013.10	0.186
1013.26	0.183
1013.43	0.184
1013.59	0.192
1013.76	0.184
1013.92	0.182
1014.09	0.181
1014.25	0.183
1014.42	0.184
1014.58	0.184
1014.75	0.185
1014.91	0.184
1015.08	0.186
1015.24	0.183
1015.41	0.185
1015.57	0.185
1015.73	0.183
1015.90	0.181
1016.06	0.183
1016.23	0.181
1016.39	0.180
1016.56	0.181
1016.72	0.180
1016.89	0.180
1017.05	0.182
1017.22	0.178
1017.38	0.178
1017.55	0.177
1017.71	0.179
1017.88	0.177
1018.04	0.178
1018.21	0.175
1018.37	0.175
1018.53	0.174
1018.70	0.172
1018.86	0.171
1019.03	0.174
1019.19	0.173
1019.36	0.172
1019.52	0.174
1019.69	0.175
1019.85	0.174
1020.01	0.174
1020.18	0.173
1020.34	0.174
1020.51	0.173
1020.67	0.174
1020.84	0.172
1021.00	0.172
1021.16	0.170
1021.33	0.171
1021.49	0.169
1021.66	0.170
1021.82	0.167
1021.98	0.168
1022.15	0.167
1022.31	0.167
1022.48	0.166
1022.64	0.168
1022.80	0.167
1022.97	0.164
1023.13	0.163
1023.30	0.164
1023.46	0.165
1023.62	0.162
1023.79	0.164
1023.95	0.164
1024.12	0.163
1024.28	0.161
1024.44	0.161
1024.61	0.160
1024.77	0.161
1024.93	0.160
1025.10	0.160
1025.26	0.158
1025.43	0.159
1025.59	0.155
1025.75	0.159
1025.92	0.158
1026.08	0.157
1026.24	0.157
1026.41	0.159
1026.57	0.157
1026.73	0.155
1026.90	0.158
1027.06	0.155
1027.23	0.157
1027.39	0.156
1027.55	0.157
1027.72	0.156
1027.88	0.156
1028.04	0.155
1028.21	0.156
1028.37	0.151
1028.53	0.156
1028.70	0.153
1028.86	0.152
1029.02	0.152
1029.19	0.152
1029.35	0.150
1029.51	0.149
1029.67	0.149
1029.84	0.151
1030.00	0.145
1030.16	0.146
1030.33	0.149
1030.49	0.146
1030.65	0.143
1030.82	0.159
1030.98	0.146
1031.14	0.146
1031.31	0.146
1031.47	0.143
1031.63	0.146
1031.79	0.145
1031.96	0.146
1032.12	0.147
1032.28	0.144
1032.45	0.148
1032.61	0.146
1032.77	0.145
1032.93	0.143
1033.10	0.144
1033.26	0.147
1033.42	0.144
1033.58	0.145
1033.75	0.146
1033.91	0.145
1034.07	0.148
1034.24	0.147
1034.40	0.145
1034.56	0.145
1034.72	0.144
1034.89	0.144
1035.05	0.143
1035.21	0.143
1035.37	0.141
1035.54	0.143
1035.70	0.141
1035.86	0.140
1036.02	0.142
1036.19	0.140
1036.35	0.139
1036.51	0.144
1036.67	0.141
1036.83	0.140
1037.00	0.140
1037.16	0.139
1037.32	0.141
1037.48	0.140
1037.65	0.146
1037.81	0.140
1037.97	0.141
1038.13	0.140
1038.29	0.138
1038.46	0.135
1038.62	0.140
1038.78	0.136
1038.94	0.133
1039.10	0.137
1039.27	0.132
1039.43	0.133
1039.59	0.133
1039.75	0.132
1039.91	0.131
1040.08	0.131
1040.24	0.135
1040.40	0.136
1040.56	0.135
1040.72	0.130
1040.89	0.133
1041.05	0.134
1041.21	0.131
1041.37	0.129
1041.53	0.135
1041.69	0.133
1041.86	0.132
1042.02	0.129
1042.18	0.128
1042.34	0.130
1042.50	0.133
1042.66	0.130
1042.83	0.129
1042.99	0.133
1043.15	0.127
1043.31	0.128
1043.47	0.132
1043.63	0.129
1043.79	0.128
1043.96	0.129
1044.12	0.132
1044.28	0.129
1044.44	0.131
1044.60	0.125
1044.76	0.124
1044.92	0.127
1045.09	0.128
1045.25	0.124
1045.41	0.126
1045.57	0.122
1045.73	0.122
1045.89	0.123
1046.05	0.126
1046.21	0.130
1046.38	0.131
1046.54	0.125
1046.70	0.128
1046.86	0.130
>>>>>End Processed Spectral Data<<<<<
