SpectraSuite Data File
++++++++++++++++++++++++++++++++++++
Date: Mon May 20 12:12:26 CDT 2013
User: Students
Dark Spectrum Present: Yes
Reference Spectrum Present: Yes
Number of Sampled Component Spectra: 1
Spectrometers: USB4H00887
Integration Time (usec): 60000 (USB4H00887)
Spectra Averaged: 5 (USB4H00887)
Boxcar Smoothing: 5 (USB4H00887)
Correct for Electrical Dark: No (USB4H00887)
Strobe/Lamp Enabled: No (USB4H00887)
Correct for Detector Non-linearity: No (USB4H00887)
Correct for Stray Light: No (USB4H00887)
Number of Pixels in Processed Spectrum: 3648
>>>>>Begin Processed Spectral Data<<<<<
345.83	-0.332
346.05	-0.332
346.26	-0.332
346.48	-0.000
346.70	0.706
346.92	0.116
347.14	0.071
347.35	0.047
347.57	0.226
347.79	-0.155
348.01	-0.134
348.23	-0.265
348.44	-0.000
348.66	0.160
348.88	-0.289
349.10	-0.108
349.32	0.047
349.53	0.003
349.75	-0.019
349.97	0.015
350.19	0.002
350.41	-0.023
350.62	0.336
350.84	-0.022
351.06	-0.023
351.28	-0.041
351.50	-0.103
351.71	-0.045
351.93	-0.011
352.15	-0.002
352.37	0.002
352.58	0.027
352.80	0.042
353.02	0.081
353.24	0.072
353.46	0.278
353.67	-0.120
353.89	0.030
354.11	0.027
354.33	0.049
354.54	0.083
354.76	0.139
354.98	0.219
355.20	0.213
355.41	0.106
355.63	0.245
355.85	0.110
356.07	-0.000
356.28	0.103
356.50	0.193
356.72	0.058
356.94	0.201
357.15	0.316
357.37	-0.000
357.59	0.107
357.81	0.038
358.02	0.103
358.24	0.046
358.46	0.098
358.68	0.108
358.89	0.054
359.11	-0.000
359.33	0.064
359.55	-0.395
359.76	0.056
359.98	0.064
360.20	0.068
360.42	0.054
360.63	0.083
360.85	0.033
361.07	0.109
361.29	0.031
361.50	0.100
361.72	0.037
361.94	0.180
362.15	0.098
362.37	0.066
362.59	0.081
362.81	0.125
363.02	0.238
363.24	0.472
363.46	0.235
363.68	0.264
363.89	0.149
364.11	0.214
364.33	0.224
364.54	0.140
364.76	0.175
364.98	0.173
365.20	0.209
365.41	0.112
365.63	0.127
365.85	0.107
366.06	0.338
366.28	0.416
366.50	0.252
366.71	0.135
366.93	0.185
367.15	0.146
367.37	0.133
367.58	0.166
367.80	0.195
368.02	0.660
368.23	0.149
368.45	0.160
368.67	0.130
368.88	0.132
369.10	-0.000
369.32	0.111
369.53	0.070
369.75	0.118
369.97	0.224
370.19	0.141
370.40	0.050
370.62	0.161
370.84	0.072
371.05	0.441
371.27	0.122
371.49	0.155
371.70	0.184
371.92	0.303
372.14	0.130
372.35	0.151
372.57	0.189
372.79	0.642
373.00	0.122
373.22	0.200
373.44	0.156
373.65	0.106
373.87	0.148
374.09	0.495
374.30	0.106
374.52	0.114
374.74	0.080
374.95	0.278
375.17	0.089
375.39	-0.000
375.60	0.111
375.82	0.235
376.04	0.104
376.25	0.114
376.47	0.078
376.68	0.166
376.90	0.099
377.12	0.186
377.33	0.112
377.55	0.292
377.77	0.162
377.98	0.230
378.20	0.134
378.42	0.174
378.63	0.231
378.85	-0.000
379.07	0.166
379.28	0.710
379.50	0.421
379.71	0.211
379.93	0.143
380.15	0.202
380.36	0.286
380.58	0.205
380.80	0.516
381.01	0.143
381.23	0.115
381.44	0.126
381.66	0.155
381.88	0.185
382.09	-0.079
382.31	0.117
382.53	0.126
382.74	0.636
382.96	0.159
383.17	0.149
383.39	0.212
383.61	0.262
383.82	0.193
384.04	0.226
384.25	0.278
384.47	0.255
384.69	0.248
384.90	0.209
385.12	0.459
385.33	0.295
385.55	0.228
385.77	0.347
385.98	0.176
386.20	0.226
386.41	0.183
386.63	0.197
386.85	0.174
387.06	0.212
387.28	0.346
387.49	0.242
387.71	0.193
387.93	0.163
388.14	0.497
388.36	0.223
388.57	0.214
388.79	0.243
389.01	-0.000
389.22	0.308
389.44	0.269
389.65	0.213
389.87	0.204
390.08	0.230
390.30	0.178
390.52	0.325
390.73	0.330
390.95	0.231
391.16	0.225
391.38	-0.000
391.59	0.252
391.81	0.208
392.03	0.213
392.24	0.243
392.46	0.202
392.67	0.189
392.89	0.276
393.10	0.404
393.32	0.278
393.53	0.337
393.75	0.216
393.97	0.251
394.18	0.374
394.40	0.306
394.61	0.340
394.83	0.308
395.04	0.352
395.26	0.225
395.47	0.362
395.69	0.291
395.91	0.323
396.12	0.391
396.34	0.391
396.55	0.234
396.77	0.340
396.98	2.180
397.20	0.370
397.41	0.437
397.63	0.320
397.84	0.277
398.06	0.263
398.27	0.245
398.49	0.283
398.71	0.202
398.92	0.250
399.14	0.334
399.35	0.430
399.57	0.403
399.78	0.275
400.00	0.264
400.21	0.340
400.43	0.275
400.64	0.302
400.86	0.713
401.07	0.384
401.29	0.328
401.50	0.341
401.72	0.494
401.93	0.316
402.15	0.385
402.36	0.343
402.58	0.284
402.79	0.321
403.01	0.533
403.22	0.408
403.44	0.275
403.65	0.455
403.87	0.547
404.08	0.426
404.30	0.757
404.51	0.371
404.73	0.458
404.94	0.390
405.16	0.399
405.37	0.308
405.59	0.585
405.80	0.353
406.02	0.436
406.23	0.426
406.45	0.476
406.66	0.512
406.88	0.323
407.09	0.506
407.31	0.384
407.52	0.469
407.74	0.375
407.95	0.444
408.17	0.418
408.38	0.437
408.60	0.283
408.81	0.464
409.03	0.345
409.24	0.354
409.45	0.412
409.67	0.395
409.88	0.353
410.10	0.461
410.31	0.380
410.53	0.365
410.74	0.524
410.96	0.512
411.17	0.538
411.39	0.410
411.60	0.376
411.82	0.440
412.03	0.428
412.24	0.411
412.46	0.600
412.67	0.491
412.89	0.475
413.10	0.461
413.32	0.415
413.53	0.488
413.75	0.500
413.96	0.380
414.17	0.505
414.39	0.511
414.60	0.427
414.82	0.568
415.03	0.437
415.25	0.489
415.46	0.335
415.68	0.479
415.89	0.911
416.10	0.739
416.32	0.393
416.53	0.471
416.75	0.454
416.96	0.546
417.18	0.471
417.39	0.447
417.60	0.443
417.82	0.667
418.03	0.570
418.25	0.473
418.46	0.486
418.67	0.446
418.89	0.478
419.10	0.490
419.32	0.676
419.53	0.599
419.75	0.513
419.96	0.454
420.17	0.552
420.39	0.512
420.60	0.519
420.82	0.639
421.03	0.503
421.24	0.420
421.46	0.474
421.67	0.512
421.89	0.448
422.10	0.480
422.31	0.471
422.53	0.675
422.74	0.511
422.96	0.415
423.17	0.472
423.38	0.587
423.60	0.491
423.81	0.612
424.03	0.524
424.24	0.578
424.45	0.583
424.67	0.575
424.88	0.508
425.09	0.550
425.31	0.510
425.52	0.540
425.74	0.611
425.95	0.664
426.16	0.508
426.38	0.588
426.59	0.543
426.80	0.625
427.02	0.673
427.23	0.523
427.45	0.683
427.66	0.657
427.87	0.504
428.09	0.536
428.30	0.610
428.51	0.600
428.73	0.671
428.94	0.593
429.15	0.580
429.37	0.548
429.58	0.577
429.79	0.539
430.01	0.647
430.22	0.648
430.44	0.662
430.65	0.582
430.86	0.617
431.08	0.598
431.29	0.541
431.50	0.636
431.72	0.868
431.93	0.705
432.14	0.523
432.36	0.575
432.57	0.588
432.78	0.613
433.00	0.564
433.21	0.554
433.42	0.687
433.64	0.595
433.85	0.675
434.06	0.547
434.28	0.574
434.49	0.589
434.70	0.609
434.92	0.616
435.13	0.653
435.34	0.663
435.56	0.633
435.77	0.639
435.98	0.827
436.20	0.683
436.41	0.584
436.62	0.570
436.83	0.657
437.05	0.738
437.26	0.646
437.47	0.582
437.69	0.639
437.90	0.582
438.11	0.565
438.33	0.627
438.54	0.647
438.75	0.830
438.97	0.826
439.18	0.604
439.39	0.635
439.60	0.685
439.82	0.638
440.03	0.588
440.24	0.881
440.46	0.652
440.67	0.630
440.88	0.673
441.10	0.630
441.31	0.625
441.52	0.675
441.73	0.755
441.95	0.664
442.16	0.604
442.37	0.948
442.58	0.594
442.80	0.580
443.01	0.744
443.22	0.690
443.44	0.588
443.65	0.694
443.86	0.695
444.07	0.751
444.29	0.654
444.50	0.848
444.71	0.630
444.92	0.587
445.14	0.754
445.35	0.800
445.56	0.618
445.78	0.727
445.99	0.719
446.20	0.624
446.41	0.707
446.63	0.702
446.84	0.671
447.05	0.687
447.26	0.825
447.48	0.697
447.69	0.669
447.90	0.770
448.11	0.683
448.33	0.711
448.54	0.730
448.75	0.754
448.96	0.768
449.18	0.803
449.39	0.707
449.60	0.697
449.81	0.847
450.03	0.714
450.24	0.779
450.45	0.730
450.66	0.714
450.87	0.746
451.09	0.703
451.30	0.681
451.51	0.759
451.72	0.769
451.94	0.789
452.15	0.862
452.36	0.721
452.57	0.732
452.78	0.735
453.00	0.768
453.21	0.720
453.42	0.691
453.63	0.793
453.85	0.754
454.06	0.743
454.27	0.871
454.48	0.772
454.69	0.695
454.91	0.776
455.12	0.675
455.33	0.760
455.54	0.778
455.75	0.748
455.97	0.776
456.18	0.768
456.39	0.782
456.60	0.808
456.81	0.742
457.03	0.754
457.24	0.752
457.45	0.842
457.66	0.783
457.87	0.738
458.09	0.758
458.30	0.670
458.51	0.793
458.72	0.808
458.93	0.825
459.15	0.727
459.36	0.794
459.57	0.820
459.78	0.867
459.99	0.775
460.20	0.739
460.42	0.821
460.63	0.771
460.84	0.754
461.05	0.784
461.26	0.841
461.47	0.756
461.69	0.812
461.90	0.842
462.11	0.799
462.32	0.864
462.53	0.798
462.74	0.901
462.96	0.782
463.17	0.776
463.38	0.815
463.59	0.938
463.80	0.772
464.01	0.790
464.23	0.880
464.44	0.845
464.65	0.846
464.86	0.867
465.07	0.877
465.28	0.830
465.49	0.847
465.71	0.801
465.92	0.838
466.13	0.894
466.34	0.828
466.55	0.886
466.76	0.839
466.97	0.868
467.19	0.859
467.40	0.895
467.61	0.904
467.82	0.821
468.03	0.800
468.24	0.874
468.45	0.902
468.66	0.882
468.88	0.894
469.09	0.894
469.30	0.941
469.51	0.866
469.72	0.911
469.93	0.877
470.14	0.857
470.35	0.958
470.57	0.900
470.78	0.836
470.99	0.974
471.20	0.906
471.41	0.863
471.62	0.913
471.83	0.880
472.04	0.913
472.25	0.959
472.47	0.868
472.68	0.874
472.89	0.883
473.10	0.924
473.31	0.876
473.52	0.942
473.73	0.965
473.94	0.885
474.15	0.910
474.36	0.905
474.57	0.931
474.79	0.906
475.00	0.908
475.21	0.890
475.42	0.988
475.63	0.886
475.84	0.920
476.05	0.932
476.26	0.903
476.47	0.938
476.68	0.991
476.89	0.911
477.10	0.961
477.32	0.945
477.53	1.001
477.74	0.918
477.95	0.957
478.16	0.904
478.37	0.946
478.58	0.950
478.79	0.962
479.00	0.963
479.21	0.923
479.42	0.966
479.63	0.977
479.84	0.937
480.05	0.937
480.26	0.968
480.47	0.983
480.69	0.982
480.90	0.944
481.11	0.946
481.32	1.010
481.53	0.947
481.74	1.000
481.95	0.958
482.16	0.978
482.37	0.984
482.58	0.953
482.79	0.971
483.00	1.003
483.21	0.944
483.42	0.912
483.63	0.989
483.84	1.018
484.05	1.006
484.26	0.975
484.47	0.971
484.68	0.930
484.89	0.937
485.10	0.984
485.31	0.963
485.52	0.971
485.73	0.973
485.94	1.015
486.15	0.961
486.37	0.979
486.58	0.945
486.79	0.959
487.00	1.015
487.21	1.005
487.42	1.004
487.63	1.009
487.84	1.025
488.05	1.020
488.26	0.979
488.47	0.984
488.68	1.013
488.89	0.989
489.10	0.982
489.31	0.991
489.52	1.024
489.73	0.988
489.94	1.024
490.15	0.983
490.36	1.025
490.57	0.975
490.78	0.960
490.99	1.001
491.20	1.084
491.41	1.037
491.62	0.974
491.83	1.004
492.04	1.000
492.25	1.009
492.45	1.009
492.66	1.035
492.87	1.024
493.08	1.012
493.29	0.992
493.50	0.982
493.71	0.993
493.92	0.993
494.13	1.007
494.34	1.027
494.55	1.036
494.76	1.068
494.97	1.058
495.18	1.021
495.39	1.036
495.60	0.986
495.81	0.987
496.02	1.006
496.23	1.000
496.44	1.033
496.65	1.024
496.86	1.027
497.07	1.052
497.28	1.049
497.49	0.998
497.70	0.999
497.91	1.024
498.12	1.005
498.32	1.048
498.53	1.031
498.74	1.022
498.95	1.048
499.16	1.001
499.37	1.006
499.58	1.015
499.79	1.046
500.00	1.042
500.21	1.069
500.42	1.011
500.63	1.015
500.84	1.035
501.05	1.012
501.26	1.040
501.46	1.083
501.67	1.043
501.88	1.043
502.09	1.019
502.30	1.026
502.51	1.077
502.72	1.031
502.93	1.047
503.14	1.069
503.35	1.040
503.56	1.036
503.77	1.068
503.97	1.044
504.18	1.043
504.39	1.080
504.60	1.046
504.81	1.073
505.02	1.062
505.23	1.061
505.44	1.043
505.65	1.050
505.86	1.031
506.07	1.098
506.27	1.052
506.48	1.057
506.69	1.039
506.90	1.061
507.11	1.060
507.32	1.035
507.53	1.045
507.74	1.037
507.95	1.049
508.15	1.055
508.36	1.062
508.57	1.076
508.78	1.059
508.99	1.060
509.20	1.037
509.41	1.061
509.62	1.047
509.82	1.044
510.03	1.057
510.24	1.057
510.45	1.080
510.66	1.068
510.87	1.063
511.08	1.021
511.29	1.062
511.49	1.038
511.70	1.087
511.91	1.019
512.12	1.017
512.33	1.051
512.54	1.064
512.75	1.048
512.95	1.076
513.16	1.065
513.37	1.041
513.58	1.081
513.79	1.042
514.00	1.050
514.20	1.067
514.41	1.056
514.62	1.021
514.83	1.066
515.04	1.055
515.25	1.033
515.46	1.046
515.66	1.050
515.87	1.063
516.08	1.032
516.29	1.057
516.50	1.037
516.71	1.027
516.91	1.037
517.12	1.056
517.33	1.039
517.54	1.029
517.75	1.032
517.95	1.044
518.16	1.055
518.37	1.020
518.58	1.024
518.79	0.999
519.00	1.035
519.20	1.043
519.41	1.016
519.62	1.038
519.83	1.046
520.04	1.010
520.24	1.008
520.45	1.018
520.66	1.041
520.87	1.003
521.08	1.001
521.28	1.003
521.49	1.024
521.70	0.992
521.91	1.009
522.12	0.990
522.32	1.011
522.53	0.992
522.74	0.981
522.95	0.993
523.16	0.994
523.36	1.004
523.57	0.986
523.78	0.977
523.99	0.984
524.20	0.973
524.40	0.986
524.61	0.993
524.82	0.966
525.03	0.971
525.23	0.971
525.44	0.957
525.65	0.955
525.86	0.977
526.06	0.948
526.27	0.947
526.48	0.958
526.69	0.939
526.90	0.942
527.10	0.978
527.31	0.932
527.52	0.926
527.73	0.918
527.93	0.928
528.14	0.935
528.35	0.924
528.56	0.926
528.76	0.917
528.97	0.906
529.18	0.899
529.39	0.899
529.59	0.902
529.80	0.932
530.01	0.904
530.22	0.903
530.42	0.872
530.63	0.891
530.84	0.866
531.05	0.882
531.25	0.884
531.46	0.876
531.67	0.855
531.88	0.875
532.08	0.868
532.29	0.864
532.50	0.856
532.70	0.849
532.91	0.838
533.12	0.841
533.33	0.865
533.53	0.834
533.74	0.833
533.95	0.839
534.15	0.827
534.36	0.828
534.57	0.811
534.78	0.812
534.98	0.822
535.19	0.794
535.40	0.795
535.60	0.814
535.81	0.794
536.02	0.797
536.23	0.789
536.43	0.790
536.64	0.777
536.85	0.784
537.05	0.794
537.26	0.772
537.47	0.774
537.67	0.764
537.88	0.758
538.09	0.766
538.30	0.756
538.50	0.747
538.71	0.759
538.92	0.745
539.12	0.740
539.33	0.735
539.54	0.734
539.74	0.739
539.95	0.730
540.16	0.728
540.36	0.719
540.57	0.718
540.78	0.711
540.98	0.710
541.19	0.709
541.40	0.697
541.60	0.707
541.81	0.702
542.02	0.701
542.22	0.690
542.43	0.685
542.64	0.680
542.84	0.679
543.05	0.670
543.26	0.670
543.46	0.672
543.67	0.670
543.88	0.665
544.08	0.655
544.29	0.650
544.50	0.650
544.70	0.650
544.91	0.641
545.12	0.642
545.32	0.637
545.53	0.641
545.74	0.629
545.94	0.626
546.15	0.624
546.35	0.621
546.56	0.618
546.77	0.615
546.97	0.613
547.18	0.605
547.39	0.605
547.59	0.603
547.80	0.599
548.01	0.603
548.21	0.599
548.42	0.590
548.62	0.589
548.83	0.586
549.04	0.583
549.24	0.576
549.45	0.575
549.65	0.572
549.86	0.568
550.07	0.566
550.27	0.564
550.48	0.571
550.69	0.556
550.89	0.556
551.10	0.553
551.30	0.550
551.51	0.549
551.72	0.539
551.92	0.540
552.13	0.539
552.33	0.541
552.54	0.535
552.75	0.529
552.95	0.531
553.16	0.526
553.36	0.522
553.57	0.521
553.78	0.519
553.98	0.519
554.19	0.510
554.39	0.507
554.60	0.509
554.80	0.509
555.01	0.501
555.22	0.503
555.42	0.499
555.63	0.494
555.83	0.498
556.04	0.492
556.25	0.494
556.45	0.485
556.66	0.484
556.86	0.487
557.07	0.484
557.27	0.483
557.48	0.477
557.68	0.474
557.89	0.474
558.10	0.471
558.30	0.468
558.51	0.466
558.71	0.463
558.92	0.458
559.12	0.460
559.33	0.463
559.54	0.458
559.74	0.453
559.95	0.452
560.15	0.452
560.36	0.448
560.56	0.443
560.77	0.443
560.97	0.444
561.18	0.439
561.38	0.438
561.59	0.441
561.79	0.437
562.00	0.435
562.21	0.431
562.41	0.429
562.62	0.429
562.82	0.426
563.03	0.422
563.23	0.421
563.44	0.421
563.64	0.417
563.85	0.418
564.05	0.411
564.26	0.411
564.46	0.410
564.67	0.410
564.87	0.406
565.08	0.403
565.28	0.403
565.49	0.403
565.69	0.401
565.90	0.397
566.10	0.400
566.31	0.392
566.51	0.394
566.72	0.395
566.92	0.389
567.13	0.389
567.33	0.388
567.54	0.387
567.74	0.386
567.95	0.381
568.15	0.382
568.36	0.381
568.56	0.381
568.77	0.376
568.97	0.375
569.18	0.374
569.38	0.372
569.59	0.373
569.79	0.370
570.00	0.368
570.20	0.366
570.41	0.364
570.61	0.362
570.82	0.363
571.02	0.360
571.23	0.361
571.43	0.357
571.64	0.356
571.84	0.355
572.05	0.353
572.25	0.353
572.45	0.351
572.66	0.349
572.86	0.348
573.07	0.346
573.27	0.347
573.48	0.345
573.68	0.341
573.89	0.341
574.09	0.341
574.30	0.340
574.50	0.338
574.70	0.339
574.91	0.336
575.11	0.336
575.32	0.335
575.52	0.331
575.73	0.331
575.93	0.330
576.14	0.329
576.34	0.327
576.54	0.326
576.75	0.324
576.95	0.323
577.16	0.321
577.36	0.320
577.57	0.320
577.77	0.318
577.97	0.315
578.18	0.317
578.38	0.313
578.59	0.312
578.79	0.310
579.00	0.310
579.20	0.309
579.40	0.308
579.61	0.307
579.81	0.306
580.02	0.303
580.22	0.303
580.42	0.302
580.63	0.302
580.83	0.300
581.04	0.298
581.24	0.298
581.45	0.296
581.65	0.296
581.85	0.296
582.06	0.293
582.26	0.294
582.47	0.292
582.67	0.291
582.87	0.290
583.08	0.288
583.28	0.288
583.48	0.286
583.69	0.284
583.89	0.284
584.10	0.284
584.30	0.282
584.50	0.280
584.71	0.279
584.91	0.279
585.12	0.277
585.32	0.278
585.52	0.275
585.73	0.274
585.93	0.273
586.13	0.272
586.34	0.271
586.54	0.270
586.75	0.269
586.95	0.268
587.15	0.268
587.36	0.266
587.56	0.266
587.76	0.265
587.97	0.264
588.17	0.262
588.37	0.263
588.58	0.262
588.78	0.260
588.98	0.261
589.19	0.259
589.39	0.258
589.60	0.260
589.80	0.257
590.00	0.256
590.21	0.256
590.41	0.255
590.61	0.254
590.82	0.254
591.02	0.253
591.22	0.252
591.43	0.253
591.63	0.251
591.83	0.250
592.04	0.248
592.24	0.249
592.44	0.247
592.65	0.245
592.85	0.246
593.05	0.245
593.26	0.243
593.46	0.242
593.66	0.241
593.86	0.241
594.07	0.239
594.27	0.240
594.47	0.238
594.68	0.238
594.88	0.238
595.08	0.237
595.29	0.238
595.49	0.236
595.69	0.235
595.90	0.234
596.10	0.235
596.30	0.234
596.50	0.233
596.71	0.232
596.91	0.231
597.11	0.231
597.32	0.230
597.52	0.230
597.72	0.229
597.93	0.229
598.13	0.227
598.33	0.227
598.53	0.226
598.74	0.225
598.94	0.224
599.14	0.224
599.35	0.224
599.55	0.223
599.75	0.222
599.95	0.221
600.16	0.221
600.36	0.219
600.56	0.219
600.76	0.218
600.97	0.216
601.17	0.216
601.37	0.216
601.58	0.215
601.78	0.215
601.98	0.214
602.18	0.213
602.39	0.214
602.59	0.214
602.79	0.212
602.99	0.212
603.20	0.211
603.40	0.211
603.60	0.211
603.80	0.211
604.01	0.210
604.21	0.210
604.41	0.209
604.61	0.208
604.82	0.208
605.02	0.208
605.22	0.208
605.42	0.208
605.62	0.208
605.83	0.206
606.03	0.206
606.23	0.206
606.43	0.205
606.64	0.205
606.84	0.204
607.04	0.204
607.24	0.203
607.45	0.203
607.65	0.202
607.85	0.203
608.05	0.201
608.25	0.201
608.46	0.200
608.66	0.200
608.86	0.200
609.06	0.198
609.26	0.198
609.47	0.198
609.67	0.197
609.87	0.198
610.07	0.197
610.28	0.195
610.48	0.195
610.68	0.196
610.88	0.194
611.08	0.195
611.29	0.194
611.49	0.193
611.69	0.193
611.89	0.191
612.09	0.190
612.29	0.190
612.50	0.190
612.70	0.190
612.90	0.188
613.10	0.188
613.30	0.187
613.51	0.187
613.71	0.186
613.91	0.191
614.11	0.186
614.31	0.186
614.51	0.186
614.72	0.185
614.92	0.185
615.12	0.186
615.32	0.186
615.52	0.186
615.72	0.186
615.93	0.186
616.13	0.185
616.33	0.185
616.53	0.185
616.73	0.185
616.93	0.183
617.14	0.183
617.34	0.182
617.54	0.182
617.74	0.182
617.94	0.181
618.14	0.181
618.34	0.180
618.55	0.180
618.75	0.180
618.95	0.180
619.15	0.180
619.35	0.179
619.55	0.179
619.75	0.179
619.96	0.178
620.16	0.178
620.36	0.178
620.56	0.177
620.76	0.177
620.96	0.176
621.16	0.176
621.36	0.175
621.57	0.176
621.77	0.176
621.97	0.175
622.17	0.175
622.37	0.175
622.57	0.176
622.77	0.175
622.97	0.174
623.18	0.174
623.38	0.175
623.58	0.174
623.78	0.174
623.98	0.173
624.18	0.172
624.38	0.172
624.58	0.172
624.78	0.172
624.98	0.172
625.19	0.171
625.39	0.171
625.59	0.170
625.79	0.170
625.99	0.170
626.19	0.170
626.39	0.169
626.59	0.169
626.79	0.169
626.99	0.169
627.19	0.168
627.40	0.169
627.60	0.168
627.80	0.168
628.00	0.168
628.20	0.167
628.40	0.167
628.60	0.167
628.80	0.166
629.00	0.166
629.20	0.166
629.40	0.166
629.60	0.165
629.80	0.165
630.00	0.165
630.20	0.165
630.41	0.164
630.61	0.164
630.81	0.164
631.01	0.164
631.21	0.163
631.41	0.163
631.61	0.164
631.81	0.163
632.01	0.163
632.21	0.163
632.41	0.162
632.61	0.162
632.81	0.163
633.01	0.163
633.21	0.162
633.41	0.162
633.61	0.161
633.81	0.160
634.01	0.160
634.21	0.160
634.41	0.159
634.61	0.159
634.81	0.158
635.01	0.158
635.22	0.158
635.42	0.158
635.62	0.158
635.82	0.158
636.02	0.158
636.22	0.157
636.42	0.157
636.62	0.157
636.82	0.157
637.02	0.157
637.22	0.157
637.42	0.157
637.62	0.155
637.82	0.156
638.02	0.155
638.22	0.155
638.42	0.154
638.62	0.154
638.82	0.154
639.02	0.153
639.22	0.153
639.42	0.153
639.62	0.153
639.82	0.153
640.02	0.153
640.22	0.153
640.42	0.153
640.62	0.153
640.82	0.153
641.02	0.152
641.22	0.153
641.42	0.152
641.61	0.152
641.81	0.151
642.01	0.151
642.21	0.151
642.41	0.151
642.61	0.150
642.81	0.150
643.01	0.150
643.21	0.149
643.41	0.149
643.61	0.149
643.81	0.149
644.01	0.148
644.21	0.148
644.41	0.148
644.61	0.148
644.81	0.148
645.01	0.147
645.21	0.147
645.41	0.147
645.61	0.147
645.81	0.146
646.01	0.146
646.21	0.147
646.40	0.146
646.60	0.146
646.80	0.146
647.00	0.146
647.20	0.145
647.40	0.145
647.60	0.145
647.80	0.145
648.00	0.145
648.20	0.145
648.40	0.145
648.60	0.144
648.80	0.144
649.00	0.143
649.20	0.144
649.39	0.143
649.59	0.142
649.79	0.142
649.99	0.142
650.19	0.141
650.39	0.141
650.59	0.141
650.79	0.140
650.99	0.140
651.19	0.139
651.39	0.140
651.58	0.139
651.78	0.139
651.98	0.139
652.18	0.139
652.38	0.139
652.58	0.139
652.78	0.139
652.98	0.139
653.18	0.140
653.38	0.140
653.57	0.139
653.77	0.139
653.97	0.138
654.17	0.138
654.37	0.138
654.57	0.138
654.77	0.138
654.97	0.137
655.16	0.137
655.36	0.137
655.56	0.136
655.76	0.136
655.96	0.136
656.16	0.136
656.36	0.136
656.56	0.135
656.75	0.135
656.95	0.135
657.15	0.135
657.35	0.135
657.55	0.134
657.75	0.134
657.95	0.134
658.14	0.133
658.34	0.133
658.54	0.133
658.74	0.133
658.94	0.132
659.14	0.132
659.34	0.132
659.53	0.131
659.73	0.131
659.93	0.131
660.13	0.131
660.33	0.131
660.53	0.131
660.72	0.131
660.92	0.131
661.12	0.131
661.32	0.131
661.52	0.130
661.72	0.130
661.91	0.130
662.11	0.130
662.31	0.130
662.51	0.130
662.71	0.129
662.90	0.128
663.10	0.128
663.30	0.128
663.50	0.128
663.70	0.128
663.90	0.128
664.09	0.128
664.29	0.127
664.49	0.126
664.69	0.127
664.89	0.126
665.08	0.126
665.28	0.126
665.48	0.126
665.68	0.125
665.88	0.124
666.07	0.124
666.27	0.124
666.47	0.124
666.67	0.124
666.87	0.124
667.06	0.123
667.26	0.123
667.46	0.123
667.66	0.123
667.85	0.123
668.05	0.123
668.25	0.123
668.45	0.123
668.65	0.123
668.84	0.123
669.04	0.123
669.24	0.122
669.44	0.122
669.63	0.122
669.83	0.122
670.03	0.121
670.23	0.121
670.42	0.120
670.62	0.120
670.82	0.119
671.02	0.119
671.22	0.119
671.41	0.118
671.61	0.119
671.81	0.119
672.01	0.119
672.20	0.119
672.40	0.118
672.60	0.118
672.80	0.118
672.99	0.118
673.19	0.117
673.39	0.117
673.58	0.117
673.78	0.116
673.98	0.116
674.18	0.116
674.37	0.115
674.57	0.115
674.77	0.116
674.97	0.116
675.16	0.116
675.36	0.115
675.56	0.114
675.75	0.114
675.95	0.114
676.15	0.115
676.35	0.114
676.54	0.114
676.74	0.113
676.94	0.113
677.13	0.113
677.33	0.112
677.53	0.113
677.73	0.113
677.92	0.112
678.12	0.112
678.32	0.111
678.51	0.111
678.71	0.112
678.91	0.112
679.11	0.111
679.30	0.111
679.50	0.111
679.70	0.111
679.89	0.111
680.09	0.111
680.29	0.110
680.48	0.111
680.68	0.110
680.88	0.110
681.07	0.109
681.27	0.109
681.47	0.109
681.66	0.108
681.86	0.108
682.06	0.108
682.25	0.107
682.45	0.107
682.65	0.107
682.84	0.107
683.04	0.107
683.24	0.106
683.43	0.106
683.63	0.106
683.83	0.106
684.02	0.106
684.22	0.106
684.42	0.106
684.61	0.106
684.81	0.106
685.01	0.106
685.20	0.105
685.40	0.106
685.60	0.106
685.79	0.106
685.99	0.106
686.19	0.105
686.38	0.105
686.58	0.105
686.77	0.105
686.97	0.105
687.17	0.105
687.36	0.105
687.56	0.104
687.76	0.104
687.95	0.104
688.15	0.104
688.34	0.104
688.54	0.103
688.74	0.103
688.93	0.103
689.13	0.103
689.33	0.103
689.52	0.102
689.72	0.102
689.91	0.102
690.11	0.102
690.31	0.101
690.50	0.101
690.70	0.101
690.89	0.101
691.09	0.101
691.29	0.101
691.48	0.100
691.68	0.100
691.87	0.100
692.07	0.100
692.27	0.100
692.46	0.100
692.66	0.100
692.85	0.099
693.05	0.099
693.25	0.099
693.44	0.099
693.64	0.099
693.83	0.099
694.03	0.098
694.22	0.098
694.42	0.098
694.62	0.098
694.81	0.098
695.01	0.099
695.20	0.098
695.40	0.098
695.59	0.097
695.79	0.097
695.99	0.097
696.18	0.097
696.38	0.097
696.57	0.097
696.77	0.096
696.96	0.097
697.16	0.096
697.36	0.096
697.55	0.096
697.75	0.095
697.94	0.095
698.14	0.096
698.33	0.095
698.53	0.095
698.72	0.095
698.92	0.095
699.11	0.095
699.31	0.095
699.51	0.095
699.70	0.094
699.90	0.095
700.09	0.095
700.29	0.094
700.48	0.094
700.68	0.093
700.87	0.093
701.07	0.093
701.26	0.092
701.46	0.092
701.65	0.092
701.85	0.092
702.04	0.092
702.24	0.092
702.43	0.092
702.63	0.092
702.82	0.092
703.02	0.092
703.21	0.092
703.41	0.092
703.60	0.092
703.80	0.092
703.99	0.092
704.19	0.092
704.38	0.092
704.58	0.091
704.77	0.091
704.97	0.091
705.16	0.091
705.36	0.091
705.55	0.091
705.75	0.090
705.94	0.090
706.14	0.090
706.33	0.090
706.53	0.090
706.72	0.090
706.92	0.090
707.11	0.090
707.31	0.090
707.50	0.089
707.70	0.090
707.89	0.090
708.09	0.089
708.28	0.089
708.48	0.089
708.67	0.089
708.86	0.089
709.06	0.089
709.25	0.089
709.45	0.089
709.64	0.089
709.84	0.089
710.03	0.089
710.23	0.089
710.42	0.088
710.62	0.088
710.81	0.088
711.00	0.088
711.20	0.088
711.39	0.087
711.59	0.087
711.78	0.087
711.98	0.087
712.17	0.087
712.37	0.087
712.56	0.087
712.75	0.087
712.95	0.087
713.14	0.087
713.34	0.087
713.53	0.087
713.73	0.088
713.92	0.088
714.11	0.088
714.31	0.088
714.50	0.088
714.70	0.088
714.89	0.088
715.08	0.088
715.28	0.088
715.47	0.087
715.67	0.087
715.86	0.087
716.06	0.087
716.25	0.087
716.44	0.086
716.64	0.086
716.83	0.086
717.03	0.086
717.22	0.085
717.41	0.086
717.61	0.086
717.80	0.086
717.99	0.086
718.19	0.086
718.38	0.086
718.58	0.086
718.77	0.086
718.96	0.086
719.16	0.086
719.35	0.086
719.55	0.086
719.74	0.085
719.93	0.085
720.13	0.085
720.32	0.085
720.51	0.085
720.71	0.085
720.90	0.085
721.10	0.084
721.29	0.084
721.48	0.084
721.68	0.084
721.87	0.084
722.06	0.084
722.26	0.084
722.45	0.084
722.64	0.084
722.84	0.084
723.03	0.084
723.22	0.085
723.42	0.085
723.61	0.085
723.80	0.085
724.00	0.085
724.19	0.085
724.38	0.085
724.58	0.084
724.77	0.085
724.96	0.084
725.16	0.084
725.35	0.084
725.54	0.084
725.74	0.084
725.93	0.084
726.12	0.084
726.32	0.085
726.51	0.085
726.70	0.085
726.90	0.085
727.09	0.085
727.28	0.085
727.48	0.085
727.67	0.085
727.86	0.085
728.06	0.085
728.25	0.085
728.44	0.085
728.64	0.084
728.83	0.084
729.02	0.084
729.21	0.084
729.41	0.084
729.60	0.084
729.79	0.084
729.99	0.084
730.18	0.084
730.37	0.084
730.56	0.084
730.76	0.084
730.95	0.084
731.14	0.084
731.34	0.084
731.53	0.084
731.72	0.084
731.91	0.084
732.11	0.084
732.30	0.084
732.49	0.084
732.69	0.084
732.88	0.084
733.07	0.084
733.26	0.085
733.46	0.084
733.65	0.084
733.84	0.084
734.03	0.085
734.23	0.085
734.42	0.085
734.61	0.084
734.80	0.084
735.00	0.084
735.19	0.084
735.38	0.084
735.57	0.084
735.77	0.084
735.96	0.084
736.15	0.084
736.34	0.084
736.54	0.084
736.73	0.084
736.92	0.084
737.11	0.084
737.31	0.084
737.50	0.085
737.69	0.085
737.88	0.084
738.07	0.085
738.27	0.084
738.46	0.084
738.65	0.084
738.84	0.085
739.04	0.085
739.23	0.085
739.42	0.085
739.61	0.085
739.80	0.085
740.00	0.085
740.19	0.085
740.38	0.085
740.57	0.084
740.76	0.084
740.96	0.084
741.15	0.083
741.34	0.083
741.53	0.083
741.72	0.083
741.92	0.082
742.11	0.083
742.30	0.083
742.49	0.083
742.68	0.083
742.88	0.084
743.07	0.083
743.26	0.084
743.45	0.084
743.64	0.083
743.84	0.083
744.03	0.083
744.22	0.083
744.41	0.083
744.60	0.083
744.79	0.083
744.99	0.082
745.18	0.083
745.37	0.082
745.56	0.082
745.75	0.083
745.94	0.082
746.14	0.083
746.33	0.083
746.52	0.083
746.71	0.083
746.90	0.082
747.09	0.082
747.28	0.082
747.48	0.082
747.67	0.082
747.86	0.081
748.05	0.082
748.24	0.081
748.43	0.081
748.62	0.081
748.82	0.081
749.01	0.081
749.20	0.081
749.39	0.081
749.58	0.081
749.77	0.081
749.96	0.081
750.16	0.081
750.35	0.081
750.54	0.081
750.73	0.081
750.92	0.081
751.11	0.081
751.30	0.081
751.49	0.081
751.68	0.081
751.88	0.081
752.07	0.080
752.26	0.081
752.45	0.081
752.64	0.080
752.83	0.080
753.02	0.080
753.21	0.080
753.40	0.080
753.60	0.080
753.79	0.080
753.98	0.080
754.17	0.079
754.36	0.079
754.55	0.079
754.74	0.079
754.93	0.079
755.12	0.079
755.31	0.079
755.50	0.079
755.70	0.079
755.89	0.079
756.08	0.079
756.27	0.079
756.46	0.079
756.65	0.079
756.84	0.079
757.03	0.079
757.22	0.079
757.41	0.079
757.60	0.079
757.79	0.079
757.98	0.078
758.17	0.078
758.36	0.078
758.56	0.078
758.75	0.078
758.94	0.078
759.13	0.078
759.32	0.078
759.51	0.078
759.70	0.078
759.89	0.078
760.08	0.078
760.27	0.078
760.46	0.078
760.65	0.078
760.84	0.078
761.03	0.078
761.22	0.078
761.41	0.078
761.60	0.078
761.79	0.077
761.98	0.078
762.17	0.077
762.36	0.077
762.55	0.077
762.74	0.077
762.93	0.077
763.12	0.077
763.31	0.076
763.50	0.076
763.69	0.076
763.88	0.076
764.07	0.076
764.26	0.076
764.45	0.076
764.64	0.076
764.83	0.076
765.02	0.076
765.21	0.076
765.40	0.077
765.59	0.077
765.78	0.077
765.97	0.078
766.16	0.077
766.35	0.077
766.54	0.077
766.73	0.077
766.92	0.077
767.11	0.077
767.30	0.077
767.49	0.077
767.68	0.076
767.87	0.076
768.06	0.076
768.25	0.076
768.44	0.076
768.63	0.076
768.82	0.076
769.01	0.076
769.20	0.075
769.39	0.076
769.58	0.076
769.77	0.076
769.96	0.076
770.15	0.076
770.34	0.076
770.53	0.076
770.72	0.076
770.91	0.076
771.10	0.076
771.29	0.076
771.47	0.075
771.66	0.075
771.85	0.075
772.04	0.075
772.23	0.075
772.42	0.075
772.61	0.075
772.80	0.075
772.99	0.075
773.18	0.075
773.37	0.075
773.56	0.075
773.75	0.075
773.94	0.075
774.13	0.075
774.31	0.074
774.50	0.075
774.69	0.075
774.88	0.075
775.07	0.075
775.26	0.075
775.45	0.074
775.64	0.074
775.83	0.074
776.02	0.074
776.21	0.074
776.40	0.075
776.58	0.074
776.77	0.074
776.96	0.074
777.15	0.074
777.34	0.074
777.53	0.074
777.72	0.074
777.91	0.074
778.10	0.074
778.28	0.074
778.47	0.074
778.66	0.074
778.85	0.073
779.04	0.073
779.23	0.073
779.42	0.073
779.61	0.073
779.79	0.073
779.98	0.072
780.17	0.073
780.36	0.073
780.55	0.072
780.74	0.072
780.93	0.072
781.12	0.072
781.30	0.072
781.49	0.072
781.68	0.072
781.87	0.072
782.06	0.072
782.25	0.072
782.44	0.072
782.62	0.072
782.81	0.072
783.00	0.072
783.19	0.072
783.38	0.072
783.57	0.072
783.75	0.072
783.94	0.072
784.13	0.072
784.32	0.072
784.51	0.072
784.70	0.072
784.88	0.072
785.07	0.072
785.26	0.072
785.45	0.072
785.64	0.071
785.83	0.072
786.01	0.071
786.20	0.072
786.39	0.072
786.58	0.071
786.77	0.071
786.95	0.071
787.14	0.071
787.33	0.072
787.52	0.072
787.71	0.072
787.90	0.071
788.08	0.071
788.27	0.071
788.46	0.071
788.65	0.071
788.84	0.071
789.02	0.071
789.21	0.071
789.40	0.071
789.59	0.071
789.77	0.071
789.96	0.071
790.15	0.071
790.34	0.071
790.53	0.071
790.71	0.071
790.90	0.071
791.09	0.071
791.28	0.071
791.46	0.071
791.65	0.071
791.84	0.071
792.03	0.071
792.22	0.071
792.40	0.071
792.59	0.071
792.78	0.071
792.97	0.071
793.15	0.071
793.34	0.071
793.53	0.071
793.72	0.070
793.90	0.070
794.09	0.070
794.28	0.070
794.47	0.070
794.65	0.070
794.84	0.070
795.03	0.070
795.22	0.070
795.40	0.070
795.59	0.070
795.78	0.069
795.97	0.070
796.15	0.070
796.34	0.070
796.53	0.070
796.71	0.071
796.90	0.071
797.09	0.071
797.28	0.071
797.46	0.071
797.65	0.071
797.84	0.071
798.02	0.070
798.21	0.070
798.40	0.070
798.59	0.070
798.77	0.069
798.96	0.069
799.15	0.068
799.33	0.068
799.52	0.068
799.71	0.068
799.90	0.068
800.08	0.068
800.27	0.068
800.46	0.068
800.64	0.068
800.83	0.068
801.02	0.068
801.20	0.068
801.39	0.068
801.58	0.068
801.76	0.068
801.95	0.068
802.14	0.068
802.32	0.068
802.51	0.068
802.70	0.068
802.88	0.068
803.07	0.068
803.26	0.068
803.44	0.068
803.63	0.069
803.82	0.068
804.00	0.068
804.19	0.069
804.38	0.069
804.56	0.069
804.75	0.068
804.94	0.068
805.12	0.069
805.31	0.069
805.50	0.069
805.68	0.068
805.87	0.069
806.06	0.069
806.24	0.068
806.43	0.068
806.62	0.069
806.80	0.069
806.99	0.069
807.17	0.069
807.36	0.069
807.55	0.069
807.73	0.069
807.92	0.069
808.11	0.069
808.29	0.069
808.48	0.068
808.66	0.068
808.85	0.068
809.04	0.068
809.22	0.068
809.41	0.068
809.59	0.067
809.78	0.067
809.97	0.067
810.15	0.067
810.34	0.067
810.53	0.067
810.71	0.067
810.90	0.067
811.08	0.067
811.27	0.067
811.45	0.067
811.64	0.067
811.83	0.067
812.01	0.067
812.20	0.067
812.38	0.067
812.57	0.067
812.76	0.068
812.94	0.067
813.13	0.067
813.31	0.068
813.50	0.068
813.68	0.068
813.87	0.067
814.06	0.068
814.24	0.067
814.43	0.067
814.61	0.068
814.80	0.068
814.98	0.068
815.17	0.068
815.36	0.068
815.54	0.068
815.73	0.068
815.91	0.068
816.10	0.068
816.28	0.068
816.47	0.068
816.65	0.068
816.84	0.068
817.03	0.068
817.21	0.068
817.40	0.068
817.58	0.067
817.77	0.068
817.95	0.068
818.14	0.068
818.32	0.068
818.51	0.068
818.69	0.068
818.88	0.068
819.06	0.068
819.25	0.068
819.43	0.067
819.62	0.067
819.80	0.067
819.99	0.067
820.18	0.068
820.36	0.067
820.55	0.067
820.73	0.067
820.92	0.068
821.10	0.068
821.29	0.068
821.47	0.068
821.66	0.068
821.84	0.068
822.03	0.068
822.21	0.068
822.40	0.068
822.58	0.068
822.77	0.068
822.95	0.068
823.14	0.068
823.32	0.068
823.50	0.068
823.69	0.068
823.87	0.068
824.06	0.068
824.24	0.068
824.43	0.068
824.61	0.068
824.80	0.068
824.98	0.069
825.17	0.069
825.35	0.069
825.54	0.069
825.72	0.069
825.91	0.069
826.09	0.069
826.28	0.069
826.46	0.070
826.64	0.070
826.83	0.070
827.01	0.070
827.20	0.070
827.38	0.070
827.57	0.071
827.75	0.070
827.94	0.071
828.12	0.071
828.31	0.071
828.49	0.071
828.67	0.071
828.86	0.071
829.04	0.071
829.23	0.071
829.41	0.071
829.60	0.071
829.78	0.071
829.96	0.072
830.15	0.072
830.33	0.072
830.52	0.072
830.70	0.072
830.88	0.072
831.07	0.072
831.25	0.072
831.44	0.072
831.62	0.072
831.81	0.072
831.99	0.072
832.17	0.072
832.36	0.072
832.54	0.073
832.73	0.073
832.91	0.073
833.09	0.073
833.28	0.073
833.46	0.073
833.65	0.073
833.83	0.073
834.01	0.074
834.20	0.074
834.38	0.074
834.56	0.074
834.75	0.074
834.93	0.074
835.12	0.074
835.30	0.074
835.48	0.074
835.67	0.074
835.85	0.074
836.03	0.074
836.22	0.074
836.40	0.074
836.59	0.074
836.77	0.074
836.95	0.074
837.14	0.074
837.32	0.074
837.50	0.074
837.69	0.074
837.87	0.074
838.05	0.074
838.24	0.074
838.42	0.074
838.60	0.074
838.79	0.075
838.97	0.074
839.15	0.075
839.34	0.075
839.52	0.075
839.70	0.075
839.89	0.075
840.07	0.075
840.25	0.075
840.44	0.076
840.62	0.076
840.80	0.075
840.99	0.075
841.17	0.075
841.35	0.075
841.54	0.075
841.72	0.075
841.90	0.075
842.09	0.075
842.27	0.075
842.45	0.075
842.64	0.075
842.82	0.075
843.00	0.075
843.19	0.075
843.37	0.074
843.55	0.075
843.73	0.074
843.92	0.074
844.10	0.074
844.28	0.074
844.47	0.075
844.65	0.074
844.83	0.075
845.01	0.075
845.20	0.076
845.38	0.076
845.56	0.076
845.75	0.076
845.93	0.076
846.11	0.075
846.29	0.076
846.48	0.076
846.66	0.076
846.84	0.076
847.02	0.075
847.21	0.076
847.39	0.076
847.57	0.076
847.76	0.076
847.94	0.076
848.12	0.076
848.30	0.076
848.49	0.076
848.67	0.076
848.85	0.076
849.03	0.076
849.22	0.076
849.40	0.076
849.58	0.076
849.76	0.076
849.95	0.077
850.13	0.077
850.31	0.077
850.49	0.077
850.67	0.077
850.86	0.077
851.04	0.076
851.22	0.076
851.40	0.076
851.59	0.076
851.77	0.076
851.95	0.076
852.13	0.076
852.31	0.076
852.50	0.076
852.68	0.076
852.86	0.076
853.04	0.076
853.23	0.076
853.41	0.076
853.59	0.076
853.77	0.076
853.95	0.076
854.14	0.076
854.32	0.076
854.50	0.076
854.68	0.076
854.86	0.076
855.04	0.076
855.23	0.076
855.41	0.076
855.59	0.077
855.77	0.076
855.95	0.077
856.14	0.077
856.32	0.077
856.50	0.077
856.68	0.077
856.86	0.077
857.04	0.077
857.23	0.076
857.41	0.076
857.59	0.076
857.77	0.076
857.95	0.076
858.13	0.076
858.32	0.076
858.50	0.077
858.68	0.076
858.86	0.076
859.04	0.077
859.22	0.077
859.41	0.076
859.59	0.076
859.77	0.076
859.95	0.076
860.13	0.077
860.31	0.076
860.49	0.077
860.68	0.077
860.86	0.077
861.04	0.077
861.22	0.077
861.40	0.077
861.58	0.077
861.76	0.077
861.94	0.077
862.13	0.077
862.31	0.077
862.49	0.077
862.67	0.077
862.85	0.078
863.03	0.078
863.21	0.078
863.39	0.078
863.57	0.078
863.76	0.078
863.94	0.078
864.12	0.078
864.30	0.078
864.48	0.078
864.66	0.078
864.84	0.078
865.02	0.078
865.20	0.078
865.38	0.078
865.57	0.078
865.75	0.079
865.93	0.079
866.11	0.079
866.29	0.079
866.47	0.079
866.65	0.079
866.83	0.079
867.01	0.079
867.19	0.078
867.37	0.078
867.55	0.079
867.73	0.078
867.92	0.078
868.10	0.078
868.28	0.078
868.46	0.078
868.64	0.078
868.82	0.078
869.00	0.079
869.18	0.079
869.36	0.079
869.54	0.079
869.72	0.079
869.90	0.079
870.08	0.079
870.26	0.079
870.44	0.079
870.62	0.079
870.80	0.079
870.98	0.079
871.16	0.078
871.34	0.078
871.53	0.078
871.71	0.078
871.89	0.078
872.07	0.078
872.25	0.078
872.43	0.078
872.61	0.078
872.79	0.079
872.97	0.079
873.15	0.079
873.33	0.080
873.51	0.079
873.69	0.080
873.87	0.080
874.05	0.080
874.23	0.079
874.41	0.079
874.59	0.080
874.77	0.079
874.95	0.079
875.13	0.079
875.31	0.080
875.49	0.080
875.67	0.080
875.85	0.080
876.03	0.080
876.21	0.081
876.39	0.081
876.57	0.081
876.75	0.081
876.93	0.081
877.11	0.081
877.29	0.080
877.47	0.080
877.65	0.081
877.82	0.081
878.00	0.080
878.18	0.081
878.36	0.081
878.54	0.081
878.72	0.080
878.90	0.080
879.08	0.081
879.26	0.081
879.44	0.081
879.62	0.081
879.80	0.081
879.98	0.081
880.16	0.081
880.34	0.080
880.52	0.081
880.70	0.081
880.88	0.081
881.06	0.081
881.24	0.081
881.42	0.081
881.59	0.081
881.77	0.081
881.95	0.081
882.13	0.081
882.31	0.081
882.49	0.081
882.67	0.082
882.85	0.081
883.03	0.081
883.21	0.081
883.39	0.081
883.57	0.081
883.75	0.081
883.92	0.081
884.10	0.081
884.28	0.081
884.46	0.081
884.64	0.081
884.82	0.081
885.00	0.081
885.18	0.082
885.36	0.082
885.54	0.082
885.71	0.082
885.89	0.082
886.07	0.082
886.25	0.082
886.43	0.082
886.61	0.082
886.79	0.082
886.97	0.082
887.15	0.082
887.32	0.082
887.50	0.082
887.68	0.082
887.86	0.082
888.04	0.082
888.22	0.082
888.40	0.082
888.57	0.082
888.75	0.083
888.93	0.083
889.11	0.083
889.29	0.084
889.47	0.084
889.65	0.084
889.82	0.084
890.00	0.084
890.18	0.084
890.36	0.084
890.54	0.084
890.72	0.084
890.90	0.084
891.07	0.084
891.25	0.084
891.43	0.083
891.61	0.083
891.79	0.083
891.97	0.083
892.14	0.083
892.32	0.083
892.50	0.083
892.68	0.084
892.86	0.083
893.03	0.083
893.21	0.084
893.39	0.084
893.57	0.084
893.75	0.084
893.93	0.084
894.10	0.084
894.28	0.084
894.46	0.085
894.64	0.085
894.82	0.085
894.99	0.085
895.17	0.085
895.35	0.085
895.53	0.085
895.71	0.084
895.88	0.084
896.06	0.084
896.24	0.084
896.42	0.084
896.59	0.084
896.77	0.084
896.95	0.084
897.13	0.084
897.31	0.084
897.48	0.084
897.66	0.084
897.84	0.084
898.02	0.084
898.19	0.085
898.37	0.085
898.55	0.085
898.73	0.085
898.91	0.085
899.08	0.085
899.26	0.085
899.44	0.085
899.62	0.085
899.79	0.086
899.97	0.086
900.15	0.085
900.33	0.085
900.50	0.085
900.68	0.085
900.86	0.085
901.04	0.086
901.21	0.086
901.39	0.086
901.57	0.086
901.74	0.086
901.92	0.086
902.10	0.086
902.28	0.086
902.45	0.087
902.63	0.086
902.81	0.086
902.99	0.087
903.16	0.087
903.34	0.087
903.52	0.087
903.69	0.087
903.87	0.087
904.05	0.087
904.22	0.088
904.40	0.087
904.58	0.087
904.76	0.088
904.93	0.088
905.11	0.088
905.29	0.088
905.46	0.087
905.64	0.087
905.82	0.087
905.99	0.087
906.17	0.087
906.35	0.087
906.53	0.087
906.70	0.087
906.88	0.087
907.06	0.087
907.23	0.087
907.41	0.088
907.59	0.088
907.76	0.088
907.94	0.088
908.12	0.088
908.29	0.088
908.47	0.089
908.65	0.089
908.82	0.089
909.00	0.089
909.18	0.089
909.35	0.089
909.53	0.089
909.71	0.089
909.88	0.089
910.06	0.089
910.23	0.089
910.41	0.090
910.59	0.089
910.76	0.089
910.94	0.089
911.12	0.089
911.29	0.090
911.47	0.090
911.65	0.090
911.82	0.090
912.00	0.090
912.17	0.090
912.35	0.091
912.53	0.091
912.70	0.091
912.88	0.091
913.06	0.092
913.23	0.091
913.41	0.092
913.58	0.091
913.76	0.092
913.94	0.092
914.11	0.092
914.29	0.092
914.46	0.092
914.64	0.092
914.82	0.092
914.99	0.092
915.17	0.092
915.34	0.092
915.52	0.092
915.70	0.092
915.87	0.092
916.05	0.092
916.22	0.092
916.40	0.092
916.57	0.093
916.75	0.093
916.93	0.093
917.10	0.093
917.28	0.093
917.45	0.093
917.63	0.093
917.80	0.093
917.98	0.093
918.16	0.093
918.33	0.093
918.51	0.094
918.68	0.094
918.86	0.094
919.03	0.094
919.21	0.094
919.39	0.095
919.56	0.095
919.74	0.096
919.91	0.096
920.09	0.096
920.26	0.096
920.44	0.096
920.61	0.096
920.79	0.097
920.96	0.097
921.14	0.097
921.31	0.097
921.49	0.097
921.67	0.097
921.84	0.098
922.02	0.098
922.19	0.099
922.37	0.099
922.54	0.099
922.72	0.099
922.89	0.099
923.07	0.099
923.24	0.100
923.42	0.100
923.59	0.100
923.77	0.101
923.94	0.101
924.12	0.101
924.29	0.102
924.47	0.102
924.64	0.102
924.82	0.102
924.99	0.103
925.17	0.103
925.34	0.103
925.52	0.103
925.69	0.104
925.87	0.104
926.04	0.104
926.22	0.105
926.39	0.105
926.57	0.105
926.74	0.105
926.91	0.106
927.09	0.106
927.26	0.106
927.44	0.107
927.61	0.107
927.79	0.107
927.96	0.108
928.14	0.108
928.31	0.109
928.49	0.109
928.66	0.110
928.84	0.110
929.01	0.111
929.18	0.111
929.36	0.111
929.53	0.112
929.71	0.112
929.88	0.113
930.06	0.113
930.23	0.114
930.41	0.113
930.58	0.114
930.75	0.114
930.93	0.114
931.10	0.115
931.28	0.115
931.45	0.115
931.63	0.116
931.80	0.116
931.97	0.116
932.15	0.117
932.32	0.117
932.50	0.117
932.67	0.118
932.84	0.119
933.02	0.120
933.19	0.120
933.37	0.121
933.54	0.121
933.71	0.122
933.89	0.123
934.06	0.123
934.24	0.123
934.41	0.124
934.58	0.124
934.76	0.124
934.93	0.125
935.11	0.125
935.28	0.125
935.45	0.126
935.63	0.126
935.80	0.126
935.98	0.127
936.15	0.127
936.32	0.128
936.50	0.128
936.67	0.128
936.84	0.129
937.02	0.130
937.19	0.131
937.36	0.131
937.54	0.132
937.71	0.133
937.89	0.133
938.06	0.134
938.23	0.134
938.41	0.135
938.58	0.135
938.75	0.135
938.93	0.137
939.10	0.137
939.27	0.137
939.45	0.138
939.62	0.138
939.79	0.139
939.97	0.139
940.14	0.140
940.31	0.141
940.49	0.141
940.66	0.142
940.83	0.142
941.01	0.143
941.18	0.144
941.35	0.144
941.53	0.145
941.70	0.146
941.87	0.146
942.05	0.146
942.22	0.147
942.39	0.148
942.57	0.148
942.74	0.149
942.91	0.149
943.08	0.150
943.26	0.150
943.43	0.151
943.60	0.152
943.78	0.152
943.95	0.153
944.12	0.153
944.29	0.154
944.47	0.155
944.64	0.156
944.81	0.157
944.99	0.157
945.16	0.158
945.33	0.158
945.50	0.159
945.68	0.160
945.85	0.161
946.02	0.162
946.20	0.163
946.37	0.164
946.54	0.164
946.71	0.166
946.89	0.166
947.06	0.167
947.23	0.168
947.40	0.169
947.58	0.169
947.75	0.171
947.92	0.171
948.09	0.172
948.27	0.173
948.44	0.175
948.61	0.176
948.78	0.176
948.96	0.178
949.13	0.179
949.30	0.180
949.47	0.181
949.65	0.182
949.82	0.184
949.99	0.184
950.16	0.186
950.33	0.186
950.51	0.188
950.68	0.189
950.85	0.190
951.02	0.192
951.20	0.192
951.37	0.193
951.54	0.194
951.71	0.195
951.88	0.196
952.06	0.198
952.23	0.198
952.40	0.199
952.57	0.201
952.74	0.202
952.92	0.203
953.09	0.205
953.26	0.206
953.43	0.207
953.60	0.209
953.77	0.210
953.95	0.210
954.12	0.213
954.29	0.213
954.46	0.216
954.63	0.217
954.81	0.217
954.98	0.218
955.15	0.220
955.32	0.221
955.49	0.221
955.66	0.223
955.84	0.225
956.01	0.225
956.18	0.227
956.35	0.228
956.52	0.228
956.69	0.230
956.87	0.230
957.04	0.232
957.21	0.234
957.38	0.233
957.55	0.235
957.72	0.236
957.89	0.237
958.07	0.237
958.24	0.239
958.41	0.241
958.58	0.240
958.75	0.241
958.92	0.242
959.09	0.243
959.26	0.244
959.44	0.244
959.61	0.245
959.78	0.246
959.95	0.248
960.12	0.248
960.29	0.250
960.46	0.249
960.63	0.250
960.81	0.250
960.98	0.251
961.15	0.251
961.32	0.252
961.49	0.251
961.66	0.252
961.83	0.252
962.00	0.252
962.17	0.253
962.34	0.253
962.52	0.254
962.69	0.255
962.86	0.255
963.03	0.256
963.20	0.256
963.37	0.256
963.54	0.257
963.71	0.256
963.88	0.256
964.05	0.257
964.22	0.258
964.39	0.257
964.56	0.257
964.74	0.258
964.91	0.258
965.08	0.259
965.25	0.259
965.42	0.259
965.59	0.260
965.76	0.260
965.93	0.261
966.10	0.259
966.27	0.260
966.44	0.259
966.61	0.260
966.78	0.260
966.95	0.259
967.12	0.261
967.29	0.262
967.46	0.262
967.63	0.261
967.80	0.262
967.97	0.262
968.14	0.261
968.32	0.262
968.49	0.263
968.66	0.262
968.83	0.263
969.00	0.263
969.17	0.263
969.34	0.264
969.51	0.264
969.68	0.263
969.85	0.264
970.02	0.264
970.19	0.264
970.36	0.264
970.53	0.264
970.70	0.262
970.87	0.263
971.04	0.262
971.21	0.263
971.38	0.262
971.55	0.262
971.72	0.262
971.89	0.263
972.06	0.262
972.23	0.262
972.40	0.262
972.57	0.261
972.74	0.262
972.91	0.263
973.07	0.263
973.24	0.264
973.41	0.264
973.58	0.262
973.75	0.275
973.92	0.263
974.09	0.263
974.26	0.263
974.43	0.262
974.60	0.263
974.77	0.264
974.94	0.262
975.11	0.263
975.28	0.264
975.45	0.263
975.62	0.263
975.79	0.265
975.96	0.263
976.13	0.262
976.30	0.264
976.47	0.263
976.64	0.263
976.80	0.263
976.97	0.263
977.14	0.262
977.31	0.262
977.48	0.263
977.65	0.262
977.82	0.261
977.99	0.263
978.16	0.262
978.33	0.262
978.50	0.261
978.67	0.261
978.83	0.261
979.00	0.261
979.17	0.261
979.34	0.261
979.51	0.260
979.68	0.261
979.85	0.261
980.02	0.261
980.19	0.259
980.36	0.260
980.52	0.261
980.69	0.260
980.86	0.259
981.03	0.259
981.20	0.257
981.37	0.258
981.54	0.258
981.71	0.257
981.88	0.257
982.04	0.257
982.21	0.256
982.38	0.258
982.55	0.257
982.72	0.256
982.89	0.257
983.06	0.256
983.22	0.256
983.39	0.256
983.56	0.256
983.73	0.255
983.90	0.255
984.07	0.256
984.24	0.255
984.40	0.255
984.57	0.253
984.74	0.255
984.91	0.256
985.08	0.254
985.25	0.252
985.41	0.252
985.58	0.252
985.75	0.253
985.92	0.252
986.09	0.251
986.26	0.251
986.42	0.250
986.59	0.249
986.76	0.250
986.93	0.251
987.10	0.251
987.27	0.249
987.43	0.248
987.60	0.250
987.77	0.249
987.94	0.248
988.11	0.249
988.27	0.249
988.44	0.248
988.61	0.247
988.78	0.245
988.95	0.246
989.11	0.247
989.28	0.245
989.45	0.245
989.62	0.244
989.79	0.245
989.95	0.244
990.12	0.245
990.29	0.245
990.46	0.243
990.62	0.242
990.79	0.242
990.96	0.242
991.13	0.242
991.30	0.241
991.46	0.240
991.63	0.239
991.80	0.238
991.97	0.238
992.13	0.239
992.30	0.239
992.47	0.238
992.64	0.237
992.80	0.238
992.97	0.237
993.14	0.235
993.31	0.233
993.47	0.235
993.64	0.233
993.81	0.233
993.98	0.233
994.14	0.232
994.31	0.232
994.48	0.233
994.64	0.233
994.81	0.232
994.98	0.233
995.15	0.231
995.31	0.230
995.48	0.230
995.65	0.232
995.82	0.229
995.98	0.229
996.15	0.230
996.32	0.231
996.48	0.228
996.65	0.228
996.82	0.226
996.99	0.226
997.15	0.226
997.32	0.227
997.49	0.225
997.65	0.226
997.82	0.225
997.99	0.223
998.15	0.224
998.32	0.225
998.49	0.224
998.65	0.224
998.82	0.223
998.99	0.222
999.15	0.223
999.32	0.222
999.49	0.221
999.65	0.221
999.82	0.219
999.99	0.220
1000.15	0.220
1000.32	0.219
1000.49	0.219
1000.65	0.218
1000.82	0.217
1000.99	0.216
1001.15	0.215
1001.32	0.215
1001.49	0.215
1001.65	0.215
1001.82	0.217
1001.99	0.214
1002.15	0.213
1002.32	0.213
1002.49	0.214
1002.65	0.213
1002.82	0.212
1002.99	0.212
1003.15	0.214
1003.32	0.213
1003.48	0.213
1003.65	0.213
1003.82	0.211
1003.98	0.209
1004.15	0.208
1004.32	0.209
1004.48	0.209
1004.65	0.210
1004.81	0.207
1004.98	0.206
1005.15	0.207
1005.31	0.206
1005.48	0.204
1005.64	0.204
1005.81	0.207
1005.98	0.204
1006.14	0.204
1006.31	0.204
1006.47	0.203
1006.64	0.202
1006.81	0.202
1006.97	0.202
1007.14	0.202
1007.30	0.202
1007.47	0.202
1007.63	0.200
1007.80	0.199
1007.97	0.198
1008.13	0.199
1008.30	0.199
1008.46	0.199
1008.63	0.198
1008.79	0.198
1008.96	0.198
1009.13	0.199
1009.29	0.197
1009.46	0.196
1009.62	0.196
1009.79	0.194
1009.95	0.194
1010.12	0.195
1010.28	0.195
1010.45	0.194
1010.62	0.194
1010.78	0.193
1010.95	0.191
1011.11	0.192
1011.28	0.192
1011.44	0.194
1011.61	0.193
1011.77	0.191
1011.94	0.191
1012.10	0.191
1012.27	0.191
1012.43	0.191
1012.60	0.189
1012.76	0.189
1012.93	0.189
1013.10	0.186
1013.26	0.184
1013.43	0.185
1013.59	0.192
1013.76	0.184
1013.92	0.183
1014.09	0.181
1014.25	0.182
1014.42	0.183
1014.58	0.183
1014.75	0.185
1014.91	0.183
1015.08	0.185
1015.24	0.182
1015.41	0.184
1015.57	0.184
1015.73	0.182
1015.90	0.181
1016.06	0.182
1016.23	0.179
1016.39	0.179
1016.56	0.180
1016.72	0.179
1016.89	0.179
1017.05	0.180
1017.22	0.177
1017.38	0.178
1017.55	0.176
1017.71	0.177
1017.88	0.176
1018.04	0.178
1018.21	0.174
1018.37	0.174
1018.53	0.175
1018.70	0.173
1018.86	0.173
1019.03	0.175
1019.19	0.173
1019.36	0.172
1019.52	0.174
1019.69	0.175
1019.85	0.174
1020.01	0.175
1020.18	0.174
1020.34	0.173
1020.51	0.172
1020.67	0.173
1020.84	0.171
1021.00	0.172
1021.16	0.169
1021.33	0.170
1021.49	0.169
1021.66	0.169
1021.82	0.167
1021.98	0.166
1022.15	0.166
1022.31	0.166
1022.48	0.164
1022.64	0.166
1022.80	0.165
1022.97	0.163
1023.13	0.163
1023.30	0.164
1023.46	0.165
1023.62	0.162
1023.79	0.163
1023.95	0.163
1024.12	0.163
1024.28	0.162
1024.44	0.161
1024.61	0.159
1024.77	0.160
1024.93	0.159
1025.10	0.161
1025.26	0.158
1025.43	0.159
1025.59	0.156
1025.75	0.160
1025.92	0.158
1026.08	0.158
1026.24	0.159
1026.41	0.160
1026.57	0.158
1026.73	0.156
1026.90	0.158
1027.06	0.156
1027.23	0.158
1027.39	0.157
1027.55	0.159
1027.72	0.157
1027.88	0.156
1028.04	0.157
1028.21	0.157
1028.37	0.151
1028.53	0.155
1028.70	0.153
1028.86	0.151
1029.02	0.151
1029.19	0.151
1029.35	0.148
1029.51	0.148
1029.67	0.147
1029.84	0.148
1030.00	0.144
1030.16	0.145
1030.33	0.148
1030.49	0.145
1030.65	0.143
1030.82	0.159
1030.98	0.146
1031.14	0.147
1031.31	0.147
1031.47	0.145
1031.63	0.147
1031.79	0.146
1031.96	0.147
1032.12	0.149
1032.28	0.146
1032.45	0.150
1032.61	0.148
1032.77	0.147
1032.93	0.145
1033.10	0.146
1033.26	0.148
1033.42	0.146
1033.58	0.147
1033.75	0.148
1033.91	0.146
1034.07	0.150
1034.24	0.147
1034.40	0.146
1034.56	0.145
1034.72	0.145
1034.89	0.146
1035.05	0.143
1035.21	0.143
1035.37	0.142
1035.54	0.145
1035.70	0.142
1035.86	0.141
1036.02	0.142
1036.19	0.141
1036.35	0.139
1036.51	0.143
1036.67	0.140
1036.83	0.140
1037.00	0.138
1037.16	0.138
1037.32	0.137
1037.48	0.137
1037.65	0.142
1037.81	0.137
1037.97	0.137
1038.13	0.137
1038.29	0.134
1038.46	0.131
1038.62	0.135
1038.78	0.134
1038.94	0.131
1039.10	0.135
1039.27	0.130
1039.43	0.132
1039.59	0.131
1039.75	0.131
1039.91	0.129
1040.08	0.131
1040.24	0.134
1040.40	0.135
1040.56	0.134
1040.72	0.129
1040.89	0.131
1041.05	0.135
1041.21	0.133
1041.37	0.131
1041.53	0.137
1041.69	0.135
1041.86	0.133
1042.02	0.131
1042.18	0.132
1042.34	0.133
1042.50	0.137
1042.66	0.134
1042.83	0.132
1042.99	0.134
1043.15	0.130
1043.31	0.130
1043.47	0.134
1043.63	0.131
1043.79	0.130
1043.96	0.130
1044.12	0.136
1044.28	0.132
1044.44	0.133
1044.60	0.127
1044.76	0.127
1044.92	0.129
1045.09	0.130
1045.25	0.127
1045.41	0.128
1045.57	0.124
1045.73	0.125
1045.89	0.125
1046.05	0.128
1046.21	0.128
1046.38	0.137
1046.54	0.139
1046.70	0.132
1046.86	0.142
>>>>>End Processed Spectral Data<<<<<
