SpectraSuite Data File
++++++++++++++++++++++++++++++++++++
Date: Mon May 20 12:13:31 CDT 2013
User: Students
Dark Spectrum Present: Yes
Reference Spectrum Present: Yes
Number of Sampled Component Spectra: 1
Spectrometers: USB4H00887
Integration Time (usec): 60000 (USB4H00887)
Spectra Averaged: 5 (USB4H00887)
Boxcar Smoothing: 5 (USB4H00887)
Correct for Electrical Dark: No (USB4H00887)
Strobe/Lamp Enabled: No (USB4H00887)
Correct for Detector Non-linearity: No (USB4H00887)
Correct for Stray Light: No (USB4H00887)
Number of Pixels in Processed Spectrum: 3648
>>>>>Begin Processed Spectral Data<<<<<
345.83	0.384
346.05	0.384
346.26	0.384
346.48	-0.000
346.70	0.095
346.92	0.028
347.14	0.060
347.35	0.082
347.57	0.998
347.79	-0.367
348.01	-0.241
348.23	-0.340
348.44	-0.000
348.66	0.237
348.88	-0.383
349.10	-0.124
349.32	0.073
349.53	-0.016
349.75	-0.002
349.97	0.001
350.19	0.048
350.41	0.038
350.62	0.042
350.84	-0.022
351.06	-0.035
351.28	-0.073
351.50	-0.268
351.71	-0.224
351.93	-0.162
352.15	-0.048
352.37	-0.174
352.58	-0.049
352.80	-0.019
353.02	-0.020
353.24	-0.006
353.46	-0.044
353.67	0.027
353.89	0.008
354.11	0.021
354.33	0.024
354.54	0.037
354.76	0.093
354.98	0.163
355.20	0.093
355.41	0.073
355.63	0.183
355.85	0.084
356.07	1.262
356.28	0.074
356.50	0.125
356.72	0.057
356.94	0.195
357.15	0.250
357.37	-0.000
357.59	0.116
357.81	0.045
358.02	0.091
358.24	0.073
358.46	0.150
358.68	0.136
358.89	0.096
359.11	-0.000
359.33	0.061
359.55	-0.435
359.76	0.083
359.98	0.096
360.20	0.113
360.42	0.085
360.63	0.086
360.85	0.078
361.07	0.433
361.29	0.067
361.50	0.291
361.72	0.099
361.94	0.426
362.15	0.179
362.37	0.100
362.59	0.100
362.81	0.172
363.02	0.319
363.24	0.436
363.46	0.249
363.68	0.302
363.89	0.184
364.11	0.279
364.33	0.346
364.54	0.200
364.76	0.271
364.98	0.302
365.20	0.326
365.41	0.181
365.63	0.205
365.85	0.127
366.06	0.440
366.28	0.405
366.50	0.242
366.71	0.090
366.93	0.103
367.15	0.093
367.37	0.078
367.58	0.115
367.80	0.129
368.02	0.333
368.23	0.141
368.45	0.136
368.67	0.116
368.88	0.122
369.10	-0.000
369.32	0.185
369.53	0.110
369.75	0.195
369.97	0.491
370.19	0.238
370.40	0.092
370.62	0.246
370.84	0.077
371.05	0.376
371.27	0.114
371.49	0.136
371.70	0.146
371.92	0.216
372.14	0.086
372.35	0.098
372.57	0.130
372.79	0.366
373.00	0.093
373.22	0.168
373.44	0.178
373.65	0.120
373.87	0.167
374.09	0.702
374.30	0.135
374.52	0.164
374.74	0.140
374.95	0.718
375.17	0.148
375.39	-0.000
375.60	0.177
375.82	0.335
376.04	0.162
376.25	0.161
376.47	0.105
376.68	0.275
376.90	0.140
377.12	0.306
377.33	0.159
377.55	0.381
377.77	0.177
377.98	0.258
378.20	0.135
378.42	0.158
378.63	0.229
378.85	-0.000
379.07	0.128
379.28	0.484
379.50	0.286
379.71	0.157
379.93	0.122
380.15	0.159
380.36	0.250
380.58	0.172
380.80	0.387
381.01	0.136
381.23	0.112
381.44	0.130
381.66	0.146
381.88	0.158
382.09	-0.076
382.31	0.111
382.53	0.118
382.74	0.612
382.96	0.195
383.17	0.178
383.39	0.216
383.61	0.287
383.82	0.189
384.04	0.222
384.25	0.271
384.47	0.244
384.69	0.220
384.90	0.222
385.12	0.448
385.33	0.258
385.55	0.201
385.77	0.315
385.98	0.181
386.20	0.252
386.41	0.227
386.63	0.271
386.85	0.235
387.06	0.322
387.28	0.517
387.49	0.317
387.71	0.230
387.93	0.201
388.14	0.683
388.36	0.234
388.57	0.214
388.79	0.232
389.01	-0.000
389.22	0.281
389.44	0.223
389.65	0.173
389.87	0.177
390.08	0.213
390.30	0.156
390.52	0.301
390.73	0.311
390.95	0.225
391.16	0.231
391.38	-0.000
391.59	0.262
391.81	0.238
392.03	0.229
392.24	0.271
392.46	0.226
392.67	0.215
392.89	0.297
393.10	0.444
393.32	0.287
393.53	0.323
393.75	0.218
393.97	0.249
394.18	0.331
394.40	0.282
394.61	0.285
394.83	0.237
395.04	0.276
395.26	0.186
395.47	0.297
395.69	0.274
395.91	0.283
396.12	0.315
396.34	0.314
396.55	0.206
396.77	0.313
396.98	1.509
397.20	0.399
397.41	0.447
397.63	0.322
397.84	0.274
398.06	0.238
398.27	0.245
398.49	0.310
398.71	0.236
398.92	0.283
399.14	0.355
399.35	0.462
399.57	0.430
399.78	0.290
400.00	0.281
400.21	0.350
400.43	0.289
400.64	0.302
400.86	0.678
401.07	0.355
401.29	0.308
401.50	0.346
401.72	0.479
401.93	0.311
402.15	0.380
402.36	0.339
402.58	0.281
402.79	0.304
403.01	0.518
403.22	0.392
403.44	0.255
403.65	0.416
403.87	0.448
404.08	0.362
404.30	0.604
404.51	0.331
404.73	0.406
404.94	0.345
405.16	0.365
405.37	0.292
405.59	0.531
405.80	0.339
406.02	0.401
406.23	0.409
406.45	0.468
406.66	0.490
406.88	0.309
407.09	0.475
407.31	0.386
407.52	0.470
407.74	0.375
407.95	0.461
408.17	0.423
408.38	0.459
408.60	0.294
408.81	0.487
409.03	0.359
409.24	0.363
409.45	0.429
409.67	0.408
409.88	0.371
410.10	0.471
410.31	0.380
410.53	0.362
410.74	0.494
410.96	0.481
411.17	0.508
411.39	0.395
411.60	0.378
411.82	0.426
412.03	0.417
412.24	0.391
412.46	0.577
412.67	0.485
412.89	0.482
413.10	0.487
413.32	0.445
413.53	0.506
413.75	0.519
413.96	0.387
414.17	0.536
414.39	0.549
414.60	0.448
414.82	0.593
415.03	0.449
415.25	0.502
415.46	0.352
415.68	0.509
415.89	1.059
416.10	0.853
416.32	0.431
416.53	0.509
416.75	0.472
416.96	0.583
417.18	0.493
417.39	0.467
417.60	0.468
417.82	0.682
418.03	0.592
418.25	0.497
418.46	0.493
418.67	0.444
418.89	0.478
419.10	0.505
419.32	0.700
419.53	0.632
419.75	0.532
419.96	0.464
420.17	0.592
420.39	0.538
420.60	0.552
420.82	0.701
421.03	0.550
421.24	0.451
421.46	0.495
421.67	0.529
421.89	0.457
422.10	0.495
422.31	0.491
422.53	0.703
422.74	0.512
422.96	0.410
423.17	0.460
423.38	0.567
423.60	0.473
423.81	0.600
424.03	0.520
424.24	0.580
424.45	0.562
424.67	0.555
424.88	0.491
425.09	0.543
425.31	0.497
425.52	0.525
425.74	0.599
425.95	0.663
426.16	0.503
426.38	0.575
426.59	0.533
426.80	0.617
427.02	0.646
427.23	0.495
427.45	0.641
427.66	0.638
427.87	0.492
428.09	0.521
428.30	0.581
428.51	0.563
428.73	0.623
428.94	0.550
429.15	0.536
429.37	0.515
429.58	0.547
429.79	0.511
430.01	0.610
430.22	0.611
430.44	0.631
430.65	0.570
430.86	0.625
431.08	0.609
431.29	0.551
431.50	0.668
431.72	0.924
431.93	0.723
432.14	0.529
432.36	0.583
432.57	0.591
432.78	0.606
433.00	0.552
433.21	0.540
433.42	0.682
433.64	0.594
433.85	0.678
434.06	0.545
434.28	0.587
434.49	0.607
434.70	0.621
434.92	0.632
435.13	0.677
435.34	0.690
435.56	0.651
435.77	0.644
435.98	0.844
436.20	0.699
436.41	0.590
436.62	0.572
436.83	0.654
437.05	0.732
437.26	0.644
437.47	0.579
437.69	0.634
437.90	0.580
438.11	0.564
438.33	0.614
438.54	0.629
438.75	0.818
438.97	0.804
439.18	0.597
439.39	0.628
439.60	0.685
439.82	0.630
440.03	0.585
440.24	0.861
440.46	0.649
440.67	0.627
440.88	0.681
441.10	0.632
441.31	0.627
441.52	0.687
441.73	0.771
441.95	0.668
442.16	0.620
442.37	0.979
442.58	0.600
442.80	0.584
443.01	0.762
443.22	0.689
443.44	0.584
443.65	0.685
443.86	0.680
444.07	0.732
444.29	0.636
444.50	0.809
444.71	0.617
444.92	0.583
445.14	0.741
445.35	0.784
445.56	0.614
445.78	0.733
445.99	0.733
446.20	0.630
446.41	0.711
446.63	0.709
446.84	0.673
447.05	0.674
447.26	0.811
447.48	0.689
447.69	0.656
447.90	0.750
448.11	0.663
448.33	0.695
448.54	0.708
448.75	0.738
448.96	0.748
449.18	0.787
449.39	0.703
449.60	0.684
449.81	0.825
450.03	0.702
450.24	0.758
450.45	0.711
450.66	0.690
450.87	0.726
451.09	0.677
451.30	0.659
451.51	0.729
451.72	0.732
451.94	0.744
452.15	0.808
452.36	0.684
452.57	0.701
452.78	0.704
453.00	0.739
453.21	0.694
453.42	0.675
453.63	0.775
453.85	0.736
454.06	0.730
454.27	0.864
454.48	0.770
454.69	0.694
454.91	0.768
455.12	0.667
455.33	0.747
455.54	0.764
455.75	0.733
455.97	0.754
456.18	0.744
456.39	0.757
456.60	0.785
456.81	0.723
457.03	0.734
457.24	0.734
457.45	0.818
457.66	0.771
457.87	0.725
458.09	0.746
458.30	0.663
458.51	0.794
458.72	0.818
458.93	0.828
459.15	0.728
459.36	0.793
459.57	0.810
459.78	0.866
459.99	0.769
460.20	0.735
460.42	0.815
460.63	0.770
460.84	0.754
461.05	0.772
461.26	0.837
461.47	0.747
461.69	0.798
461.90	0.844
462.11	0.797
462.32	0.854
462.53	0.788
462.74	0.884
462.96	0.763
463.17	0.751
463.38	0.792
463.59	0.893
463.80	0.746
464.01	0.770
464.23	0.853
464.44	0.812
464.65	0.814
464.86	0.838
465.07	0.851
465.28	0.817
465.49	0.841
465.71	0.797
465.92	0.841
466.13	0.897
466.34	0.830
466.55	0.881
466.76	0.844
466.97	0.874
467.19	0.860
467.40	0.895
467.61	0.891
467.82	0.805
468.03	0.784
468.24	0.851
468.45	0.877
468.66	0.855
468.88	0.867
469.09	0.870
469.30	0.916
469.51	0.840
469.72	0.883
469.93	0.854
470.14	0.836
470.35	0.935
470.57	0.881
470.78	0.822
470.99	0.960
471.20	0.892
471.41	0.847
471.62	0.898
471.83	0.873
472.04	0.904
472.25	0.950
472.47	0.862
472.68	0.867
472.89	0.875
473.10	0.920
473.31	0.866
473.52	0.930
473.73	0.951
473.94	0.869
474.15	0.891
474.36	0.888
474.57	0.918
474.79	0.894
475.00	0.892
475.21	0.877
475.42	0.967
475.63	0.870
475.84	0.900
476.05	0.907
476.26	0.877
476.47	0.909
476.68	0.955
476.89	0.882
477.10	0.927
477.32	0.914
477.53	0.970
477.74	0.894
477.95	0.936
478.16	0.882
478.37	0.922
478.58	0.928
478.79	0.944
479.00	0.944
479.21	0.901
479.42	0.940
479.63	0.947
479.84	0.908
480.05	0.905
480.26	0.932
480.47	0.955
480.69	0.963
480.90	0.927
481.11	0.924
481.32	0.985
481.53	0.928
481.74	0.984
481.95	0.945
482.16	0.966
482.37	0.974
482.58	0.941
482.79	0.956
483.00	0.979
483.21	0.927
483.42	0.902
483.63	0.977
483.84	1.001
484.05	0.990
484.26	0.961
484.47	0.957
484.68	0.921
484.89	0.929
485.10	0.978
485.31	0.961
485.52	0.965
485.73	0.965
485.94	1.005
486.15	0.956
486.37	0.969
486.58	0.933
486.79	0.944
487.00	0.993
487.21	0.984
487.42	0.979
487.63	0.981
487.84	0.997
488.05	0.993
488.26	0.953
488.47	0.957
488.68	0.986
488.89	0.966
489.10	0.964
489.31	0.972
489.52	1.005
489.73	0.973
489.94	1.014
490.15	0.975
490.36	1.014
490.57	0.965
490.78	0.950
490.99	0.988
491.20	1.063
491.41	1.016
491.62	0.959
491.83	0.987
492.04	0.981
492.25	0.984
492.45	0.984
492.66	1.010
492.87	1.000
493.08	0.988
493.29	0.975
493.50	0.966
493.71	0.973
493.92	0.970
494.13	0.984
494.34	1.005
494.55	1.014
494.76	1.044
494.97	1.034
495.18	0.999
495.39	1.017
495.60	0.963
495.81	0.965
496.02	0.986
496.23	0.982
496.44	1.016
496.65	1.007
496.86	1.011
497.07	1.035
497.28	1.029
497.49	0.981
497.70	0.980
497.91	1.002
498.12	0.985
498.32	1.027
498.53	1.009
498.74	0.998
498.95	1.024
499.16	0.982
499.37	0.986
499.58	0.997
499.79	1.023
500.00	1.020
500.21	1.049
500.42	0.994
500.63	0.993
500.84	1.013
501.05	0.992
501.26	1.019
501.46	1.055
501.67	1.020
501.88	1.018
502.09	0.996
502.30	1.004
502.51	1.052
502.72	1.007
502.93	1.023
503.14	1.045
503.35	1.015
503.56	1.008
503.77	1.037
503.97	1.013
504.18	1.015
504.39	1.046
504.60	1.014
504.81	1.041
505.02	1.031
505.23	1.031
505.44	1.014
505.65	1.020
505.86	1.002
506.07	1.065
506.27	1.022
506.48	1.024
506.69	1.011
506.90	1.033
507.11	1.028
507.32	1.005
507.53	1.014
507.74	1.007
507.95	1.018
508.15	1.024
508.36	1.028
508.57	1.040
508.78	1.028
508.99	1.026
509.20	1.003
509.41	1.027
509.62	1.017
509.82	1.014
510.03	1.022
510.24	1.025
510.45	1.050
510.66	1.045
510.87	1.043
511.08	1.002
511.29	1.044
511.49	1.020
511.70	1.065
511.91	1.000
512.12	0.998
512.33	1.031
512.54	1.046
512.75	1.030
512.95	1.053
513.16	1.042
513.37	1.020
513.58	1.058
513.79	1.021
514.00	1.029
514.20	1.046
514.41	1.035
514.62	1.001
514.83	1.039
515.04	1.027
515.25	1.008
515.46	1.020
515.66	1.021
515.87	1.032
516.08	1.001
516.29	1.022
516.50	1.005
516.71	0.998
516.91	1.009
517.12	1.025
517.33	1.011
517.54	0.997
517.75	1.001
517.95	1.015
518.16	1.025
518.37	0.993
518.58	0.998
518.79	0.972
519.00	1.002
519.20	1.010
519.41	0.984
519.62	1.001
519.83	1.011
520.04	0.978
520.24	0.975
520.45	0.985
520.66	1.010
520.87	0.974
521.08	0.972
521.28	0.976
521.49	0.993
521.70	0.964
521.91	0.980
522.12	0.961
522.32	0.981
522.53	0.963
522.74	0.952
522.95	0.961
523.16	0.963
523.36	0.974
523.57	0.955
523.78	0.948
523.99	0.954
524.20	0.946
524.40	0.960
524.61	0.967
524.82	0.943
525.03	0.946
525.23	0.947
525.44	0.930
525.65	0.928
525.86	0.950
526.06	0.923
526.27	0.923
526.48	0.932
526.69	0.912
526.90	0.915
527.10	0.948
527.31	0.906
527.52	0.899
527.73	0.894
527.93	0.905
528.14	0.909
528.35	0.900
528.56	0.902
528.76	0.893
528.97	0.885
529.18	0.877
529.39	0.877
529.59	0.880
529.80	0.911
530.01	0.884
530.22	0.884
530.42	0.853
530.63	0.870
530.84	0.849
531.05	0.862
531.25	0.865
531.46	0.858
531.67	0.836
531.88	0.852
532.08	0.844
532.29	0.840
532.50	0.833
532.70	0.829
532.91	0.819
533.12	0.822
533.33	0.847
533.53	0.818
533.74	0.818
533.95	0.823
534.15	0.813
534.36	0.814
534.57	0.798
534.78	0.798
534.98	0.807
535.19	0.778
535.40	0.779
535.60	0.796
535.81	0.776
536.02	0.778
536.23	0.769
536.43	0.771
536.64	0.758
536.85	0.764
537.05	0.773
537.26	0.751
537.47	0.755
537.67	0.745
537.88	0.740
538.09	0.748
538.30	0.739
538.50	0.732
538.71	0.742
538.92	0.730
539.12	0.727
539.33	0.722
539.54	0.722
539.74	0.725
539.95	0.716
540.16	0.713
540.36	0.704
540.57	0.703
540.78	0.694
540.98	0.692
541.19	0.691
541.40	0.679
541.60	0.690
541.81	0.684
542.02	0.684
542.22	0.675
542.43	0.670
542.64	0.665
542.84	0.665
543.05	0.658
543.26	0.659
543.46	0.661
543.67	0.660
543.88	0.655
544.08	0.646
544.29	0.641
544.50	0.641
544.70	0.641
544.91	0.634
545.12	0.635
545.32	0.630
545.53	0.634
545.74	0.623
545.94	0.620
546.15	0.618
546.35	0.615
546.56	0.611
546.77	0.609
546.97	0.606
547.18	0.598
547.39	0.599
547.59	0.598
547.80	0.594
548.01	0.598
548.21	0.594
548.42	0.586
548.62	0.586
548.83	0.583
549.04	0.579
549.24	0.572
549.45	0.571
549.65	0.568
549.86	0.563
550.07	0.562
550.27	0.559
550.48	0.566
550.69	0.552
550.89	0.550
551.10	0.547
551.30	0.545
551.51	0.545
551.72	0.534
551.92	0.535
552.13	0.534
552.33	0.535
552.54	0.530
552.75	0.523
552.95	0.524
553.16	0.520
553.36	0.518
553.57	0.516
553.78	0.514
553.98	0.515
554.19	0.507
554.39	0.504
554.60	0.508
554.80	0.507
555.01	0.500
555.22	0.502
555.42	0.499
555.63	0.493
555.83	0.496
556.04	0.490
556.25	0.491
556.45	0.482
556.66	0.480
556.86	0.483
557.07	0.481
557.27	0.480
557.48	0.474
557.68	0.472
557.89	0.473
558.10	0.469
558.30	0.466
558.51	0.464
558.71	0.462
558.92	0.457
559.12	0.459
559.33	0.462
559.54	0.456
559.74	0.452
559.95	0.449
560.15	0.448
560.36	0.446
560.56	0.441
560.77	0.441
560.97	0.441
561.18	0.436
561.38	0.435
561.59	0.437
561.79	0.433
562.00	0.430
562.21	0.428
562.41	0.427
562.62	0.426
562.82	0.424
563.03	0.420
563.23	0.420
563.44	0.420
563.64	0.417
563.85	0.419
564.05	0.413
564.26	0.412
564.46	0.412
564.67	0.412
564.87	0.408
565.08	0.405
565.28	0.405
565.49	0.405
565.69	0.402
565.90	0.399
566.10	0.401
566.31	0.395
566.51	0.397
566.72	0.398
566.92	0.391
567.13	0.391
567.33	0.390
567.54	0.388
567.74	0.387
567.95	0.383
568.15	0.384
568.36	0.383
568.56	0.382
568.77	0.377
568.97	0.375
569.18	0.375
569.38	0.373
569.59	0.373
569.79	0.371
570.00	0.368
570.20	0.367
570.41	0.365
570.61	0.363
570.82	0.364
571.02	0.360
571.23	0.362
571.43	0.357
571.64	0.356
571.84	0.355
572.05	0.354
572.25	0.353
572.45	0.351
572.66	0.349
572.86	0.348
573.07	0.346
573.27	0.347
573.48	0.346
573.68	0.342
573.89	0.341
574.09	0.342
574.30	0.341
574.50	0.339
574.70	0.339
574.91	0.337
575.11	0.337
575.32	0.337
575.52	0.333
575.73	0.333
575.93	0.333
576.14	0.332
576.34	0.330
576.54	0.328
576.75	0.326
576.95	0.325
577.16	0.322
577.36	0.321
577.57	0.320
577.77	0.319
577.97	0.315
578.18	0.317
578.38	0.314
578.59	0.312
578.79	0.311
579.00	0.312
579.20	0.310
579.40	0.310
579.61	0.310
579.81	0.309
580.02	0.306
580.22	0.306
580.42	0.304
580.63	0.305
580.83	0.303
581.04	0.301
581.24	0.301
581.45	0.299
581.65	0.299
581.85	0.298
582.06	0.295
582.26	0.295
582.47	0.294
582.67	0.293
582.87	0.292
583.08	0.290
583.28	0.290
583.48	0.289
583.69	0.286
583.89	0.286
584.10	0.286
584.30	0.284
584.50	0.283
584.71	0.282
584.91	0.281
585.12	0.280
585.32	0.280
585.52	0.278
585.73	0.277
585.93	0.276
586.13	0.276
586.34	0.274
586.54	0.274
586.75	0.273
586.95	0.272
587.15	0.272
587.36	0.271
587.56	0.270
587.76	0.269
587.97	0.268
588.17	0.266
588.37	0.266
588.58	0.267
588.78	0.263
588.98	0.264
589.19	0.263
589.39	0.261
589.60	0.262
589.80	0.259
590.00	0.258
590.21	0.258
590.41	0.257
590.61	0.257
590.82	0.256
591.02	0.255
591.22	0.253
591.43	0.254
591.63	0.252
591.83	0.252
592.04	0.250
592.24	0.251
592.44	0.249
592.65	0.248
592.85	0.248
593.05	0.248
593.26	0.246
593.46	0.246
593.66	0.245
593.86	0.244
594.07	0.242
594.27	0.243
594.47	0.241
594.68	0.240
594.88	0.241
595.08	0.240
595.29	0.240
595.49	0.238
595.69	0.238
595.90	0.237
596.10	0.237
596.30	0.237
596.50	0.236
596.71	0.236
596.91	0.235
597.11	0.234
597.32	0.234
597.52	0.233
597.72	0.232
597.93	0.231
598.13	0.230
598.33	0.230
598.53	0.228
598.74	0.228
598.94	0.227
599.14	0.226
599.35	0.226
599.55	0.225
599.75	0.224
599.95	0.223
600.16	0.224
600.36	0.222
600.56	0.223
600.76	0.222
600.97	0.221
601.17	0.220
601.37	0.221
601.58	0.219
601.78	0.220
601.98	0.219
602.18	0.218
602.39	0.217
602.59	0.217
602.79	0.216
602.99	0.216
603.20	0.215
603.40	0.215
603.60	0.214
603.80	0.214
604.01	0.214
604.21	0.212
604.41	0.212
604.61	0.211
604.82	0.211
605.02	0.211
605.22	0.211
605.42	0.210
605.62	0.210
605.83	0.208
606.03	0.208
606.23	0.208
606.43	0.207
606.64	0.207
606.84	0.206
607.04	0.206
607.24	0.206
607.45	0.206
607.65	0.204
607.85	0.206
608.05	0.204
608.25	0.203
608.46	0.202
608.66	0.203
608.86	0.202
609.06	0.200
609.26	0.199
609.47	0.200
609.67	0.199
609.87	0.200
610.07	0.199
610.28	0.197
610.48	0.197
610.68	0.198
610.88	0.196
611.08	0.197
611.29	0.196
611.49	0.195
611.69	0.196
611.89	0.194
612.09	0.194
612.29	0.193
612.50	0.193
612.70	0.193
612.90	0.192
613.10	0.191
613.30	0.191
613.51	0.191
613.71	0.190
613.91	0.194
614.11	0.190
614.31	0.189
614.51	0.189
614.72	0.188
614.92	0.188
615.12	0.188
615.32	0.188
615.52	0.188
615.72	0.188
615.93	0.187
616.13	0.187
616.33	0.187
616.53	0.186
616.73	0.186
616.93	0.185
617.14	0.186
617.34	0.185
617.54	0.186
617.74	0.185
617.94	0.184
618.14	0.184
618.34	0.183
618.55	0.183
618.75	0.183
618.95	0.183
619.15	0.183
619.35	0.182
619.55	0.181
619.75	0.182
619.96	0.180
620.16	0.181
620.36	0.181
620.56	0.180
620.76	0.180
620.96	0.179
621.16	0.179
621.36	0.179
621.57	0.179
621.77	0.179
621.97	0.177
622.17	0.178
622.37	0.177
622.57	0.178
622.77	0.177
622.97	0.176
623.18	0.176
623.38	0.176
623.58	0.176
623.78	0.175
623.98	0.175
624.18	0.175
624.38	0.174
624.58	0.175
624.78	0.175
624.98	0.175
625.19	0.175
625.39	0.175
625.59	0.174
625.79	0.174
625.99	0.174
626.19	0.174
626.39	0.173
626.59	0.173
626.79	0.173
626.99	0.173
627.19	0.172
627.40	0.173
627.60	0.172
627.80	0.172
628.00	0.172
628.20	0.171
628.40	0.171
628.60	0.171
628.80	0.169
629.00	0.169
629.20	0.169
629.40	0.169
629.60	0.168
629.80	0.168
630.00	0.168
630.20	0.168
630.41	0.167
630.61	0.167
630.81	0.167
631.01	0.168
631.21	0.166
631.41	0.167
631.61	0.167
631.81	0.166
632.01	0.166
632.21	0.166
632.41	0.165
632.61	0.165
632.81	0.165
633.01	0.165
633.21	0.164
633.41	0.165
633.61	0.164
633.81	0.164
634.01	0.163
634.21	0.163
634.41	0.163
634.61	0.163
634.81	0.162
635.01	0.162
635.22	0.162
635.42	0.162
635.62	0.161
635.82	0.161
636.02	0.161
636.22	0.160
636.42	0.159
636.62	0.160
636.82	0.159
637.02	0.159
637.22	0.159
637.42	0.159
637.62	0.158
637.82	0.158
638.02	0.158
638.22	0.157
638.42	0.157
638.62	0.157
638.82	0.157
639.02	0.157
639.22	0.157
639.42	0.156
639.62	0.156
639.82	0.155
640.02	0.155
640.22	0.155
640.42	0.155
640.62	0.155
640.82	0.155
641.02	0.154
641.22	0.155
641.42	0.154
641.61	0.155
641.81	0.155
642.01	0.155
642.21	0.155
642.41	0.155
642.61	0.154
642.81	0.153
643.01	0.153
643.21	0.153
643.41	0.153
643.61	0.152
643.81	0.152
644.01	0.150
644.21	0.150
644.41	0.150
644.61	0.150
644.81	0.150
645.01	0.151
645.21	0.150
645.41	0.150
645.61	0.150
645.81	0.150
646.01	0.150
646.21	0.150
646.40	0.149
646.60	0.149
646.80	0.150
647.00	0.149
647.20	0.148
647.40	0.148
647.60	0.147
647.80	0.147
648.00	0.147
648.20	0.147
648.40	0.146
648.60	0.146
648.80	0.146
649.00	0.146
649.20	0.146
649.39	0.145
649.59	0.145
649.79	0.145
649.99	0.145
650.19	0.145
650.39	0.144
650.59	0.144
650.79	0.144
650.99	0.144
651.19	0.143
651.39	0.143
651.58	0.143
651.78	0.142
651.98	0.142
652.18	0.142
652.38	0.141
652.58	0.141
652.78	0.141
652.98	0.141
653.18	0.141
653.38	0.142
653.57	0.142
653.77	0.142
653.97	0.141
654.17	0.141
654.37	0.141
654.57	0.141
654.77	0.141
654.97	0.140
655.16	0.140
655.36	0.140
655.56	0.139
655.76	0.139
655.96	0.139
656.16	0.138
656.36	0.138
656.56	0.138
656.75	0.138
656.95	0.137
657.15	0.137
657.35	0.137
657.55	0.137
657.75	0.137
657.95	0.137
658.14	0.136
658.34	0.137
658.54	0.136
658.74	0.136
658.94	0.136
659.14	0.136
659.34	0.135
659.53	0.135
659.73	0.134
659.93	0.134
660.13	0.134
660.33	0.134
660.53	0.133
660.72	0.134
660.92	0.133
661.12	0.133
661.32	0.133
661.52	0.132
661.72	0.132
661.91	0.132
662.11	0.132
662.31	0.131
662.51	0.131
662.71	0.131
662.90	0.130
663.10	0.130
663.30	0.130
663.50	0.130
663.70	0.130
663.90	0.130
664.09	0.130
664.29	0.129
664.49	0.129
664.69	0.129
664.89	0.129
665.08	0.129
665.28	0.128
665.48	0.128
665.68	0.127
665.88	0.127
666.07	0.127
666.27	0.127
666.47	0.126
666.67	0.127
666.87	0.126
667.06	0.126
667.26	0.125
667.46	0.125
667.66	0.126
667.85	0.126
668.05	0.126
668.25	0.126
668.45	0.126
668.65	0.126
668.84	0.126
669.04	0.126
669.24	0.125
669.44	0.125
669.63	0.125
669.83	0.125
670.03	0.123
670.23	0.123
670.42	0.123
670.62	0.122
670.82	0.122
671.02	0.122
671.22	0.121
671.41	0.121
671.61	0.121
671.81	0.121
672.01	0.121
672.20	0.120
672.40	0.120
672.60	0.120
672.80	0.120
672.99	0.120
673.19	0.119
673.39	0.119
673.58	0.119
673.78	0.119
673.98	0.119
674.18	0.118
674.37	0.118
674.57	0.118
674.77	0.118
674.97	0.118
675.16	0.118
675.36	0.118
675.56	0.118
675.75	0.118
675.95	0.117
676.15	0.118
676.35	0.117
676.54	0.117
676.74	0.116
676.94	0.117
677.13	0.116
677.33	0.116
677.53	0.115
677.73	0.115
677.92	0.115
678.12	0.115
678.32	0.114
678.51	0.114
678.71	0.114
678.91	0.114
679.11	0.113
679.30	0.113
679.50	0.113
679.70	0.112
679.89	0.113
680.09	0.113
680.29	0.112
680.48	0.112
680.68	0.111
680.88	0.112
681.07	0.112
681.27	0.111
681.47	0.111
681.66	0.111
681.86	0.111
682.06	0.111
682.25	0.111
682.45	0.111
682.65	0.111
682.84	0.110
683.04	0.110
683.24	0.110
683.43	0.110
683.63	0.110
683.83	0.110
684.02	0.109
684.22	0.109
684.42	0.109
684.61	0.109
684.81	0.109
685.01	0.109
685.20	0.109
685.40	0.108
685.60	0.108
685.79	0.108
685.99	0.108
686.19	0.107
686.38	0.107
686.58	0.107
686.77	0.107
686.97	0.107
687.17	0.107
687.36	0.106
687.56	0.106
687.76	0.106
687.95	0.106
688.15	0.106
688.34	0.106
688.54	0.105
688.74	0.105
688.93	0.105
689.13	0.105
689.33	0.105
689.52	0.105
689.72	0.105
689.91	0.104
690.11	0.104
690.31	0.103
690.50	0.104
690.70	0.104
690.89	0.103
691.09	0.103
691.29	0.103
691.48	0.102
691.68	0.102
691.87	0.102
692.07	0.103
692.27	0.102
692.46	0.102
692.66	0.102
692.85	0.101
693.05	0.101
693.25	0.101
693.44	0.101
693.64	0.101
693.83	0.101
694.03	0.101
694.22	0.100
694.42	0.100
694.62	0.100
694.81	0.101
695.01	0.101
695.20	0.101
695.40	0.100
695.59	0.100
695.79	0.099
695.99	0.099
696.18	0.099
696.38	0.099
696.57	0.099
696.77	0.098
696.96	0.099
697.16	0.098
697.36	0.098
697.55	0.098
697.75	0.098
697.94	0.098
698.14	0.098
698.33	0.098
698.53	0.098
698.72	0.097
698.92	0.097
699.11	0.097
699.31	0.097
699.51	0.097
699.70	0.097
699.90	0.096
700.09	0.097
700.29	0.096
700.48	0.097
700.68	0.096
700.87	0.096
701.07	0.096
701.26	0.095
701.46	0.095
701.65	0.095
701.85	0.095
702.04	0.095
702.24	0.095
702.43	0.095
702.63	0.094
702.82	0.094
703.02	0.094
703.21	0.095
703.41	0.094
703.60	0.095
703.80	0.095
703.99	0.094
704.19	0.094
704.38	0.094
704.58	0.093
704.77	0.094
704.97	0.093
705.16	0.094
705.36	0.094
705.55	0.094
705.75	0.093
705.94	0.093
706.14	0.093
706.33	0.093
706.53	0.093
706.72	0.093
706.92	0.093
707.11	0.092
707.31	0.092
707.50	0.092
707.70	0.092
707.89	0.092
708.09	0.092
708.28	0.092
708.48	0.092
708.67	0.092
708.86	0.092
709.06	0.092
709.25	0.092
709.45	0.092
709.64	0.092
709.84	0.091
710.03	0.091
710.23	0.091
710.42	0.090
710.62	0.091
710.81	0.090
711.00	0.091
711.20	0.090
711.39	0.090
711.59	0.089
711.78	0.090
711.98	0.090
712.17	0.090
712.37	0.090
712.56	0.090
712.75	0.090
712.95	0.090
713.14	0.090
713.34	0.090
713.53	0.090
713.73	0.091
713.92	0.090
714.11	0.090
714.31	0.090
714.50	0.090
714.70	0.090
714.89	0.090
715.08	0.090
715.28	0.090
715.47	0.090
715.67	0.090
715.86	0.090
716.06	0.090
716.25	0.089
716.44	0.089
716.64	0.089
716.83	0.089
717.03	0.089
717.22	0.089
717.41	0.089
717.61	0.089
717.80	0.089
717.99	0.089
718.19	0.089
718.38	0.089
718.58	0.089
718.77	0.089
718.96	0.089
719.16	0.089
719.35	0.088
719.55	0.088
719.74	0.088
719.93	0.087
720.13	0.087
720.32	0.087
720.51	0.087
720.71	0.087
720.90	0.087
721.10	0.086
721.29	0.086
721.48	0.086
721.68	0.086
721.87	0.086
722.06	0.086
722.26	0.087
722.45	0.087
722.64	0.087
722.84	0.087
723.03	0.087
723.22	0.088
723.42	0.088
723.61	0.088
723.80	0.088
724.00	0.088
724.19	0.088
724.38	0.088
724.58	0.088
724.77	0.087
724.96	0.087
725.16	0.087
725.35	0.087
725.54	0.087
725.74	0.087
725.93	0.087
726.12	0.087
726.32	0.087
726.51	0.087
726.70	0.087
726.90	0.087
727.09	0.087
727.28	0.087
727.48	0.087
727.67	0.087
727.86	0.087
728.06	0.087
728.25	0.087
728.44	0.087
728.64	0.087
728.83	0.087
729.02	0.087
729.21	0.087
729.41	0.087
729.60	0.087
729.79	0.087
729.99	0.086
730.18	0.087
730.37	0.086
730.56	0.086
730.76	0.086
730.95	0.086
731.14	0.086
731.34	0.086
731.53	0.086
731.72	0.086
731.91	0.086
732.11	0.086
732.30	0.087
732.49	0.087
732.69	0.087
732.88	0.087
733.07	0.087
733.26	0.088
733.46	0.087
733.65	0.087
733.84	0.087
734.03	0.087
734.23	0.087
734.42	0.087
734.61	0.087
734.80	0.086
735.00	0.087
735.19	0.087
735.38	0.087
735.57	0.087
735.77	0.087
735.96	0.087
736.15	0.087
736.34	0.087
736.54	0.087
736.73	0.087
736.92	0.087
737.11	0.087
737.31	0.087
737.50	0.087
737.69	0.087
737.88	0.087
738.07	0.087
738.27	0.087
738.46	0.087
738.65	0.087
738.84	0.087
739.04	0.087
739.23	0.087
739.42	0.087
739.61	0.087
739.80	0.087
740.00	0.087
740.19	0.087
740.38	0.087
740.57	0.087
740.76	0.086
740.96	0.086
741.15	0.086
741.34	0.086
741.53	0.086
741.72	0.086
741.92	0.085
742.11	0.085
742.30	0.085
742.49	0.085
742.68	0.085
742.88	0.085
743.07	0.085
743.26	0.085
743.45	0.085
743.64	0.085
743.84	0.084
744.03	0.084
744.22	0.085
744.41	0.085
744.60	0.084
744.79	0.085
744.99	0.084
745.18	0.084
745.37	0.084
745.56	0.084
745.75	0.084
745.94	0.084
746.14	0.084
746.33	0.084
746.52	0.085
746.71	0.084
746.90	0.084
747.09	0.084
747.28	0.084
747.48	0.084
747.67	0.084
747.86	0.084
748.05	0.084
748.24	0.084
748.43	0.084
748.62	0.083
748.82	0.083
749.01	0.083
749.20	0.083
749.39	0.083
749.58	0.083
749.77	0.083
749.96	0.083
750.16	0.083
750.35	0.083
750.54	0.083
750.73	0.083
750.92	0.083
751.11	0.083
751.30	0.083
751.49	0.083
751.68	0.082
751.88	0.082
752.07	0.082
752.26	0.083
752.45	0.082
752.64	0.082
752.83	0.083
753.02	0.082
753.21	0.082
753.40	0.082
753.60	0.082
753.79	0.082
753.98	0.082
754.17	0.082
754.36	0.081
754.55	0.082
754.74	0.082
754.93	0.082
755.12	0.082
755.31	0.082
755.50	0.082
755.70	0.082
755.89	0.081
756.08	0.082
756.27	0.081
756.46	0.082
756.65	0.081
756.84	0.081
757.03	0.081
757.22	0.081
757.41	0.081
757.60	0.081
757.79	0.081
757.98	0.081
758.17	0.081
758.36	0.081
758.56	0.080
758.75	0.080
758.94	0.080
759.13	0.080
759.32	0.080
759.51	0.080
759.70	0.080
759.89	0.080
760.08	0.081
760.27	0.080
760.46	0.081
760.65	0.081
760.84	0.081
761.03	0.081
761.22	0.081
761.41	0.081
761.60	0.081
761.79	0.080
761.98	0.081
762.17	0.081
762.36	0.080
762.55	0.080
762.74	0.080
762.93	0.080
763.12	0.080
763.31	0.080
763.50	0.080
763.69	0.080
763.88	0.080
764.07	0.079
764.26	0.080
764.45	0.080
764.64	0.080
764.83	0.079
765.02	0.079
765.21	0.079
765.40	0.079
765.59	0.079
765.78	0.079
765.97	0.079
766.16	0.079
766.35	0.078
766.54	0.079
766.73	0.079
766.92	0.079
767.11	0.078
767.30	0.079
767.49	0.079
767.68	0.079
767.87	0.078
768.06	0.079
768.25	0.078
768.44	0.079
768.63	0.078
768.82	0.078
769.01	0.078
769.20	0.078
769.39	0.078
769.58	0.079
769.77	0.079
769.96	0.079
770.15	0.079
770.34	0.078
770.53	0.078
770.72	0.078
770.91	0.077
771.10	0.077
771.29	0.077
771.47	0.077
771.66	0.077
771.85	0.077
772.04	0.076
772.23	0.076
772.42	0.076
772.61	0.077
772.80	0.077
772.99	0.077
773.18	0.077
773.37	0.077
773.56	0.076
773.75	0.077
773.94	0.077
774.13	0.077
774.31	0.077
774.50	0.077
774.69	0.077
774.88	0.077
775.07	0.077
775.26	0.077
775.45	0.076
775.64	0.077
775.83	0.076
776.02	0.076
776.21	0.076
776.40	0.076
776.58	0.076
776.77	0.076
776.96	0.076
777.15	0.076
777.34	0.076
777.53	0.076
777.72	0.076
777.91	0.076
778.10	0.076
778.28	0.076
778.47	0.077
778.66	0.076
778.85	0.076
779.04	0.076
779.23	0.076
779.42	0.075
779.61	0.075
779.79	0.075
779.98	0.075
780.17	0.075
780.36	0.074
780.55	0.074
780.74	0.074
780.93	0.074
781.12	0.074
781.30	0.074
781.49	0.074
781.68	0.074
781.87	0.075
782.06	0.075
782.25	0.074
782.44	0.075
782.62	0.075
782.81	0.075
783.00	0.075
783.19	0.075
783.38	0.075
783.57	0.075
783.75	0.074
783.94	0.074
784.13	0.074
784.32	0.074
784.51	0.074
784.70	0.074
784.88	0.074
785.07	0.074
785.26	0.074
785.45	0.074
785.64	0.073
785.83	0.074
786.01	0.074
786.20	0.074
786.39	0.074
786.58	0.074
786.77	0.074
786.95	0.074
787.14	0.074
787.33	0.074
787.52	0.074
787.71	0.074
787.90	0.074
788.08	0.074
788.27	0.073
788.46	0.074
788.65	0.073
788.84	0.073
789.02	0.073
789.21	0.074
789.40	0.074
789.59	0.074
789.77	0.074
789.96	0.074
790.15	0.074
790.34	0.074
790.53	0.073
790.71	0.073
790.90	0.073
791.09	0.073
791.28	0.073
791.46	0.073
791.65	0.073
791.84	0.073
792.03	0.073
792.22	0.073
792.40	0.072
792.59	0.073
792.78	0.073
792.97	0.073
793.15	0.073
793.34	0.073
793.53	0.073
793.72	0.072
793.90	0.072
794.09	0.072
794.28	0.072
794.47	0.072
794.65	0.072
794.84	0.072
795.03	0.072
795.22	0.072
795.40	0.072
795.59	0.072
795.78	0.072
795.97	0.073
796.15	0.073
796.34	0.073
796.53	0.073
796.71	0.073
796.90	0.073
797.09	0.073
797.28	0.073
797.46	0.073
797.65	0.072
797.84	0.073
798.02	0.072
798.21	0.072
798.40	0.072
798.59	0.071
798.77	0.071
798.96	0.071
799.15	0.070
799.33	0.071
799.52	0.070
799.71	0.071
799.90	0.071
800.08	0.071
800.27	0.071
800.46	0.070
800.64	0.071
800.83	0.071
801.02	0.071
801.20	0.071
801.39	0.071
801.58	0.071
801.76	0.071
801.95	0.071
802.14	0.071
802.32	0.071
802.51	0.071
802.70	0.071
802.88	0.071
803.07	0.071
803.26	0.070
803.44	0.070
803.63	0.071
803.82	0.070
804.00	0.070
804.19	0.070
804.38	0.071
804.56	0.071
804.75	0.071
804.94	0.071
805.12	0.071
805.31	0.071
805.50	0.071
805.68	0.071
805.87	0.071
806.06	0.071
806.24	0.071
806.43	0.070
806.62	0.070
806.80	0.070
806.99	0.070
807.17	0.071
807.36	0.070
807.55	0.070
807.73	0.070
807.92	0.070
808.11	0.070
808.29	0.070
808.48	0.070
808.66	0.070
808.85	0.070
809.04	0.070
809.22	0.070
809.41	0.070
809.59	0.070
809.78	0.070
809.97	0.070
810.15	0.069
810.34	0.070
810.53	0.070
810.71	0.070
810.90	0.070
811.08	0.070
811.27	0.069
811.45	0.069
811.64	0.069
811.83	0.070
812.01	0.070
812.20	0.070
812.38	0.070
812.57	0.070
812.76	0.070
812.94	0.070
813.13	0.070
813.31	0.070
813.50	0.070
813.68	0.070
813.87	0.070
814.06	0.070
814.24	0.070
814.43	0.070
814.61	0.069
814.80	0.069
814.98	0.070
815.17	0.069
815.36	0.069
815.54	0.069
815.73	0.069
815.91	0.069
816.10	0.070
816.28	0.069
816.47	0.069
816.65	0.070
816.84	0.070
817.03	0.070
817.21	0.070
817.40	0.070
817.58	0.070
817.77	0.070
817.95	0.070
818.14	0.070
818.32	0.070
818.51	0.070
818.69	0.070
818.88	0.070
819.06	0.070
819.25	0.070
819.43	0.070
819.62	0.070
819.80	0.070
819.99	0.070
820.18	0.070
820.36	0.070
820.55	0.070
820.73	0.070
820.92	0.070
821.10	0.070
821.29	0.070
821.47	0.070
821.66	0.070
821.84	0.070
822.03	0.070
822.21	0.070
822.40	0.070
822.58	0.070
822.77	0.070
822.95	0.070
823.14	0.071
823.32	0.071
823.50	0.071
823.69	0.071
823.87	0.071
824.06	0.071
824.24	0.071
824.43	0.071
824.61	0.071
824.80	0.071
824.98	0.072
825.17	0.072
825.35	0.071
825.54	0.072
825.72	0.071
825.91	0.071
826.09	0.071
826.28	0.071
826.46	0.071
826.64	0.072
826.83	0.072
827.01	0.072
827.20	0.072
827.38	0.072
827.57	0.072
827.75	0.072
827.94	0.072
828.12	0.072
828.31	0.072
828.49	0.072
828.67	0.073
828.86	0.073
829.04	0.073
829.23	0.073
829.41	0.074
829.60	0.074
829.78	0.074
829.96	0.075
830.15	0.075
830.33	0.075
830.52	0.075
830.70	0.075
830.88	0.075
831.07	0.075
831.25	0.075
831.44	0.075
831.62	0.074
831.81	0.074
831.99	0.074
832.17	0.074
832.36	0.074
832.54	0.074
832.73	0.074
832.91	0.074
833.09	0.074
833.28	0.074
833.46	0.074
833.65	0.075
833.83	0.075
834.01	0.075
834.20	0.075
834.38	0.075
834.56	0.075
834.75	0.075
834.93	0.076
835.12	0.076
835.30	0.076
835.48	0.076
835.67	0.076
835.85	0.076
836.03	0.076
836.22	0.076
836.40	0.076
836.59	0.076
836.77	0.076
836.95	0.077
837.14	0.076
837.32	0.076
837.50	0.076
837.69	0.076
837.87	0.076
838.05	0.076
838.24	0.076
838.42	0.076
838.60	0.076
838.79	0.077
838.97	0.076
839.15	0.076
839.34	0.076
839.52	0.076
839.70	0.077
839.89	0.077
840.07	0.077
840.25	0.077
840.44	0.077
840.62	0.077
840.80	0.077
840.99	0.077
841.17	0.077
841.35	0.077
841.54	0.078
841.72	0.078
841.90	0.078
842.09	0.078
842.27	0.078
842.45	0.078
842.64	0.078
842.82	0.078
843.00	0.078
843.19	0.078
843.37	0.077
843.55	0.077
843.73	0.077
843.92	0.077
844.10	0.077
844.28	0.077
844.47	0.077
844.65	0.077
844.83	0.077
845.01	0.078
845.20	0.078
845.38	0.078
845.56	0.078
845.75	0.078
845.93	0.078
846.11	0.077
846.29	0.078
846.48	0.078
846.66	0.078
846.84	0.078
847.02	0.078
847.21	0.077
847.39	0.078
847.57	0.078
847.76	0.078
847.94	0.078
848.12	0.078
848.30	0.078
848.49	0.078
848.67	0.078
848.85	0.078
849.03	0.078
849.22	0.078
849.40	0.079
849.58	0.079
849.76	0.079
849.95	0.079
850.13	0.079
850.31	0.079
850.49	0.079
850.67	0.079
850.86	0.078
851.04	0.078
851.22	0.078
851.40	0.078
851.59	0.078
851.77	0.078
851.95	0.078
852.13	0.078
852.31	0.078
852.50	0.078
852.68	0.079
852.86	0.078
853.04	0.079
853.23	0.078
853.41	0.078
853.59	0.078
853.77	0.078
853.95	0.079
854.14	0.078
854.32	0.078
854.50	0.078
854.68	0.078
854.86	0.078
855.04	0.078
855.23	0.078
855.41	0.078
855.59	0.079
855.77	0.079
855.95	0.079
856.14	0.079
856.32	0.079
856.50	0.079
856.68	0.079
856.86	0.079
857.04	0.078
857.23	0.078
857.41	0.078
857.59	0.078
857.77	0.078
857.95	0.078
858.13	0.078
858.32	0.078
858.50	0.079
858.68	0.079
858.86	0.079
859.04	0.079
859.22	0.079
859.41	0.079
859.59	0.079
859.77	0.079
859.95	0.079
860.13	0.079
860.31	0.079
860.49	0.079
860.68	0.079
860.86	0.079
861.04	0.079
861.22	0.079
861.40	0.079
861.58	0.079
861.76	0.079
861.94	0.079
862.13	0.079
862.31	0.079
862.49	0.079
862.67	0.079
862.85	0.080
863.03	0.080
863.21	0.080
863.39	0.080
863.57	0.080
863.76	0.080
863.94	0.080
864.12	0.080
864.30	0.080
864.48	0.080
864.66	0.080
864.84	0.080
865.02	0.080
865.20	0.080
865.38	0.080
865.57	0.080
865.75	0.080
865.93	0.080
866.11	0.080
866.29	0.080
866.47	0.081
866.65	0.080
866.83	0.080
867.01	0.080
867.19	0.080
867.37	0.080
867.55	0.080
867.73	0.080
867.92	0.080
868.10	0.080
868.28	0.080
868.46	0.080
868.64	0.080
868.82	0.080
869.00	0.081
869.18	0.081
869.36	0.081
869.54	0.081
869.72	0.081
869.90	0.081
870.08	0.081
870.26	0.081
870.44	0.081
870.62	0.081
870.80	0.081
870.98	0.081
871.16	0.081
871.34	0.081
871.53	0.081
871.71	0.081
871.89	0.081
872.07	0.081
872.25	0.081
872.43	0.081
872.61	0.081
872.79	0.081
872.97	0.081
873.15	0.081
873.33	0.082
873.51	0.082
873.69	0.082
873.87	0.082
874.05	0.082
874.23	0.082
874.41	0.082
874.59	0.082
874.77	0.082
874.95	0.082
875.13	0.082
875.31	0.082
875.49	0.082
875.67	0.082
875.85	0.082
876.03	0.082
876.21	0.082
876.39	0.082
876.57	0.082
876.75	0.082
876.93	0.082
877.11	0.082
877.29	0.082
877.47	0.082
877.65	0.083
877.82	0.083
878.00	0.083
878.18	0.083
878.36	0.083
878.54	0.083
878.72	0.083
878.90	0.083
879.08	0.083
879.26	0.083
879.44	0.083
879.62	0.083
879.80	0.083
879.98	0.083
880.16	0.083
880.34	0.082
880.52	0.083
880.70	0.082
880.88	0.083
881.06	0.083
881.24	0.083
881.42	0.083
881.59	0.083
881.77	0.082
881.95	0.083
882.13	0.083
882.31	0.083
882.49	0.083
882.67	0.084
882.85	0.083
883.03	0.083
883.21	0.084
883.39	0.083
883.57	0.084
883.75	0.084
883.92	0.084
884.10	0.084
884.28	0.084
884.46	0.084
884.64	0.084
884.82	0.084
885.00	0.084
885.18	0.084
885.36	0.084
885.54	0.084
885.71	0.085
885.89	0.085
886.07	0.085
886.25	0.085
886.43	0.085
886.61	0.085
886.79	0.084
886.97	0.084
887.15	0.084
887.32	0.084
887.50	0.085
887.68	0.084
887.86	0.084
888.04	0.085
888.22	0.085
888.40	0.085
888.57	0.085
888.75	0.085
888.93	0.085
889.11	0.085
889.29	0.085
889.47	0.085
889.65	0.086
889.82	0.086
890.00	0.086
890.18	0.086
890.36	0.086
890.54	0.086
890.72	0.086
890.90	0.086
891.07	0.086
891.25	0.086
891.43	0.085
891.61	0.086
891.79	0.085
891.97	0.085
892.14	0.085
892.32	0.085
892.50	0.086
892.68	0.086
892.86	0.086
893.03	0.086
893.21	0.086
893.39	0.086
893.57	0.086
893.75	0.086
893.93	0.087
894.10	0.086
894.28	0.086
894.46	0.086
894.64	0.086
894.82	0.086
894.99	0.086
895.17	0.086
895.35	0.086
895.53	0.086
895.71	0.086
895.88	0.086
896.06	0.086
896.24	0.087
896.42	0.086
896.59	0.086
896.77	0.087
896.95	0.087
897.13	0.087
897.31	0.087
897.48	0.087
897.66	0.087
897.84	0.087
898.02	0.087
898.19	0.087
898.37	0.087
898.55	0.087
898.73	0.088
898.91	0.088
899.08	0.087
899.26	0.088
899.44	0.088
899.62	0.088
899.79	0.088
899.97	0.088
900.15	0.088
900.33	0.088
900.50	0.088
900.68	0.087
900.86	0.088
901.04	0.088
901.21	0.088
901.39	0.088
901.57	0.088
901.74	0.088
901.92	0.088
902.10	0.088
902.28	0.088
902.45	0.088
902.63	0.088
902.81	0.088
902.99	0.088
903.16	0.088
903.34	0.088
903.52	0.089
903.69	0.089
903.87	0.089
904.05	0.089
904.22	0.089
904.40	0.089
904.58	0.089
904.76	0.089
904.93	0.089
905.11	0.089
905.29	0.090
905.46	0.089
905.64	0.089
905.82	0.090
905.99	0.089
906.17	0.089
906.35	0.089
906.53	0.090
906.70	0.090
906.88	0.090
907.06	0.090
907.23	0.090
907.41	0.091
907.59	0.090
907.76	0.091
907.94	0.091
908.12	0.091
908.29	0.091
908.47	0.091
908.65	0.090
908.82	0.090
909.00	0.090
909.18	0.091
909.35	0.090
909.53	0.090
909.71	0.090
909.88	0.091
910.06	0.091
910.23	0.091
910.41	0.091
910.59	0.091
910.76	0.091
910.94	0.091
911.12	0.091
911.29	0.091
911.47	0.091
911.65	0.091
911.82	0.091
912.00	0.091
912.17	0.091
912.35	0.092
912.53	0.092
912.70	0.092
912.88	0.092
913.06	0.093
913.23	0.093
913.41	0.093
913.58	0.093
913.76	0.093
913.94	0.093
914.11	0.094
914.29	0.094
914.46	0.094
914.64	0.094
914.82	0.094
914.99	0.094
915.17	0.094
915.34	0.094
915.52	0.094
915.70	0.094
915.87	0.094
916.05	0.094
916.22	0.094
916.40	0.094
916.57	0.095
916.75	0.094
916.93	0.095
917.10	0.095
917.28	0.095
917.45	0.095
917.63	0.095
917.80	0.095
917.98	0.095
918.16	0.096
918.33	0.097
918.51	0.096
918.68	0.097
918.86	0.097
919.03	0.097
919.21	0.097
919.39	0.098
919.56	0.098
919.74	0.098
919.91	0.098
920.09	0.098
920.26	0.098
920.44	0.098
920.61	0.098
920.79	0.099
920.96	0.099
921.14	0.099
921.31	0.099
921.49	0.099
921.67	0.100
921.84	0.100
922.02	0.100
922.19	0.101
922.37	0.101
922.54	0.101
922.72	0.101
922.89	0.102
923.07	0.102
923.24	0.102
923.42	0.102
923.59	0.103
923.77	0.103
923.94	0.103
924.12	0.104
924.29	0.104
924.47	0.104
924.64	0.105
924.82	0.105
924.99	0.105
925.17	0.106
925.34	0.106
925.52	0.106
925.69	0.107
925.87	0.107
926.04	0.107
926.22	0.108
926.39	0.108
926.57	0.108
926.74	0.108
926.91	0.108
927.09	0.109
927.26	0.109
927.44	0.109
927.61	0.109
927.79	0.109
927.96	0.110
928.14	0.110
928.31	0.110
928.49	0.110
928.66	0.111
928.84	0.112
929.01	0.112
929.18	0.113
929.36	0.113
929.53	0.114
929.71	0.114
929.88	0.115
930.06	0.115
930.23	0.115
930.41	0.116
930.58	0.116
930.75	0.116
930.93	0.117
931.10	0.117
931.28	0.117
931.45	0.118
931.63	0.118
931.80	0.118
931.97	0.119
932.15	0.119
932.32	0.120
932.50	0.120
932.67	0.120
932.84	0.121
933.02	0.122
933.19	0.122
933.37	0.123
933.54	0.123
933.71	0.124
933.89	0.125
934.06	0.125
934.24	0.126
934.41	0.126
934.58	0.126
934.76	0.127
934.93	0.127
935.11	0.128
935.28	0.128
935.45	0.128
935.63	0.128
935.80	0.129
935.98	0.130
936.15	0.129
936.32	0.130
936.50	0.131
936.67	0.131
936.84	0.131
937.02	0.132
937.19	0.133
937.36	0.133
937.54	0.134
937.71	0.135
937.89	0.134
938.06	0.135
938.23	0.136
938.41	0.137
938.58	0.137
938.75	0.137
938.93	0.138
939.10	0.138
939.27	0.138
939.45	0.140
939.62	0.140
939.79	0.141
939.97	0.141
940.14	0.142
940.31	0.142
940.49	0.143
940.66	0.143
940.83	0.144
941.01	0.145
941.18	0.145
941.35	0.146
941.53	0.146
941.70	0.147
941.87	0.148
942.05	0.148
942.22	0.149
942.39	0.150
942.57	0.151
942.74	0.151
942.91	0.151
943.08	0.152
943.26	0.153
943.43	0.153
943.60	0.154
943.78	0.155
943.95	0.156
944.12	0.156
944.29	0.156
944.47	0.157
944.64	0.158
944.81	0.159
944.99	0.160
945.16	0.160
945.33	0.161
945.50	0.162
945.68	0.162
945.85	0.163
946.02	0.164
946.20	0.166
946.37	0.167
946.54	0.167
946.71	0.168
946.89	0.168
947.06	0.169
947.23	0.170
947.40	0.172
947.58	0.172
947.75	0.173
947.92	0.173
948.09	0.174
948.27	0.175
948.44	0.176
948.61	0.177
948.78	0.178
948.96	0.180
949.13	0.180
949.30	0.181
949.47	0.182
949.65	0.183
949.82	0.185
949.99	0.186
950.16	0.187
950.33	0.188
950.51	0.189
950.68	0.190
950.85	0.191
951.02	0.193
951.20	0.194
951.37	0.195
951.54	0.196
951.71	0.198
951.88	0.199
952.06	0.199
952.23	0.200
952.40	0.202
952.57	0.204
952.74	0.205
952.92	0.206
953.09	0.207
953.26	0.208
953.43	0.209
953.60	0.210
953.77	0.212
953.95	0.213
954.12	0.215
954.29	0.215
954.46	0.218
954.63	0.218
954.81	0.219
954.98	0.220
955.15	0.222
955.32	0.223
955.49	0.223
955.66	0.225
955.84	0.226
956.01	0.226
956.18	0.228
956.35	0.229
956.52	0.229
956.69	0.231
956.87	0.232
957.04	0.233
957.21	0.235
957.38	0.235
957.55	0.236
957.72	0.237
957.89	0.238
958.07	0.238
958.24	0.241
958.41	0.243
958.58	0.242
958.75	0.243
958.92	0.245
959.09	0.244
959.26	0.245
959.44	0.246
959.61	0.247
959.78	0.248
959.95	0.250
960.12	0.249
960.29	0.251
960.46	0.251
960.63	0.251
960.81	0.251
960.98	0.252
961.15	0.253
961.32	0.254
961.49	0.253
961.66	0.254
961.83	0.254
962.00	0.254
962.17	0.255
962.34	0.255
962.52	0.255
962.69	0.256
962.86	0.256
963.03	0.256
963.20	0.257
963.37	0.256
963.54	0.257
963.71	0.257
963.88	0.257
964.05	0.257
964.22	0.259
964.39	0.258
964.56	0.259
964.74	0.260
964.91	0.260
965.08	0.260
965.25	0.261
965.42	0.262
965.59	0.263
965.76	0.263
965.93	0.264
966.10	0.262
966.27	0.262
966.44	0.262
966.61	0.264
966.78	0.263
966.95	0.262
967.12	0.263
967.29	0.265
967.46	0.264
967.63	0.264
967.80	0.265
967.97	0.264
968.14	0.264
968.32	0.265
968.49	0.265
968.66	0.265
968.83	0.265
969.00	0.265
969.17	0.265
969.34	0.266
969.51	0.267
969.68	0.265
969.85	0.267
970.02	0.266
970.19	0.266
970.36	0.266
970.53	0.266
970.70	0.265
970.87	0.265
971.04	0.265
971.21	0.265
971.38	0.265
971.55	0.266
971.72	0.265
971.89	0.266
972.06	0.266
972.23	0.266
972.40	0.266
972.57	0.265
972.74	0.265
972.91	0.267
973.07	0.267
973.24	0.267
973.41	0.267
973.58	0.266
973.75	0.279
973.92	0.267
974.09	0.266
974.26	0.266
974.43	0.265
974.60	0.266
974.77	0.267
974.94	0.265
975.11	0.266
975.28	0.266
975.45	0.265
975.62	0.266
975.79	0.267
975.96	0.265
976.13	0.264
976.30	0.266
976.47	0.264
976.64	0.265
976.80	0.265
976.97	0.265
977.14	0.265
977.31	0.264
977.48	0.265
977.65	0.265
977.82	0.264
977.99	0.266
978.16	0.265
978.33	0.265
978.50	0.264
978.67	0.264
978.83	0.265
979.00	0.265
979.17	0.264
979.34	0.264
979.51	0.263
979.68	0.263
979.85	0.263
980.02	0.264
980.19	0.261
980.36	0.262
980.52	0.263
980.69	0.261
980.86	0.261
981.03	0.261
981.20	0.259
981.37	0.260
981.54	0.260
981.71	0.259
981.88	0.260
982.04	0.260
982.21	0.259
982.38	0.261
982.55	0.260
982.72	0.259
982.89	0.260
983.06	0.259
983.22	0.258
983.39	0.259
983.56	0.258
983.73	0.257
983.90	0.256
984.07	0.258
984.24	0.257
984.40	0.256
984.57	0.255
984.74	0.256
984.91	0.257
985.08	0.256
985.25	0.253
985.41	0.254
985.58	0.255
985.75	0.256
985.92	0.255
986.09	0.253
986.26	0.254
986.42	0.253
986.59	0.252
986.76	0.253
986.93	0.253
987.10	0.254
987.27	0.251
987.43	0.250
987.60	0.251
987.77	0.251
987.94	0.250
988.11	0.251
988.27	0.251
988.44	0.250
988.61	0.249
988.78	0.247
988.95	0.248
989.11	0.249
989.28	0.247
989.45	0.246
989.62	0.246
989.79	0.247
989.95	0.246
990.12	0.247
990.29	0.247
990.46	0.246
990.62	0.244
990.79	0.244
990.96	0.245
991.13	0.245
991.30	0.244
991.46	0.243
991.63	0.242
991.80	0.241
991.97	0.241
992.13	0.241
992.30	0.242
992.47	0.240
992.64	0.240
992.80	0.240
992.97	0.240
993.14	0.238
993.31	0.235
993.47	0.238
993.64	0.235
993.81	0.234
993.98	0.234
994.14	0.233
994.31	0.233
994.48	0.234
994.64	0.234
994.81	0.233
994.98	0.233
995.15	0.231
995.31	0.231
995.48	0.231
995.65	0.234
995.82	0.231
995.98	0.231
996.15	0.232
996.32	0.234
996.48	0.231
996.65	0.231
996.82	0.229
996.99	0.230
997.15	0.229
997.32	0.230
997.49	0.228
997.65	0.229
997.82	0.228
997.99	0.227
998.15	0.226
998.32	0.228
998.49	0.226
998.65	0.226
998.82	0.226
998.99	0.223
999.15	0.225
999.32	0.224
999.49	0.224
999.65	0.224
999.82	0.222
999.99	0.222
1000.15	0.222
1000.32	0.222
1000.49	0.222
1000.65	0.220
1000.82	0.219
1000.99	0.219
1001.15	0.219
1001.32	0.218
1001.49	0.218
1001.65	0.218
1001.82	0.220
1001.99	0.217
1002.15	0.216
1002.32	0.216
1002.49	0.217
1002.65	0.216
1002.82	0.215
1002.99	0.215
1003.15	0.217
1003.32	0.216
1003.48	0.216
1003.65	0.215
1003.82	0.214
1003.98	0.211
1004.15	0.211
1004.32	0.211
1004.48	0.211
1004.65	0.212
1004.81	0.209
1004.98	0.208
1005.15	0.209
1005.31	0.208
1005.48	0.206
1005.64	0.207
1005.81	0.210
1005.98	0.207
1006.14	0.206
1006.31	0.206
1006.47	0.205
1006.64	0.204
1006.81	0.203
1006.97	0.204
1007.14	0.204
1007.30	0.205
1007.47	0.205
1007.63	0.202
1007.80	0.201
1007.97	0.201
1008.13	0.201
1008.30	0.200
1008.46	0.200
1008.63	0.199
1008.79	0.199
1008.96	0.199
1009.13	0.200
1009.29	0.198
1009.46	0.198
1009.62	0.198
1009.79	0.196
1009.95	0.196
1010.12	0.197
1010.28	0.196
1010.45	0.196
1010.62	0.196
1010.78	0.194
1010.95	0.193
1011.11	0.193
1011.28	0.192
1011.44	0.194
1011.61	0.192
1011.77	0.191
1011.94	0.191
1012.10	0.191
1012.27	0.190
1012.43	0.190
1012.60	0.189
1012.76	0.189
1012.93	0.188
1013.10	0.187
1013.26	0.184
1013.43	0.185
1013.59	0.192
1013.76	0.185
1013.92	0.184
1014.09	0.182
1014.25	0.183
1014.42	0.184
1014.58	0.184
1014.75	0.186
1014.91	0.185
1015.08	0.186
1015.24	0.183
1015.41	0.185
1015.57	0.184
1015.73	0.183
1015.90	0.181
1016.06	0.184
1016.23	0.181
1016.39	0.181
1016.56	0.182
1016.72	0.181
1016.89	0.182
1017.05	0.184
1017.22	0.180
1017.38	0.181
1017.55	0.180
1017.71	0.181
1017.88	0.181
1018.04	0.182
1018.21	0.179
1018.37	0.179
1018.53	0.179
1018.70	0.177
1018.86	0.175
1019.03	0.177
1019.19	0.175
1019.36	0.174
1019.52	0.175
1019.69	0.175
1019.85	0.174
1020.01	0.174
1020.18	0.172
1020.34	0.173
1020.51	0.173
1020.67	0.175
1020.84	0.173
1021.00	0.175
1021.16	0.172
1021.33	0.173
1021.49	0.172
1021.66	0.173
1021.82	0.171
1021.98	0.171
1022.15	0.170
1022.31	0.169
1022.48	0.167
1022.64	0.169
1022.80	0.167
1022.97	0.166
1023.13	0.165
1023.30	0.166
1023.46	0.166
1023.62	0.163
1023.79	0.165
1023.95	0.166
1024.12	0.165
1024.28	0.164
1024.44	0.163
1024.61	0.162
1024.77	0.161
1024.93	0.161
1025.10	0.162
1025.26	0.160
1025.43	0.161
1025.59	0.157
1025.75	0.160
1025.92	0.159
1026.08	0.159
1026.24	0.160
1026.41	0.161
1026.57	0.160
1026.73	0.158
1026.90	0.160
1027.06	0.159
1027.23	0.160
1027.39	0.159
1027.55	0.159
1027.72	0.158
1027.88	0.157
1028.04	0.157
1028.21	0.157
1028.37	0.151
1028.53	0.156
1028.70	0.154
1028.86	0.151
1029.02	0.152
1029.19	0.153
1029.35	0.151
1029.51	0.151
1029.67	0.150
1029.84	0.151
1030.00	0.147
1030.16	0.147
1030.33	0.149
1030.49	0.146
1030.65	0.143
1030.82	0.158
1030.98	0.145
1031.14	0.145
1031.31	0.145
1031.47	0.142
1031.63	0.145
1031.79	0.145
1031.96	0.146
1032.12	0.148
1032.28	0.146
1032.45	0.151
1032.61	0.149
1032.77	0.149
1032.93	0.147
1033.10	0.147
1033.26	0.150
1033.42	0.147
1033.58	0.147
1033.75	0.149
1033.91	0.146
1034.07	0.150
1034.24	0.147
1034.40	0.145
1034.56	0.145
1034.72	0.145
1034.89	0.146
1035.05	0.144
1035.21	0.143
1035.37	0.142
1035.54	0.144
1035.70	0.142
1035.86	0.139
1036.02	0.141
1036.19	0.140
1036.35	0.139
1036.51	0.143
1036.67	0.140
1036.83	0.141
1037.00	0.140
1037.16	0.140
1037.32	0.142
1037.48	0.141
1037.65	0.145
1037.81	0.140
1037.97	0.140
1038.13	0.139
1038.29	0.137
1038.46	0.134
1038.62	0.137
1038.78	0.134
1038.94	0.130
1039.10	0.133
1039.27	0.129
1039.43	0.132
1039.59	0.132
1039.75	0.132
1039.91	0.131
1040.08	0.131
1040.24	0.134
1040.40	0.135
1040.56	0.134
1040.72	0.130
1040.89	0.132
1041.05	0.134
1041.21	0.132
1041.37	0.129
1041.53	0.135
1041.69	0.132
1041.86	0.131
1042.02	0.129
1042.18	0.129
1042.34	0.130
1042.50	0.134
1042.66	0.132
1042.83	0.131
1042.99	0.134
1043.15	0.130
1043.31	0.131
1043.47	0.136
1043.63	0.133
1043.79	0.133
1043.96	0.134
1044.12	0.138
1044.28	0.135
1044.44	0.138
1044.60	0.132
1044.76	0.129
1044.92	0.131
1045.09	0.133
1045.25	0.130
1045.41	0.131
1045.57	0.127
1045.73	0.127
1045.89	0.127
1046.05	0.129
1046.21	0.130
1046.38	0.131
1046.54	0.138
1046.70	0.121
1046.86	0.127
>>>>>End Processed Spectral Data<<<<<
