SpectraSuite Data File
++++++++++++++++++++++++++++++++++++
Date: Mon May 20 12:13:00 CDT 2013
User: Students
Dark Spectrum Present: Yes
Reference Spectrum Present: Yes
Number of Sampled Component Spectra: 1
Spectrometers: USB4H00887
Integration Time (usec): 60000 (USB4H00887)
Spectra Averaged: 5 (USB4H00887)
Boxcar Smoothing: 5 (USB4H00887)
Correct for Electrical Dark: No (USB4H00887)
Strobe/Lamp Enabled: No (USB4H00887)
Correct for Detector Non-linearity: No (USB4H00887)
Correct for Stray Light: No (USB4H00887)
Number of Pixels in Processed Spectrum: 3648
>>>>>Begin Processed Spectral Data<<<<<
345.83	1.176
346.05	1.176
346.26	1.176
346.48	-0.028
346.70	0.422
346.92	-0.032
347.14	0.012
347.35	0.040
347.57	0.278
347.79	-0.185
348.01	-0.141
348.23	-0.282
348.44	-0.000
348.66	0.178
348.88	-0.238
349.10	-0.033
349.32	0.006
349.53	0.021
349.75	0.071
349.97	0.041
350.19	0.060
350.41	0.050
350.62	-0.162
350.84	0.016
351.06	0.028
351.28	0.018
351.50	-0.036
351.71	0.052
351.93	0.010
352.15	0.008
352.37	0.079
352.58	0.015
352.80	0.025
353.02	0.033
353.24	0.029
353.46	0.075
353.67	0.035
353.89	-0.002
354.11	0.000
354.33	0.017
354.54	0.030
354.76	0.037
354.98	0.012
355.20	0.057
355.41	0.056
355.63	0.116
355.85	0.052
356.07	0.519
356.28	0.067
356.50	0.108
356.72	0.047
356.94	0.137
357.15	0.233
357.37	-0.000
357.59	0.123
357.81	0.060
358.02	0.111
358.24	0.089
358.46	0.195
358.68	0.185
358.89	0.107
359.11	-0.000
359.33	0.085
359.55	-0.506
359.76	0.114
359.98	0.107
360.20	0.106
360.42	0.082
360.63	0.093
360.85	0.048
361.07	0.276
361.29	0.045
361.50	0.139
361.72	0.075
361.94	0.265
362.15	0.129
362.37	0.081
362.59	0.093
362.81	0.143
363.02	0.221
363.24	0.419
363.46	0.233
363.68	0.307
363.89	0.200
364.11	0.240
364.33	0.327
364.54	0.168
364.76	0.210
364.98	0.220
365.20	0.271
365.41	0.159
365.63	0.177
365.85	0.115
366.06	0.354
366.28	0.298
366.50	0.176
366.71	0.079
366.93	0.120
367.15	0.123
367.37	0.107
367.58	0.138
367.80	0.180
368.02	0.471
368.23	0.149
368.45	0.143
368.67	0.122
368.88	0.129
369.10	-0.000
369.32	0.131
369.53	0.081
369.75	0.109
369.97	0.268
370.19	0.162
370.40	0.076
370.62	0.173
370.84	0.090
371.05	0.640
371.27	0.142
371.49	0.188
371.70	0.182
371.92	0.269
372.14	0.136
372.35	0.144
372.57	0.159
372.79	0.428
373.00	0.111
373.22	0.180
373.44	0.145
373.65	0.127
373.87	0.145
374.09	0.753
374.30	0.124
374.52	0.150
374.74	0.092
374.95	0.357
375.17	0.117
375.39	-0.000
375.60	0.115
375.82	0.210
376.04	0.086
376.25	0.094
376.47	0.068
376.68	0.150
376.90	0.081
377.12	0.180
377.33	0.106
377.55	0.241
377.77	0.161
377.98	0.239
378.20	0.143
378.42	0.185
378.63	0.244
378.85	-0.000
379.07	0.155
379.28	0.577
379.50	0.366
379.71	0.186
379.93	0.124
380.15	0.157
380.36	0.230
380.58	0.162
380.80	0.453
381.01	0.160
381.23	0.122
381.44	0.134
381.66	0.159
381.88	0.181
382.09	-0.086
382.31	0.128
382.53	0.132
382.74	0.650
382.96	0.178
383.17	0.140
383.39	0.164
383.61	0.220
383.82	0.173
384.04	0.206
384.25	0.243
384.47	0.217
384.69	0.226
384.90	0.213
385.12	0.501
385.33	0.317
385.55	0.245
385.77	0.406
385.98	0.206
386.20	0.259
386.41	0.225
386.63	0.269
386.85	0.229
387.06	0.301
387.28	0.493
387.49	0.315
387.71	0.220
387.93	0.188
388.14	0.570
388.36	0.222
388.57	0.203
388.79	0.238
389.01	-0.000
389.22	0.287
389.44	0.237
389.65	0.192
389.87	0.187
390.08	0.217
390.30	0.177
390.52	0.378
390.73	0.403
390.95	0.284
391.16	0.267
391.38	-0.000
391.59	0.316
391.81	0.271
392.03	0.261
392.24	0.307
392.46	0.261
392.67	0.233
392.89	0.293
393.10	0.465
393.32	0.307
393.53	0.351
393.75	0.221
393.97	0.250
394.18	0.333
394.40	0.277
394.61	0.293
394.83	0.254
395.04	0.310
395.26	0.219
395.47	0.321
395.69	0.265
395.91	0.291
396.12	0.351
396.34	0.336
396.55	0.221
396.77	0.332
396.98	1.552
397.20	0.388
397.41	0.419
397.63	0.292
397.84	0.260
398.06	0.257
398.27	0.258
398.49	0.307
398.71	0.228
398.92	0.267
399.14	0.355
399.35	0.459
399.57	0.439
399.78	0.288
400.00	0.277
400.21	0.350
400.43	0.282
400.64	0.302
400.86	0.683
401.07	0.388
401.29	0.338
401.50	0.364
401.72	0.512
401.93	0.308
402.15	0.386
402.36	0.338
402.58	0.276
402.79	0.295
403.01	0.476
403.22	0.380
403.44	0.257
403.65	0.413
403.87	0.459
404.08	0.372
404.30	0.641
404.51	0.338
404.73	0.436
404.94	0.367
405.16	0.385
405.37	0.301
405.59	0.554
405.80	0.332
406.02	0.400
406.23	0.393
406.45	0.441
406.66	0.462
406.88	0.301
407.09	0.431
407.31	0.358
407.52	0.444
407.74	0.368
407.95	0.441
408.17	0.403
408.38	0.434
408.60	0.288
408.81	0.486
409.03	0.360
409.24	0.365
409.45	0.438
409.67	0.424
409.88	0.373
410.10	0.459
410.31	0.370
410.53	0.362
410.74	0.504
410.96	0.485
411.17	0.509
411.39	0.402
411.60	0.365
411.82	0.430
412.03	0.411
412.24	0.400
412.46	0.596
412.67	0.489
412.89	0.477
413.10	0.466
413.32	0.424
413.53	0.488
413.75	0.493
413.96	0.376
414.17	0.496
414.39	0.500
414.60	0.406
414.82	0.523
415.03	0.405
415.25	0.446
415.46	0.311
415.68	0.436
415.89	0.786
416.10	0.647
416.32	0.358
416.53	0.411
416.75	0.390
416.96	0.468
417.18	0.410
417.39	0.404
417.60	0.412
417.82	0.604
418.03	0.517
418.25	0.434
418.46	0.448
418.67	0.416
418.89	0.456
419.10	0.478
419.32	0.651
419.53	0.585
419.75	0.485
419.96	0.427
420.17	0.531
420.39	0.503
420.60	0.517
420.82	0.643
421.03	0.521
421.24	0.441
421.46	0.485
421.67	0.528
421.89	0.468
422.10	0.509
422.31	0.498
422.53	0.715
422.74	0.524
422.96	0.416
423.17	0.471
423.38	0.578
423.60	0.483
423.81	0.619
424.03	0.522
424.24	0.575
424.45	0.576
424.67	0.585
424.88	0.511
425.09	0.556
425.31	0.513
425.52	0.538
425.74	0.607
425.95	0.651
426.16	0.498
426.38	0.581
426.59	0.528
426.80	0.597
427.02	0.621
427.23	0.493
427.45	0.648
427.66	0.641
427.87	0.493
428.09	0.516
428.30	0.571
428.51	0.550
428.73	0.604
428.94	0.546
429.15	0.536
429.37	0.513
429.58	0.534
429.79	0.495
430.01	0.583
430.22	0.584
430.44	0.611
430.65	0.552
430.86	0.595
431.08	0.576
431.29	0.522
431.50	0.632
431.72	0.867
431.93	0.699
432.14	0.517
432.36	0.572
432.57	0.586
432.78	0.601
433.00	0.552
433.21	0.551
433.42	0.693
433.64	0.607
433.85	0.679
434.06	0.536
434.28	0.567
434.49	0.578
434.70	0.590
434.92	0.600
435.13	0.648
435.34	0.660
435.56	0.620
435.77	0.625
435.98	0.795
436.20	0.663
436.41	0.577
436.62	0.567
436.83	0.660
437.05	0.754
437.26	0.651
437.47	0.576
437.69	0.637
437.90	0.582
438.11	0.566
438.33	0.629
438.54	0.646
438.75	0.829
438.97	0.821
439.18	0.604
439.39	0.633
439.60	0.685
439.82	0.641
440.03	0.588
440.24	0.870
440.46	0.648
440.67	0.621
440.88	0.664
441.10	0.622
441.31	0.621
441.52	0.673
441.73	0.749
441.95	0.657
442.16	0.607
442.37	0.964
442.58	0.600
442.80	0.586
443.01	0.758
443.22	0.692
443.44	0.588
443.65	0.691
443.86	0.687
444.07	0.740
444.29	0.646
444.50	0.827
444.71	0.622
444.92	0.584
445.14	0.744
445.35	0.786
445.56	0.618
445.78	0.736
445.99	0.727
446.20	0.626
446.41	0.705
446.63	0.712
446.84	0.670
447.05	0.672
447.26	0.807
447.48	0.690
447.69	0.658
447.90	0.763
448.11	0.663
448.33	0.698
448.54	0.720
448.75	0.753
448.96	0.758
449.18	0.794
449.39	0.710
449.60	0.685
449.81	0.827
450.03	0.708
450.24	0.762
450.45	0.727
450.66	0.707
450.87	0.738
451.09	0.692
451.30	0.667
451.51	0.752
451.72	0.752
451.94	0.780
452.15	0.848
452.36	0.705
452.57	0.726
452.78	0.724
453.00	0.753
453.21	0.710
453.42	0.681
453.63	0.785
453.85	0.743
454.06	0.744
454.27	0.881
454.48	0.783
454.69	0.705
454.91	0.778
455.12	0.679
455.33	0.765
455.54	0.781
455.75	0.750
455.97	0.771
456.18	0.760
456.39	0.769
456.60	0.792
456.81	0.727
457.03	0.743
457.24	0.740
457.45	0.831
457.66	0.774
457.87	0.738
458.09	0.762
458.30	0.677
458.51	0.806
458.72	0.822
458.93	0.829
459.15	0.731
459.36	0.793
459.57	0.820
459.78	0.862
459.99	0.771
460.20	0.731
460.42	0.812
460.63	0.771
460.84	0.750
461.05	0.777
461.26	0.840
461.47	0.754
461.69	0.809
461.90	0.843
462.11	0.798
462.32	0.850
462.53	0.780
462.74	0.877
462.96	0.755
463.17	0.750
463.38	0.787
463.59	0.895
463.80	0.744
464.01	0.773
464.23	0.857
464.44	0.819
464.65	0.826
464.86	0.851
465.07	0.861
465.28	0.824
465.49	0.850
465.71	0.805
465.92	0.844
466.13	0.894
466.34	0.820
466.55	0.874
466.76	0.834
466.97	0.866
467.19	0.855
467.40	0.894
467.61	0.898
467.82	0.809
468.03	0.789
468.24	0.862
468.45	0.895
468.66	0.877
468.88	0.888
469.09	0.896
469.30	0.941
469.51	0.863
469.72	0.901
469.93	0.869
470.14	0.849
470.35	0.944
470.57	0.891
470.78	0.831
470.99	0.969
471.20	0.899
471.41	0.855
471.62	0.911
471.83	0.885
472.04	0.916
472.25	0.967
472.47	0.879
472.68	0.883
472.89	0.887
473.10	0.927
473.31	0.876
473.52	0.939
473.73	0.961
473.94	0.878
474.15	0.899
474.36	0.898
474.57	0.923
474.79	0.898
475.00	0.902
475.21	0.884
475.42	0.981
475.63	0.876
475.84	0.911
476.05	0.915
476.26	0.881
476.47	0.915
476.68	0.965
476.89	0.888
477.10	0.938
477.32	0.924
477.53	0.981
477.74	0.899
477.95	0.947
478.16	0.894
478.37	0.940
478.58	0.945
478.79	0.960
479.00	0.958
479.21	0.915
479.42	0.957
479.63	0.958
479.84	0.921
480.05	0.920
480.26	0.950
480.47	0.970
480.69	0.971
480.90	0.938
481.11	0.933
481.32	0.998
481.53	0.941
481.74	0.994
481.95	0.961
482.16	0.980
482.37	0.990
482.58	0.950
482.79	0.970
483.00	0.998
483.21	0.943
483.42	0.916
483.63	0.995
483.84	1.019
484.05	1.010
484.26	0.976
484.47	0.973
484.68	0.935
484.89	0.943
485.10	0.992
485.31	0.971
485.52	0.975
485.73	0.977
485.94	1.018
486.15	0.963
486.37	0.977
486.58	0.945
486.79	0.956
487.00	1.004
487.21	0.992
487.42	0.985
487.63	0.991
487.84	1.012
488.05	1.006
488.26	0.967
488.47	0.974
488.68	1.005
488.89	0.981
489.10	0.979
489.31	0.989
489.52	1.025
489.73	0.991
489.94	1.027
490.15	0.980
490.36	1.023
490.57	0.971
490.78	0.956
490.99	0.995
491.20	1.074
491.41	1.026
491.62	0.970
491.83	0.999
492.04	0.995
492.25	1.003
492.45	1.005
492.66	1.031
492.87	1.023
493.08	1.008
493.29	0.989
493.50	0.981
493.71	0.990
493.92	0.984
494.13	1.000
494.34	1.022
494.55	1.027
494.76	1.059
494.97	1.048
495.18	1.011
495.39	1.028
495.60	0.980
495.81	0.982
496.02	1.001
496.23	0.996
496.44	1.031
496.65	1.018
496.86	1.024
497.07	1.051
497.28	1.046
497.49	0.991
497.70	0.992
497.91	1.011
498.12	0.990
498.32	1.031
498.53	1.018
498.74	1.009
498.95	1.033
499.16	0.988
499.37	0.990
499.58	1.001
499.79	1.033
500.00	1.028
500.21	1.058
500.42	1.003
500.63	1.005
500.84	1.022
501.05	0.999
501.26	1.029
501.46	1.068
501.67	1.030
501.88	1.032
502.09	1.004
502.30	1.013
502.51	1.063
502.72	1.019
502.93	1.033
503.14	1.057
503.35	1.027
503.56	1.022
503.77	1.055
503.97	1.031
504.18	1.030
504.39	1.066
504.60	1.035
504.81	1.062
505.02	1.053
505.23	1.058
505.44	1.036
505.65	1.044
505.86	1.026
506.07	1.092
506.27	1.050
506.48	1.055
506.69	1.040
506.90	1.062
507.11	1.059
507.32	1.031
507.53	1.037
507.74	1.031
507.95	1.046
508.15	1.051
508.36	1.057
508.57	1.068
508.78	1.054
508.99	1.052
509.20	1.024
509.41	1.045
509.62	1.034
509.82	1.031
510.03	1.040
510.24	1.039
510.45	1.061
510.66	1.054
510.87	1.050
511.08	1.006
511.29	1.047
511.49	1.027
511.70	1.079
511.91	1.012
512.12	1.010
512.33	1.047
512.54	1.063
512.75	1.044
512.95	1.069
513.16	1.058
513.37	1.037
513.58	1.077
513.79	1.038
514.00	1.044
514.20	1.060
514.41	1.048
514.62	1.012
514.83	1.051
515.04	1.042
515.25	1.021
515.46	1.034
515.66	1.036
515.87	1.051
516.08	1.021
516.29	1.044
516.50	1.026
516.71	1.021
516.91	1.033
517.12	1.053
517.33	1.037
517.54	1.026
517.75	1.029
517.95	1.042
518.16	1.051
518.37	1.015
518.58	1.021
518.79	0.996
519.00	1.027
519.20	1.036
519.41	1.008
519.62	1.029
519.83	1.037
520.04	1.000
520.24	0.997
520.45	1.007
520.66	1.031
520.87	0.994
521.08	0.990
521.28	0.995
521.49	1.011
521.70	0.979
521.91	0.991
522.12	0.973
522.32	0.996
522.53	0.976
522.74	0.966
522.95	0.976
523.16	0.978
523.36	0.990
523.57	0.971
523.78	0.965
523.99	0.973
524.20	0.967
524.40	0.981
524.61	0.986
524.82	0.962
525.03	0.968
525.23	0.969
525.44	0.953
525.65	0.953
525.86	0.976
526.06	0.948
526.27	0.948
526.48	0.958
526.69	0.938
526.90	0.944
527.10	0.980
527.31	0.933
527.52	0.927
527.73	0.918
527.93	0.929
528.14	0.932
528.35	0.921
528.56	0.922
528.76	0.916
528.97	0.905
529.18	0.895
529.39	0.894
529.59	0.897
529.80	0.926
530.01	0.900
530.22	0.896
530.42	0.866
530.63	0.885
530.84	0.863
531.05	0.876
531.25	0.880
531.46	0.872
531.67	0.851
531.88	0.870
532.08	0.863
532.29	0.858
532.50	0.852
532.70	0.846
532.91	0.836
533.12	0.838
533.33	0.861
533.53	0.831
533.74	0.830
533.95	0.836
534.15	0.823
534.36	0.823
534.57	0.806
534.78	0.806
534.98	0.816
535.19	0.786
535.40	0.787
535.60	0.805
535.81	0.785
536.02	0.789
536.23	0.781
536.43	0.784
536.64	0.772
536.85	0.780
537.05	0.790
537.26	0.767
537.47	0.770
537.67	0.759
537.88	0.754
538.09	0.763
538.30	0.752
538.50	0.741
538.71	0.752
538.92	0.738
539.12	0.735
539.33	0.729
539.54	0.729
539.74	0.733
539.95	0.724
540.16	0.722
540.36	0.712
540.57	0.711
540.78	0.705
540.98	0.704
541.19	0.702
541.40	0.690
541.60	0.700
541.81	0.696
542.02	0.697
542.22	0.687
542.43	0.682
542.64	0.678
542.84	0.678
543.05	0.670
543.26	0.669
543.46	0.672
543.67	0.671
543.88	0.666
544.08	0.656
544.29	0.649
544.50	0.649
544.70	0.650
544.91	0.641
545.12	0.643
545.32	0.638
545.53	0.642
545.74	0.630
545.94	0.627
546.15	0.624
546.35	0.620
546.56	0.618
546.77	0.615
546.97	0.613
547.18	0.605
547.39	0.604
547.59	0.602
547.80	0.599
548.01	0.604
548.21	0.599
548.42	0.591
548.62	0.591
548.83	0.587
549.04	0.584
549.24	0.577
549.45	0.576
549.65	0.573
549.86	0.568
550.07	0.567
550.27	0.565
550.48	0.573
550.69	0.558
550.89	0.557
551.10	0.553
551.30	0.551
551.51	0.550
551.72	0.540
551.92	0.541
552.13	0.541
552.33	0.541
552.54	0.535
552.75	0.529
552.95	0.531
553.16	0.527
553.36	0.525
553.57	0.524
553.78	0.521
553.98	0.521
554.19	0.511
554.39	0.508
554.60	0.511
554.80	0.511
555.01	0.503
555.22	0.504
555.42	0.501
555.63	0.495
555.83	0.498
556.04	0.491
556.25	0.494
556.45	0.486
556.66	0.484
556.86	0.487
557.07	0.484
557.27	0.483
557.48	0.478
557.68	0.475
557.89	0.476
558.10	0.473
558.30	0.470
558.51	0.468
558.71	0.466
558.92	0.461
559.12	0.463
559.33	0.466
559.54	0.461
559.74	0.456
559.95	0.453
560.15	0.453
560.36	0.450
560.56	0.445
560.77	0.445
560.97	0.444
561.18	0.439
561.38	0.438
561.59	0.441
561.79	0.436
562.00	0.435
562.21	0.431
562.41	0.430
562.62	0.430
562.82	0.427
563.03	0.424
563.23	0.423
563.44	0.423
563.64	0.419
563.85	0.420
564.05	0.413
564.26	0.412
564.46	0.411
564.67	0.412
564.87	0.408
565.08	0.405
565.28	0.405
565.49	0.405
565.69	0.403
565.90	0.400
566.10	0.402
566.31	0.395
566.51	0.397
566.72	0.399
566.92	0.392
567.13	0.391
567.33	0.389
567.54	0.388
567.74	0.387
567.95	0.383
568.15	0.384
568.36	0.384
568.56	0.382
568.77	0.378
568.97	0.376
569.18	0.376
569.38	0.375
569.59	0.376
569.79	0.373
570.00	0.371
570.20	0.370
570.41	0.368
570.61	0.366
570.82	0.367
571.02	0.363
571.23	0.365
571.43	0.361
571.64	0.359
571.84	0.358
572.05	0.356
572.25	0.356
572.45	0.354
572.66	0.351
572.86	0.350
573.07	0.349
573.27	0.348
573.48	0.347
573.68	0.343
573.89	0.342
574.09	0.343
574.30	0.341
574.50	0.339
574.70	0.339
574.91	0.336
575.11	0.336
575.32	0.335
575.52	0.331
575.73	0.331
575.93	0.331
576.14	0.330
576.34	0.327
576.54	0.326
576.75	0.325
576.95	0.324
577.16	0.322
577.36	0.321
577.57	0.320
577.77	0.319
577.97	0.316
578.18	0.317
578.38	0.313
578.59	0.312
578.79	0.310
579.00	0.311
579.20	0.309
579.40	0.309
579.61	0.308
579.81	0.308
580.02	0.306
580.22	0.305
580.42	0.304
580.63	0.305
580.83	0.304
581.04	0.301
581.24	0.300
581.45	0.299
581.65	0.298
581.85	0.297
582.06	0.294
582.26	0.294
582.47	0.293
582.67	0.293
582.87	0.291
583.08	0.289
583.28	0.290
583.48	0.289
583.69	0.286
583.89	0.286
584.10	0.287
584.30	0.286
584.50	0.284
584.71	0.283
584.91	0.282
585.12	0.281
585.32	0.281
585.52	0.279
585.73	0.277
585.93	0.276
586.13	0.275
586.34	0.274
586.54	0.273
586.75	0.272
586.95	0.271
587.15	0.271
587.36	0.270
587.56	0.269
587.76	0.268
587.97	0.268
588.17	0.266
588.37	0.266
588.58	0.266
588.78	0.263
588.98	0.263
589.19	0.262
589.39	0.260
589.60	0.262
589.80	0.259
590.00	0.258
590.21	0.257
590.41	0.256
590.61	0.256
590.82	0.255
591.02	0.255
591.22	0.253
591.43	0.253
591.63	0.251
591.83	0.250
592.04	0.249
592.24	0.249
592.44	0.247
592.65	0.246
592.85	0.246
593.05	0.246
593.26	0.245
593.46	0.244
593.66	0.244
593.86	0.242
594.07	0.241
594.27	0.240
594.47	0.239
594.68	0.239
594.88	0.240
595.08	0.239
595.29	0.239
595.49	0.236
595.69	0.236
595.90	0.236
596.10	0.236
596.30	0.235
596.50	0.234
596.71	0.234
596.91	0.233
597.11	0.233
597.32	0.233
597.52	0.231
597.72	0.231
597.93	0.230
598.13	0.228
598.33	0.229
598.53	0.228
598.74	0.228
598.94	0.227
599.14	0.226
599.35	0.226
599.55	0.225
599.75	0.224
599.95	0.224
600.16	0.224
600.36	0.222
600.56	0.223
600.76	0.221
600.97	0.220
601.17	0.220
601.37	0.220
601.58	0.219
601.78	0.218
601.98	0.217
602.18	0.216
602.39	0.216
602.59	0.216
602.79	0.215
602.99	0.215
603.20	0.213
603.40	0.213
603.60	0.213
603.80	0.212
604.01	0.212
604.21	0.211
604.41	0.211
604.61	0.210
604.82	0.209
605.02	0.210
605.22	0.209
605.42	0.209
605.62	0.208
605.83	0.207
606.03	0.206
606.23	0.206
606.43	0.206
606.64	0.205
606.84	0.205
607.04	0.204
607.24	0.204
607.45	0.204
607.65	0.203
607.85	0.204
608.05	0.202
608.25	0.202
608.46	0.201
608.66	0.202
608.86	0.201
609.06	0.199
609.26	0.199
609.47	0.199
609.67	0.198
609.87	0.199
610.07	0.198
610.28	0.196
610.48	0.197
610.68	0.197
610.88	0.195
611.08	0.196
611.29	0.194
611.49	0.194
611.69	0.194
611.89	0.192
612.09	0.192
612.29	0.192
612.50	0.191
612.70	0.191
612.90	0.190
613.10	0.189
613.30	0.189
613.51	0.189
613.71	0.188
613.91	0.192
614.11	0.188
614.31	0.187
614.51	0.187
614.72	0.187
614.92	0.186
615.12	0.186
615.32	0.186
615.52	0.186
615.72	0.186
615.93	0.186
616.13	0.185
616.33	0.185
616.53	0.185
616.73	0.185
616.93	0.183
617.14	0.184
617.34	0.184
617.54	0.184
617.74	0.184
617.94	0.182
618.14	0.182
618.34	0.181
618.55	0.181
618.75	0.181
618.95	0.181
619.15	0.181
619.35	0.180
619.55	0.179
619.75	0.179
619.96	0.179
620.16	0.179
620.36	0.179
620.56	0.179
620.76	0.178
620.96	0.178
621.16	0.178
621.36	0.177
621.57	0.177
621.77	0.178
621.97	0.177
622.17	0.176
622.37	0.176
622.57	0.176
622.77	0.175
622.97	0.174
623.18	0.174
623.38	0.174
623.58	0.174
623.78	0.174
623.98	0.173
624.18	0.173
624.38	0.173
624.58	0.173
624.78	0.173
624.98	0.173
625.19	0.173
625.39	0.173
625.59	0.172
625.79	0.172
625.99	0.171
626.19	0.171
626.39	0.171
626.59	0.171
626.79	0.170
626.99	0.170
627.19	0.170
627.40	0.170
627.60	0.169
627.80	0.169
628.00	0.169
628.20	0.168
628.40	0.168
628.60	0.169
628.80	0.168
629.00	0.168
629.20	0.167
629.40	0.167
629.60	0.165
629.80	0.166
630.00	0.166
630.20	0.165
630.41	0.165
630.61	0.165
630.81	0.164
631.01	0.164
631.21	0.164
631.41	0.164
631.61	0.164
631.81	0.164
632.01	0.164
632.21	0.164
632.41	0.163
632.61	0.163
632.81	0.163
633.01	0.163
633.21	0.162
633.41	0.163
633.61	0.161
633.81	0.161
634.01	0.161
634.21	0.161
634.41	0.160
634.61	0.160
634.81	0.160
635.01	0.160
635.22	0.160
635.42	0.160
635.62	0.160
635.82	0.160
636.02	0.160
636.22	0.159
636.42	0.159
636.62	0.159
636.82	0.158
637.02	0.158
637.22	0.158
637.42	0.157
637.62	0.157
637.82	0.157
638.02	0.156
638.22	0.155
638.42	0.155
638.62	0.155
638.82	0.155
639.02	0.155
639.22	0.155
639.42	0.154
639.62	0.154
639.82	0.154
640.02	0.154
640.22	0.154
640.42	0.154
640.62	0.153
640.82	0.153
641.02	0.152
641.22	0.153
641.42	0.152
641.61	0.152
641.81	0.152
642.01	0.152
642.21	0.152
642.41	0.152
642.61	0.151
642.81	0.151
643.01	0.151
643.21	0.150
643.41	0.151
643.61	0.150
643.81	0.150
644.01	0.149
644.21	0.148
644.41	0.149
644.61	0.148
644.81	0.148
645.01	0.148
645.21	0.148
645.41	0.148
645.61	0.147
645.81	0.147
646.01	0.147
646.21	0.147
646.40	0.147
646.60	0.147
646.80	0.147
647.00	0.146
647.20	0.145
647.40	0.145
647.60	0.146
647.80	0.145
648.00	0.145
648.20	0.145
648.40	0.145
648.60	0.144
648.80	0.144
649.00	0.144
649.20	0.145
649.39	0.144
649.59	0.144
649.79	0.143
649.99	0.143
650.19	0.143
650.39	0.142
650.59	0.142
650.79	0.142
650.99	0.142
651.19	0.142
651.39	0.142
651.58	0.141
651.78	0.141
651.98	0.141
652.18	0.141
652.38	0.140
652.58	0.140
652.78	0.140
652.98	0.139
653.18	0.140
653.38	0.140
653.57	0.140
653.77	0.140
653.97	0.139
654.17	0.139
654.37	0.139
654.57	0.139
654.77	0.139
654.97	0.139
655.16	0.139
655.36	0.139
655.56	0.138
655.76	0.137
655.96	0.138
656.16	0.137
656.36	0.137
656.56	0.136
656.75	0.136
656.95	0.136
657.15	0.136
657.35	0.135
657.55	0.135
657.75	0.135
657.95	0.135
658.14	0.135
658.34	0.135
658.54	0.135
658.74	0.135
658.94	0.134
659.14	0.134
659.34	0.134
659.53	0.133
659.73	0.133
659.93	0.132
660.13	0.132
660.33	0.132
660.53	0.132
660.72	0.132
660.92	0.132
661.12	0.132
661.32	0.132
661.52	0.132
661.72	0.131
661.91	0.131
662.11	0.131
662.31	0.131
662.51	0.131
662.71	0.130
662.90	0.130
663.10	0.129
663.30	0.129
663.50	0.129
663.70	0.128
663.90	0.128
664.09	0.128
664.29	0.128
664.49	0.127
664.69	0.127
664.89	0.127
665.08	0.127
665.28	0.126
665.48	0.126
665.68	0.126
665.88	0.126
666.07	0.126
666.27	0.126
666.47	0.125
666.67	0.125
666.87	0.126
667.06	0.125
667.26	0.125
667.46	0.125
667.66	0.125
667.85	0.125
668.05	0.124
668.25	0.124
668.45	0.124
668.65	0.124
668.84	0.124
669.04	0.123
669.24	0.123
669.44	0.122
669.63	0.122
669.83	0.122
670.03	0.121
670.23	0.120
670.42	0.120
670.62	0.120
670.82	0.120
671.02	0.119
671.22	0.119
671.41	0.119
671.61	0.119
671.81	0.119
672.01	0.119
672.20	0.119
672.40	0.119
672.60	0.119
672.80	0.119
672.99	0.119
673.19	0.118
673.39	0.118
673.58	0.118
673.78	0.118
673.98	0.117
674.18	0.117
674.37	0.117
674.57	0.116
674.77	0.117
674.97	0.117
675.16	0.117
675.36	0.116
675.56	0.116
675.75	0.116
675.95	0.116
676.15	0.116
676.35	0.116
676.54	0.115
676.74	0.115
676.94	0.115
677.13	0.114
677.33	0.114
677.53	0.114
677.73	0.114
677.92	0.113
678.12	0.113
678.32	0.112
678.51	0.112
678.71	0.112
678.91	0.112
679.11	0.111
679.30	0.112
679.50	0.111
679.70	0.111
679.89	0.111
680.09	0.111
680.29	0.111
680.48	0.110
680.68	0.110
680.88	0.110
681.07	0.110
681.27	0.109
681.47	0.109
681.66	0.109
681.86	0.109
682.06	0.109
682.25	0.109
682.45	0.109
682.65	0.109
682.84	0.108
683.04	0.108
683.24	0.108
683.43	0.108
683.63	0.108
683.83	0.108
684.02	0.108
684.22	0.107
684.42	0.107
684.61	0.106
684.81	0.106
685.01	0.106
685.20	0.106
685.40	0.106
685.60	0.106
685.79	0.106
685.99	0.106
686.19	0.105
686.38	0.105
686.58	0.106
686.77	0.106
686.97	0.106
687.17	0.107
687.36	0.106
687.56	0.105
687.76	0.105
687.95	0.105
688.15	0.105
688.34	0.105
688.54	0.105
688.74	0.104
688.93	0.104
689.13	0.103
689.33	0.103
689.52	0.103
689.72	0.103
689.91	0.103
690.11	0.102
690.31	0.102
690.50	0.102
690.70	0.102
690.89	0.101
691.09	0.101
691.29	0.101
691.48	0.101
691.68	0.101
691.87	0.101
692.07	0.101
692.27	0.101
692.46	0.101
692.66	0.101
692.85	0.100
693.05	0.100
693.25	0.100
693.44	0.100
693.64	0.100
693.83	0.100
694.03	0.099
694.22	0.098
694.42	0.099
694.62	0.099
694.81	0.099
695.01	0.099
695.20	0.099
695.40	0.099
695.59	0.099
695.79	0.098
695.99	0.098
696.18	0.098
696.38	0.098
696.57	0.098
696.77	0.097
696.96	0.098
697.16	0.097
697.36	0.097
697.55	0.097
697.75	0.097
697.94	0.097
698.14	0.096
698.33	0.096
698.53	0.096
698.72	0.096
698.92	0.096
699.11	0.096
699.31	0.095
699.51	0.096
699.70	0.095
699.90	0.096
700.09	0.096
700.29	0.095
700.48	0.096
700.68	0.095
700.87	0.095
701.07	0.094
701.26	0.094
701.46	0.094
701.65	0.094
701.85	0.094
702.04	0.094
702.24	0.094
702.43	0.094
702.63	0.093
702.82	0.094
703.02	0.093
703.21	0.093
703.41	0.093
703.60	0.093
703.80	0.093
703.99	0.092
704.19	0.092
704.38	0.092
704.58	0.091
704.77	0.091
704.97	0.091
705.16	0.092
705.36	0.092
705.55	0.092
705.75	0.091
705.94	0.092
706.14	0.092
706.33	0.092
706.53	0.092
706.72	0.092
706.92	0.091
707.11	0.091
707.31	0.091
707.50	0.091
707.70	0.091
707.89	0.091
708.09	0.091
708.28	0.091
708.48	0.091
708.67	0.091
708.86	0.091
709.06	0.091
709.25	0.091
709.45	0.090
709.64	0.090
709.84	0.090
710.03	0.090
710.23	0.090
710.42	0.090
710.62	0.090
710.81	0.089
711.00	0.089
711.20	0.089
711.39	0.088
711.59	0.088
711.78	0.088
711.98	0.088
712.17	0.088
712.37	0.088
712.56	0.088
712.75	0.088
712.95	0.089
713.14	0.089
713.34	0.089
713.53	0.089
713.73	0.089
713.92	0.089
714.11	0.089
714.31	0.089
714.50	0.089
714.70	0.089
714.89	0.089
715.08	0.089
715.28	0.089
715.47	0.088
715.67	0.088
715.86	0.088
716.06	0.089
716.25	0.088
716.44	0.088
716.64	0.088
716.83	0.088
717.03	0.087
717.22	0.087
717.41	0.087
717.61	0.087
717.80	0.087
717.99	0.087
718.19	0.087
718.38	0.087
718.58	0.087
718.77	0.087
718.96	0.086
719.16	0.087
719.35	0.086
719.55	0.086
719.74	0.086
719.93	0.086
720.13	0.085
720.32	0.085
720.51	0.085
720.71	0.085
720.90	0.085
721.10	0.085
721.29	0.085
721.48	0.085
721.68	0.085
721.87	0.086
722.06	0.086
722.26	0.086
722.45	0.086
722.64	0.086
722.84	0.086
723.03	0.086
723.22	0.086
723.42	0.086
723.61	0.086
723.80	0.086
724.00	0.085
724.19	0.085
724.38	0.085
724.58	0.085
724.77	0.085
724.96	0.085
725.16	0.085
725.35	0.085
725.54	0.085
725.74	0.085
725.93	0.085
726.12	0.086
726.32	0.086
726.51	0.086
726.70	0.086
726.90	0.086
727.09	0.085
727.28	0.085
727.48	0.085
727.67	0.085
727.86	0.085
728.06	0.085
728.25	0.085
728.44	0.085
728.64	0.085
728.83	0.085
729.02	0.084
729.21	0.085
729.41	0.085
729.60	0.085
729.79	0.085
729.99	0.085
730.18	0.085
730.37	0.085
730.56	0.084
730.76	0.084
730.95	0.084
731.14	0.085
731.34	0.084
731.53	0.085
731.72	0.085
731.91	0.085
732.11	0.085
732.30	0.085
732.49	0.085
732.69	0.086
732.88	0.086
733.07	0.086
733.26	0.086
733.46	0.086
733.65	0.085
733.84	0.085
734.03	0.085
734.23	0.085
734.42	0.085
734.61	0.085
734.80	0.085
735.00	0.085
735.19	0.085
735.38	0.085
735.57	0.085
735.77	0.086
735.96	0.086
736.15	0.086
736.34	0.086
736.54	0.086
736.73	0.086
736.92	0.086
737.11	0.086
737.31	0.086
737.50	0.086
737.69	0.086
737.88	0.086
738.07	0.086
738.27	0.086
738.46	0.086
738.65	0.086
738.84	0.086
739.04	0.086
739.23	0.086
739.42	0.086
739.61	0.086
739.80	0.086
740.00	0.086
740.19	0.086
740.38	0.086
740.57	0.085
740.76	0.085
740.96	0.085
741.15	0.085
741.34	0.085
741.53	0.085
741.72	0.085
741.92	0.084
742.11	0.085
742.30	0.085
742.49	0.085
742.68	0.085
742.88	0.085
743.07	0.085
743.26	0.085
743.45	0.085
743.64	0.084
743.84	0.084
744.03	0.084
744.22	0.084
744.41	0.083
744.60	0.083
744.79	0.083
744.99	0.083
745.18	0.083
745.37	0.082
745.56	0.083
745.75	0.083
745.94	0.083
746.14	0.083
746.33	0.083
746.52	0.083
746.71	0.083
746.90	0.083
747.09	0.083
747.28	0.082
747.48	0.083
747.67	0.082
747.86	0.082
748.05	0.082
748.24	0.082
748.43	0.082
748.62	0.082
748.82	0.082
749.01	0.082
749.20	0.082
749.39	0.082
749.58	0.082
749.77	0.082
749.96	0.082
750.16	0.082
750.35	0.082
750.54	0.082
750.73	0.082
750.92	0.082
751.11	0.082
751.30	0.083
751.49	0.083
751.68	0.083
751.88	0.083
752.07	0.082
752.26	0.082
752.45	0.082
752.64	0.082
752.83	0.082
753.02	0.082
753.21	0.082
753.40	0.081
753.60	0.082
753.79	0.081
753.98	0.081
754.17	0.081
754.36	0.081
754.55	0.081
754.74	0.081
754.93	0.081
755.12	0.081
755.31	0.081
755.50	0.081
755.70	0.080
755.89	0.080
756.08	0.080
756.27	0.080
756.46	0.080
756.65	0.080
756.84	0.080
757.03	0.080
757.22	0.079
757.41	0.079
757.60	0.079
757.79	0.079
757.98	0.080
758.17	0.080
758.36	0.080
758.56	0.079
758.75	0.079
758.94	0.079
759.13	0.079
759.32	0.079
759.51	0.079
759.70	0.080
759.89	0.080
760.08	0.080
760.27	0.079
760.46	0.079
760.65	0.079
760.84	0.079
761.03	0.079
761.22	0.079
761.41	0.079
761.60	0.079
761.79	0.079
761.98	0.079
762.17	0.078
762.36	0.078
762.55	0.078
762.74	0.078
762.93	0.078
763.12	0.077
763.31	0.077
763.50	0.077
763.69	0.077
763.88	0.077
764.07	0.077
764.26	0.078
764.45	0.078
764.64	0.078
764.83	0.078
765.02	0.078
765.21	0.078
765.40	0.078
765.59	0.078
765.78	0.078
765.97	0.078
766.16	0.078
766.35	0.078
766.54	0.078
766.73	0.078
766.92	0.078
767.11	0.078
767.30	0.078
767.49	0.078
767.68	0.078
767.87	0.078
768.06	0.078
768.25	0.078
768.44	0.078
768.63	0.077
768.82	0.077
769.01	0.077
769.20	0.077
769.39	0.077
769.58	0.077
769.77	0.077
769.96	0.077
770.15	0.077
770.34	0.077
770.53	0.077
770.72	0.077
770.91	0.077
771.10	0.077
771.29	0.077
771.47	0.076
771.66	0.076
771.85	0.076
772.04	0.076
772.23	0.076
772.42	0.076
772.61	0.076
772.80	0.076
772.99	0.076
773.18	0.076
773.37	0.076
773.56	0.076
773.75	0.076
773.94	0.076
774.13	0.076
774.31	0.076
774.50	0.076
774.69	0.076
774.88	0.076
775.07	0.076
775.26	0.076
775.45	0.075
775.64	0.075
775.83	0.074
776.02	0.074
776.21	0.074
776.40	0.074
776.58	0.075
776.77	0.075
776.96	0.075
777.15	0.075
777.34	0.075
777.53	0.076
777.72	0.076
777.91	0.076
778.10	0.076
778.28	0.076
778.47	0.076
778.66	0.075
778.85	0.075
779.04	0.075
779.23	0.075
779.42	0.075
779.61	0.074
779.79	0.074
779.98	0.074
780.17	0.074
780.36	0.073
780.55	0.073
780.74	0.073
780.93	0.073
781.12	0.073
781.30	0.073
781.49	0.073
781.68	0.074
781.87	0.074
782.06	0.074
782.25	0.074
782.44	0.074
782.62	0.074
782.81	0.074
783.00	0.074
783.19	0.074
783.38	0.074
783.57	0.073
783.75	0.073
783.94	0.073
784.13	0.073
784.32	0.073
784.51	0.073
784.70	0.073
784.88	0.073
785.07	0.073
785.26	0.073
785.45	0.073
785.64	0.073
785.83	0.073
786.01	0.073
786.20	0.073
786.39	0.073
786.58	0.073
786.77	0.073
786.95	0.073
787.14	0.073
787.33	0.073
787.52	0.072
787.71	0.073
787.90	0.073
788.08	0.073
788.27	0.073
788.46	0.073
788.65	0.073
788.84	0.073
789.02	0.073
789.21	0.073
789.40	0.072
789.59	0.072
789.77	0.072
789.96	0.072
790.15	0.072
790.34	0.072
790.53	0.072
790.71	0.072
790.90	0.071
791.09	0.071
791.28	0.072
791.46	0.072
791.65	0.072
791.84	0.072
792.03	0.072
792.22	0.072
792.40	0.071
792.59	0.072
792.78	0.072
792.97	0.072
793.15	0.072
793.34	0.072
793.53	0.072
793.72	0.072
793.90	0.072
794.09	0.072
794.28	0.072
794.47	0.072
794.65	0.072
794.84	0.072
795.03	0.072
795.22	0.071
795.40	0.072
795.59	0.071
795.78	0.071
795.97	0.071
796.15	0.072
796.34	0.072
796.53	0.071
796.71	0.072
796.90	0.072
797.09	0.072
797.28	0.072
797.46	0.072
797.65	0.072
797.84	0.072
798.02	0.071
798.21	0.071
798.40	0.071
798.59	0.071
798.77	0.071
798.96	0.070
799.15	0.070
799.33	0.070
799.52	0.070
799.71	0.070
799.90	0.070
800.08	0.070
800.27	0.070
800.46	0.069
800.64	0.069
800.83	0.070
801.02	0.070
801.20	0.070
801.39	0.070
801.58	0.070
801.76	0.070
801.95	0.070
802.14	0.070
802.32	0.070
802.51	0.070
802.70	0.070
802.88	0.070
803.07	0.070
803.26	0.069
803.44	0.069
803.63	0.069
803.82	0.069
804.00	0.069
804.19	0.070
804.38	0.070
804.56	0.070
804.75	0.070
804.94	0.070
805.12	0.070
805.31	0.070
805.50	0.070
805.68	0.070
805.87	0.071
806.06	0.071
806.24	0.070
806.43	0.070
806.62	0.070
806.80	0.070
806.99	0.070
807.17	0.070
807.36	0.070
807.55	0.070
807.73	0.070
807.92	0.070
808.11	0.070
808.29	0.069
808.48	0.069
808.66	0.069
808.85	0.069
809.04	0.069
809.22	0.069
809.41	0.069
809.59	0.069
809.78	0.069
809.97	0.069
810.15	0.069
810.34	0.069
810.53	0.069
810.71	0.069
810.90	0.069
811.08	0.069
811.27	0.069
811.45	0.069
811.64	0.068
811.83	0.069
812.01	0.069
812.20	0.069
812.38	0.069
812.57	0.069
812.76	0.069
812.94	0.069
813.13	0.069
813.31	0.069
813.50	0.069
813.68	0.069
813.87	0.069
814.06	0.069
814.24	0.068
814.43	0.069
814.61	0.068
814.80	0.069
814.98	0.069
815.17	0.068
815.36	0.068
815.54	0.068
815.73	0.068
815.91	0.068
816.10	0.068
816.28	0.068
816.47	0.068
816.65	0.068
816.84	0.068
817.03	0.069
817.21	0.069
817.40	0.069
817.58	0.069
817.77	0.069
817.95	0.069
818.14	0.069
818.32	0.069
818.51	0.069
818.69	0.069
818.88	0.069
819.06	0.069
819.25	0.069
819.43	0.069
819.62	0.069
819.80	0.069
819.99	0.069
820.18	0.069
820.36	0.068
820.55	0.069
820.73	0.068
820.92	0.069
821.10	0.069
821.29	0.068
821.47	0.068
821.66	0.069
821.84	0.069
822.03	0.069
822.21	0.069
822.40	0.069
822.58	0.069
822.77	0.069
822.95	0.069
823.14	0.070
823.32	0.070
823.50	0.070
823.69	0.070
823.87	0.070
824.06	0.070
824.24	0.070
824.43	0.070
824.61	0.070
824.80	0.071
824.98	0.071
825.17	0.071
825.35	0.071
825.54	0.071
825.72	0.071
825.91	0.071
826.09	0.071
826.28	0.071
826.46	0.071
826.64	0.071
826.83	0.071
827.01	0.071
827.20	0.072
827.38	0.071
827.57	0.072
827.75	0.072
827.94	0.072
828.12	0.072
828.31	0.072
828.49	0.072
828.67	0.072
828.86	0.072
829.04	0.072
829.23	0.072
829.41	0.073
829.60	0.073
829.78	0.073
829.96	0.074
830.15	0.074
830.33	0.074
830.52	0.074
830.70	0.074
830.88	0.074
831.07	0.074
831.25	0.074
831.44	0.074
831.62	0.074
831.81	0.074
831.99	0.074
832.17	0.074
832.36	0.075
832.54	0.075
832.73	0.075
832.91	0.074
833.09	0.074
833.28	0.074
833.46	0.075
833.65	0.075
833.83	0.075
834.01	0.075
834.20	0.075
834.38	0.075
834.56	0.075
834.75	0.075
834.93	0.075
835.12	0.075
835.30	0.075
835.48	0.075
835.67	0.075
835.85	0.075
836.03	0.075
836.22	0.075
836.40	0.075
836.59	0.076
836.77	0.075
836.95	0.076
837.14	0.076
837.32	0.075
837.50	0.075
837.69	0.075
837.87	0.076
838.05	0.075
838.24	0.075
838.42	0.075
838.60	0.075
838.79	0.076
838.97	0.075
839.15	0.076
839.34	0.076
839.52	0.076
839.70	0.076
839.89	0.076
840.07	0.076
840.25	0.076
840.44	0.076
840.62	0.076
840.80	0.076
840.99	0.076
841.17	0.076
841.35	0.076
841.54	0.076
841.72	0.076
841.90	0.076
842.09	0.076
842.27	0.076
842.45	0.076
842.64	0.076
842.82	0.076
843.00	0.076
843.19	0.076
843.37	0.076
843.55	0.076
843.73	0.076
843.92	0.076
844.10	0.076
844.28	0.076
844.47	0.076
844.65	0.076
844.83	0.076
845.01	0.076
845.20	0.076
845.38	0.077
845.56	0.077
845.75	0.077
845.93	0.077
846.11	0.076
846.29	0.077
846.48	0.077
846.66	0.077
846.84	0.077
847.02	0.076
847.21	0.076
847.39	0.076
847.57	0.077
847.76	0.077
847.94	0.077
848.12	0.077
848.30	0.077
848.49	0.077
848.67	0.077
848.85	0.077
849.03	0.078
849.22	0.078
849.40	0.078
849.58	0.078
849.76	0.079
849.95	0.079
850.13	0.079
850.31	0.079
850.49	0.079
850.67	0.079
850.86	0.079
851.04	0.079
851.22	0.078
851.40	0.078
851.59	0.078
851.77	0.078
851.95	0.078
852.13	0.078
852.31	0.077
852.50	0.078
852.68	0.078
852.86	0.078
853.04	0.078
853.23	0.078
853.41	0.078
853.59	0.078
853.77	0.078
853.95	0.078
854.14	0.078
854.32	0.078
854.50	0.078
854.68	0.077
854.86	0.078
855.04	0.078
855.23	0.078
855.41	0.078
855.59	0.078
855.77	0.078
855.95	0.078
856.14	0.078
856.32	0.078
856.50	0.078
856.68	0.078
856.86	0.078
857.04	0.078
857.23	0.078
857.41	0.077
857.59	0.077
857.77	0.077
857.95	0.077
858.13	0.077
858.32	0.078
858.50	0.078
858.68	0.077
858.86	0.078
859.04	0.079
859.22	0.078
859.41	0.079
859.59	0.079
859.77	0.079
859.95	0.078
860.13	0.078
860.31	0.078
860.49	0.078
860.68	0.078
860.86	0.078
861.04	0.078
861.22	0.078
861.40	0.078
861.58	0.077
861.76	0.077
861.94	0.078
862.13	0.078
862.31	0.077
862.49	0.078
862.67	0.078
862.85	0.078
863.03	0.078
863.21	0.078
863.39	0.078
863.57	0.078
863.76	0.079
863.94	0.079
864.12	0.079
864.30	0.079
864.48	0.079
864.66	0.079
864.84	0.079
865.02	0.079
865.20	0.079
865.38	0.079
865.57	0.079
865.75	0.079
865.93	0.079
866.11	0.079
866.29	0.079
866.47	0.079
866.65	0.079
866.83	0.079
867.01	0.079
867.19	0.079
867.37	0.079
867.55	0.079
867.73	0.079
867.92	0.079
868.10	0.079
868.28	0.079
868.46	0.079
868.64	0.079
868.82	0.079
869.00	0.079
869.18	0.079
869.36	0.079
869.54	0.079
869.72	0.080
869.90	0.079
870.08	0.079
870.26	0.080
870.44	0.080
870.62	0.080
870.80	0.079
870.98	0.080
871.16	0.080
871.34	0.080
871.53	0.080
871.71	0.080
871.89	0.080
872.07	0.080
872.25	0.080
872.43	0.080
872.61	0.080
872.79	0.080
872.97	0.081
873.15	0.080
873.33	0.081
873.51	0.081
873.69	0.081
873.87	0.081
874.05	0.081
874.23	0.081
874.41	0.081
874.59	0.081
874.77	0.081
874.95	0.081
875.13	0.081
875.31	0.081
875.49	0.081
875.67	0.081
875.85	0.081
876.03	0.081
876.21	0.082
876.39	0.082
876.57	0.082
876.75	0.082
876.93	0.082
877.11	0.082
877.29	0.082
877.47	0.081
877.65	0.082
877.82	0.082
878.00	0.082
878.18	0.082
878.36	0.082
878.54	0.082
878.72	0.082
878.90	0.082
879.08	0.082
879.26	0.082
879.44	0.082
879.62	0.082
879.80	0.082
879.98	0.082
880.16	0.082
880.34	0.082
880.52	0.082
880.70	0.082
880.88	0.082
881.06	0.082
881.24	0.082
881.42	0.082
881.59	0.082
881.77	0.082
881.95	0.082
882.13	0.082
882.31	0.082
882.49	0.081
882.67	0.082
882.85	0.082
883.03	0.082
883.21	0.082
883.39	0.082
883.57	0.082
883.75	0.082
883.92	0.082
884.10	0.082
884.28	0.082
884.46	0.083
884.64	0.083
884.82	0.082
885.00	0.082
885.18	0.083
885.36	0.083
885.54	0.083
885.71	0.083
885.89	0.083
886.07	0.083
886.25	0.083
886.43	0.083
886.61	0.083
886.79	0.084
886.97	0.084
887.15	0.084
887.32	0.084
887.50	0.084
887.68	0.083
887.86	0.084
888.04	0.084
888.22	0.084
888.40	0.084
888.57	0.084
888.75	0.084
888.93	0.084
889.11	0.084
889.29	0.084
889.47	0.084
889.65	0.084
889.82	0.084
890.00	0.085
890.18	0.085
890.36	0.085
890.54	0.085
890.72	0.085
890.90	0.085
891.07	0.085
891.25	0.085
891.43	0.084
891.61	0.085
891.79	0.085
891.97	0.085
892.14	0.085
892.32	0.085
892.50	0.085
892.68	0.084
892.86	0.085
893.03	0.085
893.21	0.085
893.39	0.085
893.57	0.085
893.75	0.085
893.93	0.085
894.10	0.085
894.28	0.085
894.46	0.085
894.64	0.086
894.82	0.086
894.99	0.086
895.17	0.086
895.35	0.086
895.53	0.086
895.71	0.086
895.88	0.086
896.06	0.086
896.24	0.086
896.42	0.086
896.59	0.086
896.77	0.086
896.95	0.085
897.13	0.085
897.31	0.086
897.48	0.086
897.66	0.086
897.84	0.086
898.02	0.086
898.19	0.086
898.37	0.086
898.55	0.086
898.73	0.086
898.91	0.087
899.08	0.087
899.26	0.086
899.44	0.087
899.62	0.087
899.79	0.087
899.97	0.087
900.15	0.087
900.33	0.087
900.50	0.087
900.68	0.087
900.86	0.087
901.04	0.087
901.21	0.087
901.39	0.087
901.57	0.088
901.74	0.088
901.92	0.088
902.10	0.088
902.28	0.088
902.45	0.088
902.63	0.088
902.81	0.087
902.99	0.088
903.16	0.088
903.34	0.088
903.52	0.088
903.69	0.087
903.87	0.087
904.05	0.088
904.22	0.088
904.40	0.088
904.58	0.088
904.76	0.088
904.93	0.088
905.11	0.088
905.29	0.088
905.46	0.088
905.64	0.089
905.82	0.089
905.99	0.088
906.17	0.089
906.35	0.089
906.53	0.089
906.70	0.089
906.88	0.089
907.06	0.089
907.23	0.089
907.41	0.089
907.59	0.089
907.76	0.089
907.94	0.089
908.12	0.089
908.29	0.089
908.47	0.090
908.65	0.090
908.82	0.090
909.00	0.090
909.18	0.090
909.35	0.090
909.53	0.089
909.71	0.089
909.88	0.090
910.06	0.090
910.23	0.090
910.41	0.090
910.59	0.090
910.76	0.090
910.94	0.090
911.12	0.090
911.29	0.091
911.47	0.091
911.65	0.091
911.82	0.091
912.00	0.091
912.17	0.091
912.35	0.092
912.53	0.092
912.70	0.092
912.88	0.092
913.06	0.092
913.23	0.092
913.41	0.092
913.58	0.093
913.76	0.093
913.94	0.093
914.11	0.093
914.29	0.093
914.46	0.093
914.64	0.093
914.82	0.093
914.99	0.093
915.17	0.093
915.34	0.093
915.52	0.093
915.70	0.093
915.87	0.093
916.05	0.094
916.22	0.093
916.40	0.093
916.57	0.093
916.75	0.094
916.93	0.094
917.10	0.094
917.28	0.094
917.45	0.094
917.63	0.094
917.80	0.094
917.98	0.094
918.16	0.094
918.33	0.095
918.51	0.095
918.68	0.095
918.86	0.095
919.03	0.095
919.21	0.096
919.39	0.096
919.56	0.096
919.74	0.097
919.91	0.097
920.09	0.097
920.26	0.097
920.44	0.097
920.61	0.097
920.79	0.098
920.96	0.097
921.14	0.098
921.31	0.098
921.49	0.098
921.67	0.098
921.84	0.099
922.02	0.099
922.19	0.099
922.37	0.099
922.54	0.100
922.72	0.100
922.89	0.101
923.07	0.101
923.24	0.101
923.42	0.101
923.59	0.102
923.77	0.102
923.94	0.102
924.12	0.103
924.29	0.103
924.47	0.103
924.64	0.104
924.82	0.104
924.99	0.104
925.17	0.105
925.34	0.105
925.52	0.105
925.69	0.105
925.87	0.105
926.04	0.106
926.22	0.106
926.39	0.106
926.57	0.106
926.74	0.106
926.91	0.107
927.09	0.107
927.26	0.107
927.44	0.107
927.61	0.108
927.79	0.108
927.96	0.109
928.14	0.109
928.31	0.109
928.49	0.109
928.66	0.110
928.84	0.111
929.01	0.111
929.18	0.112
929.36	0.113
929.53	0.113
929.71	0.113
929.88	0.114
930.06	0.114
930.23	0.114
930.41	0.115
930.58	0.115
930.75	0.115
930.93	0.116
931.10	0.116
931.28	0.116
931.45	0.117
931.63	0.117
931.80	0.117
931.97	0.118
932.15	0.119
932.32	0.119
932.50	0.119
932.67	0.119
932.84	0.120
933.02	0.121
933.19	0.121
933.37	0.121
933.54	0.122
933.71	0.122
933.89	0.123
934.06	0.123
934.24	0.124
934.41	0.125
934.58	0.125
934.76	0.126
934.93	0.126
935.11	0.127
935.28	0.127
935.45	0.127
935.63	0.128
935.80	0.128
935.98	0.129
936.15	0.129
936.32	0.129
936.50	0.130
936.67	0.130
936.84	0.130
937.02	0.131
937.19	0.132
937.36	0.133
937.54	0.133
937.71	0.134
937.89	0.134
938.06	0.135
938.23	0.136
938.41	0.136
938.58	0.137
938.75	0.137
938.93	0.137
939.10	0.138
939.27	0.138
939.45	0.139
939.62	0.139
939.79	0.140
939.97	0.140
940.14	0.140
940.31	0.141
940.49	0.142
940.66	0.142
940.83	0.143
941.01	0.143
941.18	0.144
941.35	0.145
941.53	0.145
941.70	0.147
941.87	0.147
942.05	0.148
942.22	0.148
942.39	0.149
942.57	0.150
942.74	0.151
942.91	0.151
943.08	0.151
943.26	0.152
943.43	0.152
943.60	0.153
943.78	0.154
943.95	0.154
944.12	0.155
944.29	0.156
944.47	0.156
944.64	0.157
944.81	0.159
944.99	0.159
945.16	0.160
945.33	0.160
945.50	0.161
945.68	0.162
945.85	0.162
946.02	0.164
946.20	0.165
946.37	0.166
946.54	0.166
946.71	0.167
946.89	0.167
947.06	0.168
947.23	0.169
947.40	0.171
947.58	0.171
947.75	0.172
947.92	0.173
948.09	0.173
948.27	0.174
948.44	0.176
948.61	0.177
948.78	0.177
948.96	0.179
949.13	0.179
949.30	0.181
949.47	0.181
949.65	0.183
949.82	0.185
949.99	0.185
950.16	0.187
950.33	0.187
950.51	0.189
950.68	0.190
950.85	0.191
951.02	0.192
951.20	0.193
951.37	0.195
951.54	0.195
951.71	0.196
951.88	0.198
952.06	0.199
952.23	0.200
952.40	0.201
952.57	0.202
952.74	0.204
952.92	0.205
953.09	0.206
953.26	0.208
953.43	0.209
953.60	0.210
953.77	0.210
953.95	0.211
954.12	0.213
954.29	0.214
954.46	0.216
954.63	0.217
954.81	0.218
954.98	0.218
955.15	0.220
955.32	0.222
955.49	0.222
955.66	0.223
955.84	0.225
956.01	0.225
956.18	0.227
956.35	0.229
956.52	0.229
956.69	0.231
956.87	0.231
957.04	0.232
957.21	0.234
957.38	0.234
957.55	0.235
957.72	0.236
957.89	0.237
958.07	0.237
958.24	0.240
958.41	0.241
958.58	0.241
958.75	0.243
958.92	0.243
959.09	0.244
959.26	0.245
959.44	0.245
959.61	0.246
959.78	0.247
959.95	0.249
960.12	0.248
960.29	0.251
960.46	0.250
960.63	0.250
960.81	0.251
960.98	0.252
961.15	0.252
961.32	0.253
961.49	0.253
961.66	0.254
961.83	0.255
962.00	0.255
962.17	0.255
962.34	0.255
962.52	0.256
962.69	0.257
962.86	0.256
963.03	0.257
963.20	0.257
963.37	0.257
963.54	0.257
963.71	0.257
963.88	0.258
964.05	0.258
964.22	0.260
964.39	0.259
964.56	0.259
964.74	0.260
964.91	0.260
965.08	0.260
965.25	0.260
965.42	0.261
965.59	0.262
965.76	0.261
965.93	0.263
966.10	0.261
966.27	0.262
966.44	0.261
966.61	0.263
966.78	0.262
966.95	0.261
967.12	0.262
967.29	0.264
967.46	0.262
967.63	0.262
967.80	0.263
967.97	0.262
968.14	0.261
968.32	0.262
968.49	0.262
968.66	0.261
968.83	0.262
969.00	0.262
969.17	0.261
969.34	0.262
969.51	0.264
969.68	0.262
969.85	0.264
970.02	0.263
970.19	0.263
970.36	0.264
970.53	0.264
970.70	0.263
970.87	0.264
971.04	0.263
971.21	0.264
971.38	0.264
971.55	0.264
971.72	0.264
971.89	0.265
972.06	0.265
972.23	0.265
972.40	0.265
972.57	0.264
972.74	0.263
972.91	0.264
973.07	0.264
973.24	0.264
973.41	0.265
973.58	0.263
973.75	0.276
973.92	0.264
974.09	0.264
974.26	0.263
974.43	0.263
974.60	0.264
974.77	0.264
974.94	0.263
975.11	0.264
975.28	0.265
975.45	0.263
975.62	0.264
975.79	0.266
975.96	0.264
976.13	0.263
976.30	0.265
976.47	0.263
976.64	0.264
976.80	0.264
976.97	0.264
977.14	0.264
977.31	0.264
977.48	0.264
977.65	0.263
977.82	0.263
977.99	0.264
978.16	0.264
978.33	0.263
978.50	0.262
978.67	0.263
978.83	0.262
979.00	0.263
979.17	0.262
979.34	0.262
979.51	0.261
979.68	0.261
979.85	0.261
980.02	0.261
980.19	0.260
980.36	0.261
980.52	0.262
980.69	0.260
980.86	0.260
981.03	0.260
981.20	0.259
981.37	0.260
981.54	0.260
981.71	0.259
981.88	0.259
982.04	0.259
982.21	0.258
982.38	0.260
982.55	0.259
982.72	0.258
982.89	0.260
983.06	0.258
983.22	0.258
983.39	0.258
983.56	0.258
983.73	0.258
983.90	0.257
984.07	0.258
984.24	0.257
984.40	0.256
984.57	0.255
984.74	0.257
984.91	0.258
985.08	0.256
985.25	0.254
985.41	0.254
985.58	0.254
985.75	0.256
985.92	0.254
986.09	0.253
986.26	0.253
986.42	0.253
986.59	0.251
986.76	0.253
986.93	0.253
987.10	0.252
987.27	0.250
987.43	0.249
987.60	0.250
987.77	0.250
987.94	0.249
988.11	0.250
988.27	0.249
988.44	0.249
988.61	0.247
988.78	0.246
988.95	0.247
989.11	0.249
989.28	0.247
989.45	0.246
989.62	0.246
989.79	0.246
989.95	0.244
990.12	0.246
990.29	0.246
990.46	0.244
990.62	0.242
990.79	0.242
990.96	0.242
991.13	0.243
991.30	0.242
991.46	0.241
991.63	0.240
991.80	0.239
991.97	0.239
992.13	0.240
992.30	0.240
992.47	0.238
992.64	0.238
992.80	0.238
992.97	0.238
993.14	0.236
993.31	0.234
993.47	0.236
993.64	0.234
993.81	0.234
993.98	0.234
994.14	0.233
994.31	0.232
994.48	0.233
994.64	0.233
994.81	0.232
994.98	0.232
995.15	0.230
995.31	0.230
995.48	0.230
995.65	0.232
995.82	0.229
995.98	0.228
996.15	0.229
996.32	0.231
996.48	0.230
996.65	0.229
996.82	0.227
996.99	0.227
997.15	0.227
997.32	0.228
997.49	0.227
997.65	0.228
997.82	0.228
997.99	0.226
998.15	0.226
998.32	0.227
998.49	0.226
998.65	0.227
998.82	0.226
998.99	0.224
999.15	0.224
999.32	0.223
999.49	0.222
999.65	0.222
999.82	0.220
999.99	0.220
1000.15	0.220
1000.32	0.220
1000.49	0.220
1000.65	0.218
1000.82	0.217
1000.99	0.217
1001.15	0.217
1001.32	0.217
1001.49	0.217
1001.65	0.217
1001.82	0.219
1001.99	0.216
1002.15	0.215
1002.32	0.215
1002.49	0.217
1002.65	0.216
1002.82	0.214
1002.99	0.214
1003.15	0.215
1003.32	0.214
1003.48	0.214
1003.65	0.213
1003.82	0.212
1003.98	0.211
1004.15	0.211
1004.32	0.211
1004.48	0.210
1004.65	0.211
1004.81	0.208
1004.98	0.208
1005.15	0.208
1005.31	0.208
1005.48	0.206
1005.64	0.206
1005.81	0.208
1005.98	0.204
1006.14	0.204
1006.31	0.204
1006.47	0.203
1006.64	0.202
1006.81	0.202
1006.97	0.202
1007.14	0.202
1007.30	0.203
1007.47	0.203
1007.63	0.201
1007.80	0.200
1007.97	0.198
1008.13	0.199
1008.30	0.199
1008.46	0.199
1008.63	0.197
1008.79	0.198
1008.96	0.198
1009.13	0.199
1009.29	0.196
1009.46	0.196
1009.62	0.196
1009.79	0.194
1009.95	0.194
1010.12	0.194
1010.28	0.194
1010.45	0.193
1010.62	0.193
1010.78	0.191
1010.95	0.189
1011.11	0.190
1011.28	0.190
1011.44	0.192
1011.61	0.190
1011.77	0.189
1011.94	0.189
1012.10	0.189
1012.27	0.189
1012.43	0.190
1012.60	0.188
1012.76	0.190
1012.93	0.189
1013.10	0.187
1013.26	0.185
1013.43	0.186
1013.59	0.193
1013.76	0.186
1013.92	0.185
1014.09	0.183
1014.25	0.184
1014.42	0.184
1014.58	0.184
1014.75	0.186
1014.91	0.184
1015.08	0.186
1015.24	0.184
1015.41	0.184
1015.57	0.184
1015.73	0.182
1015.90	0.181
1016.06	0.183
1016.23	0.181
1016.39	0.181
1016.56	0.181
1016.72	0.181
1016.89	0.181
1017.05	0.183
1017.22	0.180
1017.38	0.181
1017.55	0.180
1017.71	0.180
1017.88	0.180
1018.04	0.182
1018.21	0.179
1018.37	0.179
1018.53	0.178
1018.70	0.176
1018.86	0.175
1019.03	0.177
1019.19	0.174
1019.36	0.174
1019.52	0.176
1019.69	0.176
1019.85	0.174
1020.01	0.174
1020.18	0.173
1020.34	0.173
1020.51	0.173
1020.67	0.174
1020.84	0.172
1021.00	0.173
1021.16	0.170
1021.33	0.171
1021.49	0.170
1021.66	0.170
1021.82	0.169
1021.98	0.169
1022.15	0.168
1022.31	0.167
1022.48	0.167
1022.64	0.168
1022.80	0.166
1022.97	0.165
1023.13	0.164
1023.30	0.165
1023.46	0.166
1023.62	0.163
1023.79	0.165
1023.95	0.165
1024.12	0.164
1024.28	0.163
1024.44	0.163
1024.61	0.162
1024.77	0.162
1024.93	0.162
1025.10	0.163
1025.26	0.161
1025.43	0.163
1025.59	0.158
1025.75	0.162
1025.92	0.161
1026.08	0.160
1026.24	0.159
1026.41	0.160
1026.57	0.160
1026.73	0.157
1026.90	0.159
1027.06	0.157
1027.23	0.158
1027.39	0.157
1027.55	0.157
1027.72	0.156
1027.88	0.155
1028.04	0.155
1028.21	0.155
1028.37	0.149
1028.53	0.154
1028.70	0.152
1028.86	0.149
1029.02	0.150
1029.19	0.151
1029.35	0.150
1029.51	0.149
1029.67	0.149
1029.84	0.151
1030.00	0.146
1030.16	0.147
1030.33	0.149
1030.49	0.146
1030.65	0.145
1030.82	0.160
1030.98	0.146
1031.14	0.146
1031.31	0.146
1031.47	0.144
1031.63	0.147
1031.79	0.145
1031.96	0.147
1032.12	0.147
1032.28	0.145
1032.45	0.149
1032.61	0.148
1032.77	0.148
1032.93	0.146
1033.10	0.147
1033.26	0.150
1033.42	0.148
1033.58	0.150
1033.75	0.151
1033.91	0.149
1034.07	0.152
1034.24	0.149
1034.40	0.147
1034.56	0.146
1034.72	0.147
1034.89	0.147
1035.05	0.145
1035.21	0.144
1035.37	0.142
1035.54	0.144
1035.70	0.142
1035.86	0.142
1036.02	0.143
1036.19	0.142
1036.35	0.140
1036.51	0.144
1036.67	0.141
1036.83	0.140
1037.00	0.138
1037.16	0.139
1037.32	0.140
1037.48	0.139
1037.65	0.143
1037.81	0.137
1037.97	0.137
1038.13	0.138
1038.29	0.136
1038.46	0.133
1038.62	0.137
1038.78	0.135
1038.94	0.132
1039.10	0.136
1039.27	0.132
1039.43	0.133
1039.59	0.133
1039.75	0.134
1039.91	0.132
1040.08	0.132
1040.24	0.135
1040.40	0.136
1040.56	0.135
1040.72	0.130
1040.89	0.133
1041.05	0.136
1041.21	0.134
1041.37	0.132
1041.53	0.137
1041.69	0.136
1041.86	0.135
1042.02	0.132
1042.18	0.131
1042.34	0.133
1042.50	0.137
1042.66	0.133
1042.83	0.131
1042.99	0.134
1043.15	0.129
1043.31	0.130
1043.47	0.133
1043.63	0.130
1043.79	0.131
1043.96	0.133
1044.12	0.137
1044.28	0.133
1044.44	0.135
1044.60	0.130
1044.76	0.128
1044.92	0.131
1045.09	0.132
1045.25	0.129
1045.41	0.129
1045.57	0.124
1045.73	0.124
1045.89	0.124
1046.05	0.126
1046.21	0.132
1046.38	0.125
1046.54	0.132
1046.70	0.121
1046.86	0.132
>>>>>End Processed Spectral Data<<<<<
