SpectraSuite Data File
++++++++++++++++++++++++++++++++++++
Date: Mon May 20 12:10:52 CDT 2013
User: Students
Dark Spectrum Present: Yes
Reference Spectrum Present: Yes
Number of Sampled Component Spectra: 1
Spectrometers: USB4H00887
Integration Time (usec): 60000 (USB4H00887)
Spectra Averaged: 5 (USB4H00887)
Boxcar Smoothing: 5 (USB4H00887)
Correct for Electrical Dark: No (USB4H00887)
Strobe/Lamp Enabled: No (USB4H00887)
Correct for Detector Non-linearity: No (USB4H00887)
Correct for Stray Light: No (USB4H00887)
Number of Pixels in Processed Spectrum: 3648
>>>>>Begin Processed Spectral Data<<<<<
345.83	0.043
346.05	0.043
346.26	0.043
346.48	-0.000
346.70	0.112
346.92	0.089
347.14	0.055
347.35	0.048
347.57	0.253
347.79	-0.202
348.01	-0.164
348.23	-0.251
348.44	-0.000
348.66	0.171
348.88	-0.372
349.10	-0.149
349.32	0.025
349.53	-0.004
349.75	-0.048
349.97	-0.020
350.19	0.028
350.41	0.044
350.62	-0.195
350.84	0.038
351.06	0.048
351.28	0.088
351.50	0.133
351.71	0.058
351.93	0.024
352.15	0.025
352.37	0.110
352.58	0.024
352.80	0.037
353.02	0.080
353.24	0.093
353.46	0.636
353.67	-0.199
353.89	0.096
354.11	0.081
354.33	0.098
354.54	0.140
354.76	0.207
354.98	0.340
355.20	0.233
355.41	0.071
355.63	0.118
355.85	0.052
356.07	0.375
356.28	0.050
356.50	0.104
356.72	0.036
356.94	0.119
357.15	0.197
357.37	-0.000
357.59	0.105
357.81	0.062
358.02	0.116
358.24	0.080
358.46	0.158
358.68	0.142
358.89	0.088
359.11	-0.000
359.33	0.064
359.55	-0.409
359.76	0.068
359.98	0.082
360.20	0.090
360.42	0.062
360.63	0.056
360.85	0.027
361.07	0.167
361.29	0.009
361.50	0.056
361.72	0.022
361.94	0.124
362.15	0.048
362.37	0.017
362.59	0.019
362.81	0.030
363.02	0.070
363.24	0.166
363.46	0.099
363.68	0.201
363.89	0.117
364.11	0.194
364.33	0.251
364.54	0.169
364.76	0.226
364.98	0.254
365.20	0.274
365.41	0.171
365.63	0.188
365.85	0.141
366.06	0.363
366.28	0.620
366.50	0.265
366.71	0.111
366.93	0.134
367.15	0.125
367.37	0.115
367.58	0.167
367.80	0.208
368.02	0.936
368.23	0.209
368.45	0.193
368.67	0.138
368.88	0.155
369.10	-0.000
369.32	0.167
369.53	0.091
369.75	0.152
369.97	0.491
370.19	0.259
370.40	0.085
370.62	0.190
370.84	0.093
371.05	0.532
371.27	0.123
371.49	0.142
371.70	0.165
371.92	0.302
372.14	0.115
372.35	0.114
372.57	0.131
372.79	0.335
373.00	0.091
373.22	0.137
373.44	0.139
373.65	0.117
373.87	0.188
374.09	1.791
374.30	0.167
374.52	0.200
374.74	0.126
374.95	0.481
375.17	0.153
375.39	-0.000
375.60	0.158
375.82	0.304
376.04	0.130
376.25	0.120
376.47	0.074
376.68	0.138
376.90	0.078
377.12	0.174
377.33	0.118
377.55	0.249
377.77	0.122
377.98	0.208
378.20	0.114
378.42	0.136
378.63	0.184
378.85	-0.000
379.07	0.140
379.28	0.575
379.50	0.363
379.71	0.183
379.93	0.122
380.15	0.180
380.36	0.259
380.58	0.218
380.80	0.681
381.01	0.182
381.23	0.140
381.44	0.153
381.66	0.173
381.88	0.232
382.09	-0.093
382.31	0.146
382.53	0.150
382.74	1.360
382.96	0.204
383.17	0.171
383.39	0.221
383.61	0.337
383.82	0.232
384.04	0.267
384.25	0.322
384.47	0.315
384.69	0.325
384.90	0.278
385.12	0.558
385.33	0.340
385.55	0.237
385.77	0.381
385.98	0.181
386.20	0.233
386.41	0.193
386.63	0.204
386.85	0.173
387.06	0.209
387.28	0.341
387.49	0.234
387.71	0.170
387.93	0.164
388.14	0.522
388.36	0.210
388.57	0.189
388.79	0.214
389.01	-0.000
389.22	0.298
389.44	0.265
389.65	0.214
389.87	0.209
390.08	0.257
390.30	0.212
390.52	0.400
390.73	0.405
390.95	0.276
391.16	0.291
391.38	-0.000
391.59	0.312
391.81	0.244
392.03	0.229
392.24	0.276
392.46	0.232
392.67	0.191
392.89	0.276
393.10	0.428
393.32	0.308
393.53	0.328
393.75	0.207
393.97	0.234
394.18	0.328
394.40	0.285
394.61	0.296
394.83	0.252
395.04	0.298
395.26	0.205
395.47	0.292
395.69	0.237
395.91	0.278
396.12	0.342
396.34	0.345
396.55	0.225
396.77	0.340
396.98	-0.000
397.20	0.456
397.41	0.538
397.63	0.360
397.84	0.334
398.06	0.312
398.27	0.298
398.49	0.338
398.71	0.247
398.92	0.306
399.14	0.407
399.35	0.491
399.57	0.449
399.78	0.291
400.00	0.274
400.21	0.348
400.43	0.284
400.64	0.301
400.86	0.720
401.07	0.389
401.29	0.323
401.50	0.346
401.72	0.508
401.93	0.323
402.15	0.406
402.36	0.376
402.58	0.305
402.79	0.336
403.01	0.583
403.22	0.423
403.44	0.269
403.65	0.434
403.87	0.473
404.08	0.372
404.30	0.583
404.51	0.312
404.73	0.377
404.94	0.318
405.16	0.330
405.37	0.258
405.59	0.472
405.80	0.303
406.02	0.367
406.23	0.382
406.45	0.411
406.66	0.447
406.88	0.297
407.09	0.447
407.31	0.366
407.52	0.463
407.74	0.370
407.95	0.442
408.17	0.416
408.38	0.434
408.60	0.282
408.81	0.486
409.03	0.357
409.24	0.360
409.45	0.412
409.67	0.395
409.88	0.351
410.10	0.467
410.31	0.381
410.53	0.366
410.74	0.540
410.96	0.530
411.17	0.559
411.39	0.419
411.60	0.392
411.82	0.448
412.03	0.447
412.24	0.426
412.46	0.616
412.67	0.502
412.89	0.496
413.10	0.477
413.32	0.437
413.53	0.497
413.75	0.526
413.96	0.390
414.17	0.552
414.39	0.538
414.60	0.449
414.82	0.596
415.03	0.461
415.25	0.522
415.46	0.359
415.68	0.503
415.89	1.016
416.10	0.787
416.32	0.414
416.53	0.483
416.75	0.451
416.96	0.532
417.18	0.460
417.39	0.441
417.60	0.437
417.82	0.642
418.03	0.562
418.25	0.467
418.46	0.481
418.67	0.435
418.89	0.470
419.10	0.505
419.32	0.698
419.53	0.628
419.75	0.521
419.96	0.455
420.17	0.569
420.39	0.530
420.60	0.549
420.82	0.691
421.03	0.554
421.24	0.458
421.46	0.498
421.67	0.538
421.89	0.466
422.10	0.505
422.31	0.497
422.53	0.710
422.74	0.522
422.96	0.416
423.17	0.463
423.38	0.573
423.60	0.482
423.81	0.615
424.03	0.521
424.24	0.583
424.45	0.581
424.67	0.584
424.88	0.520
425.09	0.566
425.31	0.531
425.52	0.566
425.74	0.631
425.95	0.699
426.16	0.524
426.38	0.623
426.59	0.571
426.80	0.649
427.02	0.677
427.23	0.525
427.45	0.695
427.66	0.659
427.87	0.503
428.09	0.536
428.30	0.595
428.51	0.585
428.73	0.647
428.94	0.563
429.15	0.560
429.37	0.543
429.58	0.570
429.79	0.531
430.01	0.650
430.22	0.645
430.44	0.656
430.65	0.580
430.86	0.622
431.08	0.598
431.29	0.549
431.50	0.649
431.72	0.868
431.93	0.690
432.14	0.511
432.36	0.554
432.57	0.571
432.78	0.598
433.00	0.553
433.21	0.559
433.42	0.712
433.64	0.615
433.85	0.691
434.06	0.556
434.28	0.593
434.49	0.610
434.70	0.628
434.92	0.631
435.13	0.681
435.34	0.680
435.56	0.633
435.77	0.625
435.98	0.814
436.20	0.679
436.41	0.582
436.62	0.564
436.83	0.641
437.05	0.723
437.26	0.637
437.47	0.563
437.69	0.619
437.90	0.566
438.11	0.555
438.33	0.604
438.54	0.634
438.75	0.828
438.97	0.826
439.18	0.611
439.39	0.647
439.60	0.691
439.82	0.648
440.03	0.603
440.24	0.915
440.46	0.675
440.67	0.645
440.88	0.683
441.10	0.630
441.31	0.620
441.52	0.667
441.73	0.746
441.95	0.669
442.16	0.614
442.37	0.967
442.58	0.597
442.80	0.584
443.01	0.767
443.22	0.708
443.44	0.603
443.65	0.717
443.86	0.726
444.07	0.784
444.29	0.678
444.50	0.889
444.71	0.666
444.92	0.617
445.14	0.797
445.35	0.836
445.56	0.645
445.78	0.758
445.99	0.764
446.20	0.645
446.41	0.734
446.63	0.729
446.84	0.680
447.05	0.679
447.26	0.826
447.48	0.699
447.69	0.667
447.90	0.761
448.11	0.672
448.33	0.702
448.54	0.731
448.75	0.762
448.96	0.776
449.18	0.825
449.39	0.727
449.60	0.698
449.81	0.848
450.03	0.728
450.24	0.803
450.45	0.755
450.66	0.727
450.87	0.757
451.09	0.710
451.30	0.685
451.51	0.768
451.72	0.776
451.94	0.806
452.15	0.876
452.36	0.725
452.57	0.740
452.78	0.742
453.00	0.778
453.21	0.728
453.42	0.694
453.63	0.798
453.85	0.757
454.06	0.757
454.27	0.896
454.48	0.794
454.69	0.712
454.91	0.784
455.12	0.684
455.33	0.778
455.54	0.800
455.75	0.770
455.97	0.797
456.18	0.781
456.39	0.786
456.60	0.806
456.81	0.738
457.03	0.752
457.24	0.752
457.45	0.842
457.66	0.779
457.87	0.742
458.09	0.763
458.30	0.672
458.51	0.807
458.72	0.835
458.93	0.853
459.15	0.753
459.36	0.825
459.57	0.853
459.78	0.901
459.99	0.803
460.20	0.750
460.42	0.841
460.63	0.799
460.84	0.779
461.05	0.795
461.26	0.859
461.47	0.768
461.69	0.822
461.90	0.861
462.11	0.820
462.32	0.879
462.53	0.813
462.74	0.916
462.96	0.789
463.17	0.780
463.38	0.825
463.59	0.951
463.80	0.781
464.01	0.802
464.23	0.898
464.44	0.856
464.65	0.861
464.86	0.892
465.07	0.898
465.28	0.850
465.49	0.867
465.71	0.822
465.92	0.862
466.13	0.919
466.34	0.852
466.55	0.909
466.76	0.860
466.97	0.889
467.19	0.874
467.40	0.914
467.61	0.917
467.82	0.832
468.03	0.813
468.24	0.887
468.45	0.918
468.66	0.896
468.88	0.909
469.09	0.920
469.30	0.975
469.51	0.888
469.72	0.934
469.93	0.903
470.14	0.881
470.35	0.990
470.57	0.939
470.78	0.868
470.99	1.022
471.20	0.942
471.41	0.886
471.62	0.940
471.83	0.909
472.04	0.945
472.25	0.996
472.47	0.900
472.68	0.900
472.89	0.902
473.10	0.953
473.31	0.895
473.52	0.962
473.73	0.989
473.94	0.903
474.15	0.934
474.36	0.936
474.57	0.960
474.79	0.933
475.00	0.935
475.21	0.913
475.42	1.011
475.63	0.908
475.84	0.943
476.05	0.950
476.26	0.918
476.47	0.953
476.68	1.001
476.89	0.923
477.10	0.975
477.32	0.959
477.53	1.024
477.74	0.931
477.95	0.972
478.16	0.917
478.37	0.966
478.58	0.971
478.79	0.988
479.00	0.992
479.21	0.945
479.42	0.992
479.63	0.995
479.84	0.952
480.05	0.958
480.26	0.993
480.47	1.014
480.69	1.015
480.90	0.973
481.11	0.968
481.32	1.032
481.53	0.965
481.74	1.022
481.95	0.985
482.16	1.003
482.37	1.009
482.58	0.973
482.79	0.993
483.00	1.024
483.21	0.964
483.42	0.933
483.63	1.018
483.84	1.054
484.05	1.039
484.26	1.011
484.47	1.010
484.68	0.968
484.89	0.971
485.10	1.021
485.31	0.995
485.52	1.002
485.73	1.004
485.94	1.050
486.15	0.990
486.37	1.011
486.58	0.970
486.79	0.984
487.00	1.042
487.21	1.034
487.42	1.031
487.63	1.041
487.84	1.065
488.05	1.062
488.26	1.012
488.47	1.018
488.68	1.049
488.89	1.021
489.10	1.012
489.31	1.022
489.52	1.060
489.73	1.024
489.94	1.062
490.15	1.011
490.36	1.056
490.57	1.006
490.78	0.989
490.99	1.029
491.20	1.116
491.41	1.068
491.62	1.003
491.83	1.033
492.04	1.026
492.25	1.035
492.45	1.037
492.66	1.059
492.87	1.048
493.08	1.032
493.29	1.015
493.50	1.004
493.71	1.014
493.92	1.012
494.13	1.034
494.34	1.059
494.55	1.066
494.76	1.100
494.97	1.092
495.18	1.049
495.39	1.067
495.60	1.012
495.81	1.014
496.02	1.033
496.23	1.028
496.44	1.062
496.65	1.051
496.86	1.058
497.07	1.087
497.28	1.081
497.49	1.025
497.70	1.027
497.91	1.053
498.12	1.034
498.32	1.083
498.53	1.061
498.74	1.049
498.95	1.078
499.16	1.027
499.37	1.031
499.58	1.043
499.79	1.075
500.00	1.069
500.21	1.099
500.42	1.036
500.63	1.035
500.84	1.061
501.05	1.035
501.26	1.062
501.46	1.108
501.67	1.065
501.88	1.062
502.09	1.036
502.30	1.048
502.51	1.103
502.72	1.053
502.93	1.072
503.14	1.093
503.35	1.062
503.56	1.057
503.77	1.088
503.97	1.062
504.18	1.062
504.39	1.101
504.60	1.066
504.81	1.097
505.02	1.082
505.23	1.082
505.44	1.063
505.65	1.072
505.86	1.050
506.07	1.123
506.27	1.078
506.48	1.087
506.69	1.070
506.90	1.093
507.11	1.090
507.32	1.064
507.53	1.076
507.74	1.067
507.95	1.083
508.15	1.092
508.36	1.093
508.57	1.108
508.78	1.089
508.99	1.089
509.20	1.058
509.41	1.086
509.62	1.076
509.82	1.068
510.03	1.079
510.24	1.076
510.45	1.103
510.66	1.095
510.87	1.088
511.08	1.043
511.29	1.089
511.49	1.064
511.70	1.115
511.91	1.043
512.12	1.042
512.33	1.080
512.54	1.098
512.75	1.078
512.95	1.107
513.16	1.098
513.37	1.071
513.58	1.112
513.79	1.073
514.00	1.080
514.20	1.095
514.41	1.083
514.62	1.044
514.83	1.089
515.04	1.077
515.25	1.054
515.46	1.068
515.66	1.072
515.87	1.086
516.08	1.051
516.29	1.078
516.50	1.059
516.71	1.053
516.91	1.067
517.12	1.085
517.33	1.069
517.54	1.054
517.75	1.057
517.95	1.069
518.16	1.083
518.37	1.047
518.58	1.052
518.79	1.024
519.00	1.057
519.20	1.067
519.41	1.039
519.62	1.060
519.83	1.070
520.04	1.031
520.24	1.030
520.45	1.039
520.66	1.063
520.87	1.021
521.08	1.020
521.28	1.025
521.49	1.044
521.70	1.010
521.91	1.025
522.12	1.006
522.32	1.031
522.53	1.012
522.74	1.000
522.95	1.011
523.16	1.014
523.36	1.023
523.57	1.004
523.78	0.996
523.99	1.003
524.20	0.996
524.40	1.011
524.61	1.018
524.82	0.989
525.03	0.994
525.23	0.997
525.44	0.980
525.65	0.979
525.86	1.002
526.06	0.973
526.27	0.974
526.48	0.985
526.69	0.964
526.90	0.967
527.10	1.005
527.31	0.956
527.52	0.947
527.73	0.938
527.93	0.949
528.14	0.955
528.35	0.943
528.56	0.944
528.76	0.936
528.97	0.928
529.18	0.919
529.39	0.921
529.59	0.922
529.80	0.956
530.01	0.929
530.22	0.928
530.42	0.893
530.63	0.914
530.84	0.889
531.05	0.903
531.25	0.904
531.46	0.895
531.67	0.871
531.88	0.892
532.08	0.885
532.29	0.879
532.50	0.871
532.70	0.865
532.91	0.853
533.12	0.856
533.33	0.882
533.53	0.851
533.74	0.850
533.95	0.857
534.15	0.844
534.36	0.846
534.57	0.827
534.78	0.828
534.98	0.839
535.19	0.809
535.40	0.810
535.60	0.831
535.81	0.810
536.02	0.813
536.23	0.803
536.43	0.805
536.64	0.792
536.85	0.800
537.05	0.809
537.26	0.785
537.47	0.789
537.67	0.778
537.88	0.772
538.09	0.780
538.30	0.769
538.50	0.760
538.71	0.772
538.92	0.757
539.12	0.753
539.33	0.748
539.54	0.749
539.74	0.752
539.95	0.742
540.16	0.740
540.36	0.730
540.57	0.730
540.78	0.722
540.98	0.721
541.19	0.721
541.40	0.707
541.60	0.717
541.81	0.711
542.02	0.712
542.22	0.701
542.43	0.695
542.64	0.690
542.84	0.688
543.05	0.679
543.26	0.679
543.46	0.681
543.67	0.679
543.88	0.675
544.08	0.663
544.29	0.657
544.50	0.658
544.70	0.660
544.91	0.651
545.12	0.652
545.32	0.648
545.53	0.651
545.74	0.638
545.94	0.635
546.15	0.632
546.35	0.629
546.56	0.625
546.77	0.621
546.97	0.619
547.18	0.610
547.39	0.611
547.59	0.609
547.80	0.604
548.01	0.609
548.21	0.605
548.42	0.596
548.62	0.596
548.83	0.592
549.04	0.588
549.24	0.579
549.45	0.578
549.65	0.575
549.86	0.569
550.07	0.568
550.27	0.566
550.48	0.574
550.69	0.560
550.89	0.560
551.10	0.556
551.30	0.555
551.51	0.555
551.72	0.545
551.92	0.546
552.13	0.546
552.33	0.546
552.54	0.540
552.75	0.533
552.95	0.534
553.16	0.529
553.36	0.527
553.57	0.525
553.78	0.522
553.98	0.522
554.19	0.513
554.39	0.510
554.60	0.513
554.80	0.513
555.01	0.505
555.22	0.506
555.42	0.502
555.63	0.496
555.83	0.500
556.04	0.493
556.25	0.496
556.45	0.487
556.66	0.484
556.86	0.488
557.07	0.485
557.27	0.484
557.48	0.479
557.68	0.476
557.89	0.477
558.10	0.473
558.30	0.470
558.51	0.468
558.71	0.465
558.92	0.461
559.12	0.462
559.33	0.466
559.54	0.460
559.74	0.455
559.95	0.453
560.15	0.452
560.36	0.450
560.56	0.444
560.77	0.444
560.97	0.443
561.18	0.438
561.38	0.436
561.59	0.439
561.79	0.434
562.00	0.432
562.21	0.429
562.41	0.428
562.62	0.427
562.82	0.425
563.03	0.421
563.23	0.421
563.44	0.421
563.64	0.419
563.85	0.420
564.05	0.413
564.26	0.413
564.46	0.412
564.67	0.412
564.87	0.408
565.08	0.405
565.28	0.405
565.49	0.406
565.69	0.403
565.90	0.399
566.10	0.402
566.31	0.395
566.51	0.397
566.72	0.397
566.92	0.390
567.13	0.390
567.33	0.389
567.54	0.387
567.74	0.386
567.95	0.381
568.15	0.382
568.36	0.382
568.56	0.381
568.77	0.375
568.97	0.374
569.18	0.374
569.38	0.372
569.59	0.373
569.79	0.370
570.00	0.367
570.20	0.365
570.41	0.363
570.61	0.361
570.82	0.362
571.02	0.358
571.23	0.360
571.43	0.356
571.64	0.355
571.84	0.355
572.05	0.353
572.25	0.352
572.45	0.351
572.66	0.348
572.86	0.347
573.07	0.345
573.27	0.346
573.48	0.345
573.68	0.341
573.89	0.341
574.09	0.341
574.30	0.340
574.50	0.338
574.70	0.338
574.91	0.335
575.11	0.335
575.32	0.335
575.52	0.331
575.73	0.330
575.93	0.330
576.14	0.329
576.34	0.327
576.54	0.326
576.75	0.325
576.95	0.324
577.16	0.322
577.36	0.321
577.57	0.320
577.77	0.318
577.97	0.314
578.18	0.315
578.38	0.311
578.59	0.310
578.79	0.308
579.00	0.309
579.20	0.307
579.40	0.306
579.61	0.306
579.81	0.305
580.02	0.303
580.22	0.303
580.42	0.302
580.63	0.303
580.83	0.302
581.04	0.300
581.24	0.299
581.45	0.298
581.65	0.297
581.85	0.296
582.06	0.294
582.26	0.294
582.47	0.293
582.67	0.293
582.87	0.292
583.08	0.290
583.28	0.290
583.48	0.288
583.69	0.285
583.89	0.285
584.10	0.286
584.30	0.283
584.50	0.282
584.71	0.281
584.91	0.280
585.12	0.277
585.32	0.278
585.52	0.276
585.73	0.275
585.93	0.274
586.13	0.274
586.34	0.273
586.54	0.272
586.75	0.270
586.95	0.269
587.15	0.269
587.36	0.268
587.56	0.267
587.76	0.266
587.97	0.265
588.17	0.264
588.37	0.263
588.58	0.264
588.78	0.261
588.98	0.262
589.19	0.260
589.39	0.259
589.60	0.260
589.80	0.258
590.00	0.257
590.21	0.257
590.41	0.256
590.61	0.255
590.82	0.254
591.02	0.254
591.22	0.252
591.43	0.253
591.63	0.251
591.83	0.251
592.04	0.249
592.24	0.250
592.44	0.247
592.65	0.245
592.85	0.245
593.05	0.245
593.26	0.243
593.46	0.243
593.66	0.243
593.86	0.242
594.07	0.240
594.27	0.240
594.47	0.239
594.68	0.238
594.88	0.239
595.08	0.238
595.29	0.238
595.49	0.236
595.69	0.236
595.90	0.235
596.10	0.235
596.30	0.234
596.50	0.233
596.71	0.232
596.91	0.232
597.11	0.231
597.32	0.231
597.52	0.230
597.72	0.229
597.93	0.228
598.13	0.226
598.33	0.227
598.53	0.226
598.74	0.226
598.94	0.225
599.14	0.225
599.35	0.225
599.55	0.224
599.75	0.224
599.95	0.223
600.16	0.223
600.36	0.221
600.56	0.222
600.76	0.220
600.97	0.219
601.17	0.218
601.37	0.218
601.58	0.217
601.78	0.217
601.98	0.216
602.18	0.215
602.39	0.215
602.59	0.215
602.79	0.214
602.99	0.214
603.20	0.213
603.40	0.213
603.60	0.212
603.80	0.212
604.01	0.211
604.21	0.210
604.41	0.209
604.61	0.209
604.82	0.208
605.02	0.209
605.22	0.208
605.42	0.207
605.62	0.207
605.83	0.206
606.03	0.205
606.23	0.205
606.43	0.205
606.64	0.205
606.84	0.204
607.04	0.204
607.24	0.204
607.45	0.204
607.65	0.202
607.85	0.203
608.05	0.202
608.25	0.201
608.46	0.201
608.66	0.201
608.86	0.200
609.06	0.199
609.26	0.198
609.47	0.198
609.67	0.197
609.87	0.198
610.07	0.197
610.28	0.196
610.48	0.196
610.68	0.196
610.88	0.194
611.08	0.195
611.29	0.194
611.49	0.193
611.69	0.194
611.89	0.193
612.09	0.192
612.29	0.192
612.50	0.192
612.70	0.192
612.90	0.191
613.10	0.191
613.30	0.190
613.51	0.190
613.71	0.189
613.91	0.193
614.11	0.188
614.31	0.188
614.51	0.188
614.72	0.187
614.92	0.186
615.12	0.186
615.32	0.187
615.52	0.186
615.72	0.186
615.93	0.186
616.13	0.185
616.33	0.185
616.53	0.184
616.73	0.185
616.93	0.184
617.14	0.185
617.34	0.184
617.54	0.184
617.74	0.184
617.94	0.183
618.14	0.182
618.34	0.181
618.55	0.181
618.75	0.182
618.95	0.181
619.15	0.181
619.35	0.179
619.55	0.179
619.75	0.179
619.96	0.179
620.16	0.179
620.36	0.179
620.56	0.178
620.76	0.178
620.96	0.178
621.16	0.178
621.36	0.178
621.57	0.178
621.77	0.178
621.97	0.177
622.17	0.176
622.37	0.176
622.57	0.176
622.77	0.175
622.97	0.174
623.18	0.174
623.38	0.175
623.58	0.174
623.78	0.174
623.98	0.173
624.18	0.173
624.38	0.173
624.58	0.173
624.78	0.173
624.98	0.173
625.19	0.173
625.39	0.173
625.59	0.172
625.79	0.172
625.99	0.172
626.19	0.172
626.39	0.172
626.59	0.171
626.79	0.171
626.99	0.171
627.19	0.171
627.40	0.171
627.60	0.170
627.80	0.170
628.00	0.170
628.20	0.169
628.40	0.169
628.60	0.169
628.80	0.168
629.00	0.168
629.20	0.167
629.40	0.168
629.60	0.166
629.80	0.166
630.00	0.166
630.20	0.166
630.41	0.165
630.61	0.165
630.81	0.165
631.01	0.165
631.21	0.164
631.41	0.164
631.61	0.164
631.81	0.164
632.01	0.164
632.21	0.164
632.41	0.162
632.61	0.163
632.81	0.163
633.01	0.163
633.21	0.163
633.41	0.163
633.61	0.162
633.81	0.162
634.01	0.161
634.21	0.161
634.41	0.160
634.61	0.161
634.81	0.160
635.01	0.159
635.22	0.160
635.42	0.159
635.62	0.160
635.82	0.160
636.02	0.159
636.22	0.159
636.42	0.158
636.62	0.159
636.82	0.158
637.02	0.158
637.22	0.159
637.42	0.158
637.62	0.157
637.82	0.157
638.02	0.157
638.22	0.156
638.42	0.156
638.62	0.156
638.82	0.155
639.02	0.155
639.22	0.155
639.42	0.154
639.62	0.154
639.82	0.153
640.02	0.154
640.22	0.154
640.42	0.154
640.62	0.154
640.82	0.153
641.02	0.152
641.22	0.153
641.42	0.152
641.61	0.152
641.81	0.152
642.01	0.152
642.21	0.152
642.41	0.152
642.61	0.152
642.81	0.151
643.01	0.151
643.21	0.151
643.41	0.151
643.61	0.150
643.81	0.150
644.01	0.149
644.21	0.148
644.41	0.149
644.61	0.148
644.81	0.148
645.01	0.148
645.21	0.148
645.41	0.148
645.61	0.148
645.81	0.148
646.01	0.147
646.21	0.148
646.40	0.148
646.60	0.148
646.80	0.148
647.00	0.147
647.20	0.146
647.40	0.146
647.60	0.146
647.80	0.145
648.00	0.146
648.20	0.145
648.40	0.145
648.60	0.144
648.80	0.144
649.00	0.144
649.20	0.145
649.39	0.145
649.59	0.144
649.79	0.143
649.99	0.143
650.19	0.143
650.39	0.143
650.59	0.143
650.79	0.143
650.99	0.143
651.19	0.142
651.39	0.142
651.58	0.141
651.78	0.141
651.98	0.141
652.18	0.141
652.38	0.140
652.58	0.141
652.78	0.140
652.98	0.140
653.18	0.140
653.38	0.140
653.57	0.139
653.77	0.139
653.97	0.139
654.17	0.139
654.37	0.138
654.57	0.139
654.77	0.138
654.97	0.138
655.16	0.138
655.36	0.138
655.56	0.137
655.76	0.137
655.96	0.137
656.16	0.136
656.36	0.136
656.56	0.136
656.75	0.136
656.95	0.135
657.15	0.135
657.35	0.135
657.55	0.135
657.75	0.135
657.95	0.135
658.14	0.135
658.34	0.135
658.54	0.135
658.74	0.134
658.94	0.134
659.14	0.134
659.34	0.134
659.53	0.133
659.73	0.133
659.93	0.133
660.13	0.132
660.33	0.132
660.53	0.132
660.72	0.133
660.92	0.132
661.12	0.131
661.32	0.131
661.52	0.131
661.72	0.131
661.91	0.130
662.11	0.130
662.31	0.130
662.51	0.130
662.71	0.129
662.90	0.128
663.10	0.128
663.30	0.129
663.50	0.129
663.70	0.128
663.90	0.128
664.09	0.128
664.29	0.128
664.49	0.128
664.69	0.128
664.89	0.128
665.08	0.128
665.28	0.128
665.48	0.127
665.68	0.127
665.88	0.127
666.07	0.126
666.27	0.126
666.47	0.126
666.67	0.126
666.87	0.125
667.06	0.124
667.26	0.124
667.46	0.124
667.66	0.124
667.85	0.124
668.05	0.125
668.25	0.124
668.45	0.124
668.65	0.124
668.84	0.124
669.04	0.124
669.24	0.123
669.44	0.123
669.63	0.123
669.83	0.122
670.03	0.121
670.23	0.121
670.42	0.121
670.62	0.121
670.82	0.120
671.02	0.120
671.22	0.119
671.41	0.119
671.61	0.120
671.81	0.120
672.01	0.120
672.20	0.120
672.40	0.119
672.60	0.119
672.80	0.119
672.99	0.119
673.19	0.119
673.39	0.119
673.58	0.119
673.78	0.119
673.98	0.118
674.18	0.118
674.37	0.118
674.57	0.117
674.77	0.118
674.97	0.117
675.16	0.117
675.36	0.117
675.56	0.116
675.75	0.116
675.95	0.115
676.15	0.116
676.35	0.116
676.54	0.115
676.74	0.115
676.94	0.115
677.13	0.115
677.33	0.114
677.53	0.114
677.73	0.114
677.92	0.114
678.12	0.114
678.32	0.113
678.51	0.114
678.71	0.114
678.91	0.113
679.11	0.113
679.30	0.113
679.50	0.113
679.70	0.112
679.89	0.112
680.09	0.112
680.29	0.112
680.48	0.112
680.68	0.111
680.88	0.111
681.07	0.111
681.27	0.111
681.47	0.111
681.66	0.111
681.86	0.111
682.06	0.111
682.25	0.111
682.45	0.110
682.65	0.110
682.84	0.110
683.04	0.109
683.24	0.109
683.43	0.109
683.63	0.108
683.83	0.108
684.02	0.108
684.22	0.107
684.42	0.107
684.61	0.107
684.81	0.107
685.01	0.107
685.20	0.106
685.40	0.107
685.60	0.107
685.79	0.107
685.99	0.107
686.19	0.107
686.38	0.107
686.58	0.107
686.77	0.107
686.97	0.106
687.17	0.106
687.36	0.106
687.56	0.106
687.76	0.105
687.95	0.105
688.15	0.105
688.34	0.105
688.54	0.104
688.74	0.104
688.93	0.104
689.13	0.104
689.33	0.104
689.52	0.103
689.72	0.104
689.91	0.103
690.11	0.103
690.31	0.103
690.50	0.103
690.70	0.103
690.89	0.103
691.09	0.102
691.29	0.102
691.48	0.102
691.68	0.102
691.87	0.102
692.07	0.102
692.27	0.101
692.46	0.101
692.66	0.101
692.85	0.101
693.05	0.100
693.25	0.100
693.44	0.100
693.64	0.100
693.83	0.100
694.03	0.100
694.22	0.099
694.42	0.099
694.62	0.100
694.81	0.100
695.01	0.100
695.20	0.100
695.40	0.099
695.59	0.099
695.79	0.098
695.99	0.098
696.18	0.098
696.38	0.099
696.57	0.099
696.77	0.098
696.96	0.098
697.16	0.098
697.36	0.098
697.55	0.097
697.75	0.097
697.94	0.097
698.14	0.097
698.33	0.096
698.53	0.096
698.72	0.096
698.92	0.096
699.11	0.096
699.31	0.096
699.51	0.096
699.70	0.096
699.90	0.096
700.09	0.095
700.29	0.095
700.48	0.095
700.68	0.095
700.87	0.095
701.07	0.095
701.26	0.095
701.46	0.095
701.65	0.095
701.85	0.094
702.04	0.094
702.24	0.095
702.43	0.095
702.63	0.094
702.82	0.095
703.02	0.094
703.21	0.095
703.41	0.094
703.60	0.094
703.80	0.094
703.99	0.094
704.19	0.094
704.38	0.094
704.58	0.093
704.77	0.093
704.97	0.093
705.16	0.092
705.36	0.092
705.55	0.092
705.75	0.092
705.94	0.092
706.14	0.092
706.33	0.092
706.53	0.092
706.72	0.092
706.92	0.091
707.11	0.091
707.31	0.091
707.50	0.091
707.70	0.092
707.89	0.092
708.09	0.091
708.28	0.091
708.48	0.091
708.67	0.091
708.86	0.091
709.06	0.091
709.25	0.091
709.45	0.091
709.64	0.091
709.84	0.091
710.03	0.090
710.23	0.090
710.42	0.090
710.62	0.090
710.81	0.090
711.00	0.090
711.20	0.090
711.39	0.090
711.59	0.090
711.78	0.090
711.98	0.090
712.17	0.090
712.37	0.090
712.56	0.090
712.75	0.090
712.95	0.090
713.14	0.090
713.34	0.090
713.53	0.090
713.73	0.090
713.92	0.090
714.11	0.090
714.31	0.090
714.50	0.090
714.70	0.090
714.89	0.089
715.08	0.089
715.28	0.089
715.47	0.089
715.67	0.089
715.86	0.089
716.06	0.089
716.25	0.089
716.44	0.089
716.64	0.088
716.83	0.088
717.03	0.088
717.22	0.088
717.41	0.088
717.61	0.087
717.80	0.088
717.99	0.088
718.19	0.088
718.38	0.088
718.58	0.087
718.77	0.087
718.96	0.087
719.16	0.087
719.35	0.087
719.55	0.086
719.74	0.087
719.93	0.086
720.13	0.086
720.32	0.086
720.51	0.086
720.71	0.087
720.90	0.087
721.10	0.086
721.29	0.086
721.48	0.086
721.68	0.086
721.87	0.086
722.06	0.086
722.26	0.087
722.45	0.086
722.64	0.086
722.84	0.086
723.03	0.086
723.22	0.086
723.42	0.086
723.61	0.086
723.80	0.087
724.00	0.087
724.19	0.087
724.38	0.087
724.58	0.086
724.77	0.086
724.96	0.086
725.16	0.086
725.35	0.086
725.54	0.087
725.74	0.087
725.93	0.086
726.12	0.086
726.32	0.086
726.51	0.086
726.70	0.086
726.90	0.086
727.09	0.086
727.28	0.086
727.48	0.086
727.67	0.085
727.86	0.085
728.06	0.086
728.25	0.086
728.44	0.086
728.64	0.086
728.83	0.087
729.02	0.086
729.21	0.087
729.41	0.087
729.60	0.086
729.79	0.087
729.99	0.086
730.18	0.087
730.37	0.087
730.56	0.086
730.76	0.086
730.95	0.086
731.14	0.086
731.34	0.086
731.53	0.086
731.72	0.086
731.91	0.086
732.11	0.086
732.30	0.086
732.49	0.086
732.69	0.086
732.88	0.086
733.07	0.086
733.26	0.086
733.46	0.086
733.65	0.086
733.84	0.086
734.03	0.086
734.23	0.087
734.42	0.087
734.61	0.087
734.80	0.086
735.00	0.087
735.19	0.087
735.38	0.087
735.57	0.087
735.77	0.087
735.96	0.087
736.15	0.087
736.34	0.086
736.54	0.086
736.73	0.086
736.92	0.086
737.11	0.086
737.31	0.086
737.50	0.086
737.69	0.086
737.88	0.087
738.07	0.086
738.27	0.086
738.46	0.086
738.65	0.086
738.84	0.086
739.04	0.086
739.23	0.086
739.42	0.086
739.61	0.086
739.80	0.086
740.00	0.086
740.19	0.086
740.38	0.086
740.57	0.086
740.76	0.086
740.96	0.086
741.15	0.085
741.34	0.085
741.53	0.085
741.72	0.085
741.92	0.085
742.11	0.085
742.30	0.084
742.49	0.084
742.68	0.084
742.88	0.085
743.07	0.084
743.26	0.085
743.45	0.085
743.64	0.084
743.84	0.084
744.03	0.084
744.22	0.084
744.41	0.084
744.60	0.084
744.79	0.084
744.99	0.084
745.18	0.084
745.37	0.083
745.56	0.083
745.75	0.083
745.94	0.083
746.14	0.083
746.33	0.083
746.52	0.084
746.71	0.083
746.90	0.083
747.09	0.083
747.28	0.083
747.48	0.083
747.67	0.083
747.86	0.083
748.05	0.083
748.24	0.083
748.43	0.083
748.62	0.082
748.82	0.083
749.01	0.082
749.20	0.082
749.39	0.083
749.58	0.083
749.77	0.083
749.96	0.083
750.16	0.083
750.35	0.083
750.54	0.083
750.73	0.083
750.92	0.083
751.11	0.082
751.30	0.083
751.49	0.083
751.68	0.083
751.88	0.083
752.07	0.082
752.26	0.082
752.45	0.082
752.64	0.082
752.83	0.082
753.02	0.082
753.21	0.082
753.40	0.082
753.60	0.082
753.79	0.082
753.98	0.082
754.17	0.082
754.36	0.082
754.55	0.082
754.74	0.082
754.93	0.081
755.12	0.081
755.31	0.081
755.50	0.081
755.70	0.081
755.89	0.081
756.08	0.081
756.27	0.080
756.46	0.081
756.65	0.080
756.84	0.080
757.03	0.080
757.22	0.080
757.41	0.080
757.60	0.080
757.79	0.079
757.98	0.079
758.17	0.080
758.36	0.080
758.56	0.079
758.75	0.079
758.94	0.080
759.13	0.080
759.32	0.080
759.51	0.080
759.70	0.080
759.89	0.080
760.08	0.080
760.27	0.079
760.46	0.080
760.65	0.080
760.84	0.080
761.03	0.080
761.22	0.080
761.41	0.080
761.60	0.080
761.79	0.079
761.98	0.080
762.17	0.079
762.36	0.079
762.55	0.079
762.74	0.079
762.93	0.079
763.12	0.078
763.31	0.078
763.50	0.078
763.69	0.078
763.88	0.078
764.07	0.078
764.26	0.078
764.45	0.078
764.64	0.078
764.83	0.078
765.02	0.078
765.21	0.079
765.40	0.079
765.59	0.078
765.78	0.078
765.97	0.078
766.16	0.078
766.35	0.078
766.54	0.078
766.73	0.078
766.92	0.078
767.11	0.078
767.30	0.078
767.49	0.078
767.68	0.078
767.87	0.078
768.06	0.078
768.25	0.078
768.44	0.078
768.63	0.078
768.82	0.078
769.01	0.078
769.20	0.078
769.39	0.078
769.58	0.078
769.77	0.078
769.96	0.078
770.15	0.078
770.34	0.078
770.53	0.077
770.72	0.077
770.91	0.077
771.10	0.077
771.29	0.077
771.47	0.076
771.66	0.076
771.85	0.076
772.04	0.076
772.23	0.076
772.42	0.076
772.61	0.076
772.80	0.077
772.99	0.077
773.18	0.077
773.37	0.077
773.56	0.077
773.75	0.077
773.94	0.077
774.13	0.076
774.31	0.077
774.50	0.077
774.69	0.077
774.88	0.076
775.07	0.076
775.26	0.076
775.45	0.075
775.64	0.075
775.83	0.075
776.02	0.075
776.21	0.075
776.40	0.075
776.58	0.075
776.77	0.075
776.96	0.076
777.15	0.076
777.34	0.076
777.53	0.077
777.72	0.077
777.91	0.076
778.10	0.076
778.28	0.076
778.47	0.076
778.66	0.076
778.85	0.075
779.04	0.075
779.23	0.075
779.42	0.075
779.61	0.075
779.79	0.074
779.98	0.074
780.17	0.074
780.36	0.074
780.55	0.074
780.74	0.074
780.93	0.074
781.12	0.074
781.30	0.074
781.49	0.074
781.68	0.074
781.87	0.074
782.06	0.074
782.25	0.074
782.44	0.074
782.62	0.074
782.81	0.074
783.00	0.074
783.19	0.074
783.38	0.074
783.57	0.075
783.75	0.074
783.94	0.074
784.13	0.074
784.32	0.074
784.51	0.074
784.70	0.074
784.88	0.074
785.07	0.074
785.26	0.074
785.45	0.074
785.64	0.073
785.83	0.074
786.01	0.073
786.20	0.074
786.39	0.074
786.58	0.074
786.77	0.073
786.95	0.073
787.14	0.073
787.33	0.073
787.52	0.073
787.71	0.073
787.90	0.072
788.08	0.072
788.27	0.072
788.46	0.072
788.65	0.072
788.84	0.073
789.02	0.073
789.21	0.073
789.40	0.073
789.59	0.073
789.77	0.073
789.96	0.073
790.15	0.073
790.34	0.073
790.53	0.073
790.71	0.073
790.90	0.073
791.09	0.072
791.28	0.073
791.46	0.073
791.65	0.072
791.84	0.072
792.03	0.072
792.22	0.072
792.40	0.072
792.59	0.072
792.78	0.072
792.97	0.073
793.15	0.073
793.34	0.073
793.53	0.073
793.72	0.073
793.90	0.072
794.09	0.072
794.28	0.072
794.47	0.072
794.65	0.072
794.84	0.072
795.03	0.072
795.22	0.072
795.40	0.072
795.59	0.071
795.78	0.071
795.97	0.072
796.15	0.072
796.34	0.072
796.53	0.072
796.71	0.072
796.90	0.072
797.09	0.072
797.28	0.072
797.46	0.072
797.65	0.072
797.84	0.072
798.02	0.072
798.21	0.071
798.40	0.071
798.59	0.071
798.77	0.071
798.96	0.070
799.15	0.070
799.33	0.070
799.52	0.070
799.71	0.070
799.90	0.071
800.08	0.071
800.27	0.071
800.46	0.070
800.64	0.071
800.83	0.071
801.02	0.071
801.20	0.071
801.39	0.071
801.58	0.071
801.76	0.071
801.95	0.071
802.14	0.071
802.32	0.071
802.51	0.071
802.70	0.070
802.88	0.070
803.07	0.071
803.26	0.070
803.44	0.070
803.63	0.070
803.82	0.070
804.00	0.070
804.19	0.070
804.38	0.070
804.56	0.070
804.75	0.070
804.94	0.070
805.12	0.070
805.31	0.071
805.50	0.071
805.68	0.071
805.87	0.071
806.06	0.071
806.24	0.071
806.43	0.071
806.62	0.071
806.80	0.071
806.99	0.071
807.17	0.071
807.36	0.071
807.55	0.071
807.73	0.071
807.92	0.071
808.11	0.071
808.29	0.070
808.48	0.070
808.66	0.070
808.85	0.070
809.04	0.069
809.22	0.069
809.41	0.070
809.59	0.069
809.78	0.069
809.97	0.069
810.15	0.069
810.34	0.069
810.53	0.069
810.71	0.069
810.90	0.070
811.08	0.069
811.27	0.069
811.45	0.069
811.64	0.069
811.83	0.069
812.01	0.069
812.20	0.069
812.38	0.069
812.57	0.069
812.76	0.069
812.94	0.069
813.13	0.069
813.31	0.069
813.50	0.070
813.68	0.070
813.87	0.069
814.06	0.069
814.24	0.069
814.43	0.069
814.61	0.069
814.80	0.069
814.98	0.070
815.17	0.069
815.36	0.069
815.54	0.069
815.73	0.069
815.91	0.069
816.10	0.069
816.28	0.069
816.47	0.069
816.65	0.069
816.84	0.069
817.03	0.070
817.21	0.070
817.40	0.070
817.58	0.070
817.77	0.070
817.95	0.070
818.14	0.070
818.32	0.070
818.51	0.070
818.69	0.070
818.88	0.070
819.06	0.070
819.25	0.069
819.43	0.069
819.62	0.069
819.80	0.069
819.99	0.070
820.18	0.070
820.36	0.069
820.55	0.069
820.73	0.070
820.92	0.070
821.10	0.070
821.29	0.070
821.47	0.070
821.66	0.070
821.84	0.070
822.03	0.070
822.21	0.070
822.40	0.070
822.58	0.070
822.77	0.070
822.95	0.070
823.14	0.070
823.32	0.070
823.50	0.071
823.69	0.071
823.87	0.070
824.06	0.071
824.24	0.071
824.43	0.070
824.61	0.071
824.80	0.071
824.98	0.071
825.17	0.071
825.35	0.071
825.54	0.071
825.72	0.071
825.91	0.070
826.09	0.070
826.28	0.071
826.46	0.071
826.64	0.071
826.83	0.071
827.01	0.070
827.20	0.071
827.38	0.071
827.57	0.071
827.75	0.071
827.94	0.071
828.12	0.072
828.31	0.072
828.49	0.072
828.67	0.073
828.86	0.073
829.04	0.073
829.23	0.073
829.41	0.073
829.60	0.073
829.78	0.073
829.96	0.074
830.15	0.074
830.33	0.074
830.52	0.074
830.70	0.074
830.88	0.074
831.07	0.074
831.25	0.074
831.44	0.074
831.62	0.074
831.81	0.075
831.99	0.074
832.17	0.074
832.36	0.075
832.54	0.075
832.73	0.075
832.91	0.075
833.09	0.075
833.28	0.075
833.46	0.075
833.65	0.075
833.83	0.075
834.01	0.075
834.20	0.075
834.38	0.075
834.56	0.075
834.75	0.075
834.93	0.075
835.12	0.075
835.30	0.075
835.48	0.076
835.67	0.075
835.85	0.076
836.03	0.076
836.22	0.076
836.40	0.076
836.59	0.076
836.77	0.076
836.95	0.076
837.14	0.076
837.32	0.076
837.50	0.076
837.69	0.076
837.87	0.076
838.05	0.076
838.24	0.076
838.42	0.076
838.60	0.076
838.79	0.077
838.97	0.076
839.15	0.077
839.34	0.077
839.52	0.077
839.70	0.077
839.89	0.077
840.07	0.077
840.25	0.077
840.44	0.077
840.62	0.077
840.80	0.077
840.99	0.077
841.17	0.077
841.35	0.077
841.54	0.076
841.72	0.077
841.90	0.077
842.09	0.077
842.27	0.077
842.45	0.077
842.64	0.077
842.82	0.077
843.00	0.077
843.19	0.077
843.37	0.077
843.55	0.077
843.73	0.077
843.92	0.077
844.10	0.077
844.28	0.077
844.47	0.077
844.65	0.077
844.83	0.077
845.01	0.077
845.20	0.078
845.38	0.078
845.56	0.078
845.75	0.078
845.93	0.078
846.11	0.077
846.29	0.078
846.48	0.078
846.66	0.078
846.84	0.078
847.02	0.077
847.21	0.077
847.39	0.078
847.57	0.077
847.76	0.078
847.94	0.078
848.12	0.078
848.30	0.078
848.49	0.078
848.67	0.078
848.85	0.078
849.03	0.079
849.22	0.078
849.40	0.078
849.58	0.078
849.76	0.078
849.95	0.078
850.13	0.079
850.31	0.078
850.49	0.079
850.67	0.079
850.86	0.079
851.04	0.078
851.22	0.078
851.40	0.078
851.59	0.078
851.77	0.078
851.95	0.078
852.13	0.078
852.31	0.078
852.50	0.078
852.68	0.078
852.86	0.078
853.04	0.078
853.23	0.078
853.41	0.078
853.59	0.078
853.77	0.078
853.95	0.078
854.14	0.078
854.32	0.078
854.50	0.078
854.68	0.077
854.86	0.077
855.04	0.077
855.23	0.078
855.41	0.078
855.59	0.078
855.77	0.078
855.95	0.078
856.14	0.078
856.32	0.078
856.50	0.078
856.68	0.078
856.86	0.079
857.04	0.078
857.23	0.078
857.41	0.078
857.59	0.078
857.77	0.078
857.95	0.078
858.13	0.078
858.32	0.078
858.50	0.079
858.68	0.078
858.86	0.078
859.04	0.078
859.22	0.078
859.41	0.079
859.59	0.079
859.77	0.079
859.95	0.079
860.13	0.079
860.31	0.079
860.49	0.078
860.68	0.079
860.86	0.079
861.04	0.079
861.22	0.079
861.40	0.079
861.58	0.079
861.76	0.079
861.94	0.079
862.13	0.079
862.31	0.079
862.49	0.079
862.67	0.079
862.85	0.079
863.03	0.079
863.21	0.079
863.39	0.079
863.57	0.079
863.76	0.079
863.94	0.079
864.12	0.079
864.30	0.079
864.48	0.079
864.66	0.079
864.84	0.079
865.02	0.080
865.20	0.080
865.38	0.080
865.57	0.080
865.75	0.080
865.93	0.080
866.11	0.080
866.29	0.080
866.47	0.080
866.65	0.080
866.83	0.080
867.01	0.080
867.19	0.080
867.37	0.080
867.55	0.080
867.73	0.080
867.92	0.080
868.10	0.080
868.28	0.080
868.46	0.080
868.64	0.080
868.82	0.080
869.00	0.080
869.18	0.080
869.36	0.080
869.54	0.080
869.72	0.081
869.90	0.081
870.08	0.081
870.26	0.081
870.44	0.081
870.62	0.081
870.80	0.081
870.98	0.081
871.16	0.080
871.34	0.080
871.53	0.080
871.71	0.080
871.89	0.080
872.07	0.080
872.25	0.080
872.43	0.081
872.61	0.081
872.79	0.081
872.97	0.081
873.15	0.081
873.33	0.082
873.51	0.082
873.69	0.082
873.87	0.081
874.05	0.082
874.23	0.081
874.41	0.081
874.59	0.082
874.77	0.081
874.95	0.081
875.13	0.081
875.31	0.081
875.49	0.081
875.67	0.081
875.85	0.081
876.03	0.082
876.21	0.082
876.39	0.082
876.57	0.082
876.75	0.082
876.93	0.082
877.11	0.082
877.29	0.082
877.47	0.082
877.65	0.082
877.82	0.082
878.00	0.082
878.18	0.082
878.36	0.082
878.54	0.082
878.72	0.082
878.90	0.082
879.08	0.083
879.26	0.083
879.44	0.083
879.62	0.083
879.80	0.083
879.98	0.082
880.16	0.082
880.34	0.082
880.52	0.082
880.70	0.082
880.88	0.082
881.06	0.082
881.24	0.082
881.42	0.082
881.59	0.082
881.77	0.081
881.95	0.082
882.13	0.082
882.31	0.082
882.49	0.082
882.67	0.083
882.85	0.083
883.03	0.083
883.21	0.083
883.39	0.083
883.57	0.083
883.75	0.084
883.92	0.083
884.10	0.084
884.28	0.084
884.46	0.084
884.64	0.083
884.82	0.083
885.00	0.083
885.18	0.084
885.36	0.084
885.54	0.084
885.71	0.084
885.89	0.084
886.07	0.084
886.25	0.084
886.43	0.084
886.61	0.084
886.79	0.084
886.97	0.084
887.15	0.084
887.32	0.084
887.50	0.084
887.68	0.084
887.86	0.084
888.04	0.084
888.22	0.084
888.40	0.084
888.57	0.084
888.75	0.084
888.93	0.085
889.11	0.084
889.29	0.085
889.47	0.085
889.65	0.085
889.82	0.085
890.00	0.086
890.18	0.086
890.36	0.086
890.54	0.086
890.72	0.086
890.90	0.086
891.07	0.086
891.25	0.085
891.43	0.085
891.61	0.085
891.79	0.085
891.97	0.085
892.14	0.085
892.32	0.085
892.50	0.085
892.68	0.085
892.86	0.085
893.03	0.085
893.21	0.086
893.39	0.086
893.57	0.086
893.75	0.086
893.93	0.086
894.10	0.086
894.28	0.086
894.46	0.086
894.64	0.086
894.82	0.086
894.99	0.086
895.17	0.085
895.35	0.085
895.53	0.086
895.71	0.085
895.88	0.086
896.06	0.086
896.24	0.086
896.42	0.086
896.59	0.086
896.77	0.086
896.95	0.086
897.13	0.086
897.31	0.086
897.48	0.086
897.66	0.086
897.84	0.086
898.02	0.086
898.19	0.086
898.37	0.086
898.55	0.087
898.73	0.087
898.91	0.087
899.08	0.087
899.26	0.087
899.44	0.087
899.62	0.087
899.79	0.087
899.97	0.088
900.15	0.087
900.33	0.087
900.50	0.087
900.68	0.087
900.86	0.087
901.04	0.088
901.21	0.088
901.39	0.088
901.57	0.088
901.74	0.088
901.92	0.088
902.10	0.088
902.28	0.088
902.45	0.088
902.63	0.088
902.81	0.088
902.99	0.088
903.16	0.088
903.34	0.088
903.52	0.088
903.69	0.088
903.87	0.088
904.05	0.088
904.22	0.088
904.40	0.089
904.58	0.089
904.76	0.089
904.93	0.089
905.11	0.089
905.29	0.089
905.46	0.089
905.64	0.089
905.82	0.089
905.99	0.089
906.17	0.089
906.35	0.089
906.53	0.089
906.70	0.090
906.88	0.090
907.06	0.090
907.23	0.090
907.41	0.090
907.59	0.090
907.76	0.090
907.94	0.090
908.12	0.090
908.29	0.090
908.47	0.091
908.65	0.090
908.82	0.091
909.00	0.090
909.18	0.091
909.35	0.090
909.53	0.090
909.71	0.090
909.88	0.090
910.06	0.090
910.23	0.090
910.41	0.091
910.59	0.090
910.76	0.090
910.94	0.090
911.12	0.091
911.29	0.091
911.47	0.091
911.65	0.091
911.82	0.091
912.00	0.092
912.17	0.092
912.35	0.092
912.53	0.093
912.70	0.093
912.88	0.093
913.06	0.093
913.23	0.093
913.41	0.093
913.58	0.094
913.76	0.094
913.94	0.094
914.11	0.094
914.29	0.094
914.46	0.094
914.64	0.094
914.82	0.094
914.99	0.094
915.17	0.094
915.34	0.094
915.52	0.094
915.70	0.094
915.87	0.094
916.05	0.094
916.22	0.094
916.40	0.094
916.57	0.095
916.75	0.095
916.93	0.095
917.10	0.094
917.28	0.095
917.45	0.094
917.63	0.094
917.80	0.094
917.98	0.095
918.16	0.095
918.33	0.095
918.51	0.095
918.68	0.095
918.86	0.095
919.03	0.096
919.21	0.096
919.39	0.096
919.56	0.097
919.74	0.097
919.91	0.097
920.09	0.097
920.26	0.097
920.44	0.098
920.61	0.098
920.79	0.098
920.96	0.098
921.14	0.099
921.31	0.099
921.49	0.099
921.67	0.099
921.84	0.099
922.02	0.099
922.19	0.100
922.37	0.100
922.54	0.100
922.72	0.100
922.89	0.101
923.07	0.101
923.24	0.101
923.42	0.101
923.59	0.102
923.77	0.102
923.94	0.102
924.12	0.103
924.29	0.103
924.47	0.104
924.64	0.104
924.82	0.104
924.99	0.104
925.17	0.105
925.34	0.105
925.52	0.105
925.69	0.106
925.87	0.106
926.04	0.106
926.22	0.106
926.39	0.107
926.57	0.107
926.74	0.107
926.91	0.108
927.09	0.108
927.26	0.107
927.44	0.108
927.61	0.108
927.79	0.109
927.96	0.109
928.14	0.109
928.31	0.109
928.49	0.109
928.66	0.110
928.84	0.111
929.01	0.111
929.18	0.112
929.36	0.113
929.53	0.113
929.71	0.113
929.88	0.114
930.06	0.114
930.23	0.114
930.41	0.115
930.58	0.115
930.75	0.115
930.93	0.116
931.10	0.116
931.28	0.116
931.45	0.117
931.63	0.117
931.80	0.117
931.97	0.118
932.15	0.119
932.32	0.119
932.50	0.119
932.67	0.120
932.84	0.121
933.02	0.122
933.19	0.121
933.37	0.122
933.54	0.122
933.71	0.123
933.89	0.124
934.06	0.124
934.24	0.124
934.41	0.125
934.58	0.125
934.76	0.126
934.93	0.126
935.11	0.126
935.28	0.127
935.45	0.127
935.63	0.128
935.80	0.128
935.98	0.128
936.15	0.128
936.32	0.129
936.50	0.130
936.67	0.130
936.84	0.131
937.02	0.132
937.19	0.132
937.36	0.133
937.54	0.133
937.71	0.134
937.89	0.135
938.06	0.135
938.23	0.135
938.41	0.136
938.58	0.136
938.75	0.136
938.93	0.137
939.10	0.138
939.27	0.138
939.45	0.139
939.62	0.139
939.79	0.140
939.97	0.140
940.14	0.141
940.31	0.142
940.49	0.143
940.66	0.143
940.83	0.144
941.01	0.145
941.18	0.145
941.35	0.146
941.53	0.146
941.70	0.147
941.87	0.148
942.05	0.148
942.22	0.149
942.39	0.150
942.57	0.151
942.74	0.151
942.91	0.152
943.08	0.152
943.26	0.153
943.43	0.154
943.60	0.154
943.78	0.155
943.95	0.156
944.12	0.156
944.29	0.156
944.47	0.156
944.64	0.157
944.81	0.158
944.99	0.159
945.16	0.159
945.33	0.159
945.50	0.161
945.68	0.161
945.85	0.162
946.02	0.164
946.20	0.165
946.37	0.166
946.54	0.167
946.71	0.168
946.89	0.168
947.06	0.169
947.23	0.170
947.40	0.171
947.58	0.171
947.75	0.173
947.92	0.173
948.09	0.174
948.27	0.175
948.44	0.176
948.61	0.177
948.78	0.178
948.96	0.180
949.13	0.180
949.30	0.181
949.47	0.182
949.65	0.183
949.82	0.184
949.99	0.184
950.16	0.187
950.33	0.187
950.51	0.189
950.68	0.190
950.85	0.191
951.02	0.193
951.20	0.194
951.37	0.195
951.54	0.196
951.71	0.197
951.88	0.199
952.06	0.200
952.23	0.200
952.40	0.202
952.57	0.203
952.74	0.205
952.92	0.206
953.09	0.207
953.26	0.209
953.43	0.210
953.60	0.211
953.77	0.212
953.95	0.213
954.12	0.215
954.29	0.215
954.46	0.218
954.63	0.218
954.81	0.219
954.98	0.219
955.15	0.221
955.32	0.223
955.49	0.223
955.66	0.224
955.84	0.225
956.01	0.225
956.18	0.228
956.35	0.229
956.52	0.230
956.69	0.232
956.87	0.232
957.04	0.233
957.21	0.235
957.38	0.235
957.55	0.237
957.72	0.238
957.89	0.239
958.07	0.238
958.24	0.241
958.41	0.242
958.58	0.242
958.75	0.242
958.92	0.243
959.09	0.244
959.26	0.244
959.44	0.245
959.61	0.246
959.78	0.247
959.95	0.248
960.12	0.248
960.29	0.251
960.46	0.250
960.63	0.251
960.81	0.251
960.98	0.252
961.15	0.253
961.32	0.254
961.49	0.253
961.66	0.254
961.83	0.255
962.00	0.255
962.17	0.255
962.34	0.255
962.52	0.256
962.69	0.256
962.86	0.256
963.03	0.256
963.20	0.257
963.37	0.256
963.54	0.257
963.71	0.257
963.88	0.257
964.05	0.258
964.22	0.260
964.39	0.259
964.56	0.259
964.74	0.260
964.91	0.259
965.08	0.260
965.25	0.260
965.42	0.261
965.59	0.262
965.76	0.261
965.93	0.262
966.10	0.261
966.27	0.262
966.44	0.262
966.61	0.263
966.78	0.263
966.95	0.262
967.12	0.264
967.29	0.265
967.46	0.265
967.63	0.264
967.80	0.264
967.97	0.264
968.14	0.263
968.32	0.264
968.49	0.264
968.66	0.263
968.83	0.264
969.00	0.264
969.17	0.264
969.34	0.264
969.51	0.266
969.68	0.264
969.85	0.265
970.02	0.265
970.19	0.265
970.36	0.266
970.53	0.266
970.70	0.265
970.87	0.265
971.04	0.264
971.21	0.265
971.38	0.265
971.55	0.266
971.72	0.266
971.89	0.267
972.06	0.266
972.23	0.266
972.40	0.267
972.57	0.265
972.74	0.266
972.91	0.267
973.07	0.267
973.24	0.267
973.41	0.267
973.58	0.265
973.75	0.278
973.92	0.265
974.09	0.264
974.26	0.264
974.43	0.263
974.60	0.263
974.77	0.264
974.94	0.263
975.11	0.264
975.28	0.265
975.45	0.263
975.62	0.264
975.79	0.266
975.96	0.265
976.13	0.264
976.30	0.265
976.47	0.264
976.64	0.265
976.80	0.265
976.97	0.265
977.14	0.264
977.31	0.265
977.48	0.265
977.65	0.264
977.82	0.263
977.99	0.264
978.16	0.264
978.33	0.264
978.50	0.263
978.67	0.263
978.83	0.263
979.00	0.263
979.17	0.262
979.34	0.261
979.51	0.261
979.68	0.262
979.85	0.261
980.02	0.262
980.19	0.260
980.36	0.262
980.52	0.262
980.69	0.261
980.86	0.261
981.03	0.260
981.20	0.259
981.37	0.260
981.54	0.261
981.71	0.259
981.88	0.260
982.04	0.260
982.21	0.259
982.38	0.261
982.55	0.260
982.72	0.259
982.89	0.260
983.06	0.258
983.22	0.258
983.39	0.259
983.56	0.258
983.73	0.257
983.90	0.256
984.07	0.258
984.24	0.257
984.40	0.257
984.57	0.255
984.74	0.258
984.91	0.259
985.08	0.256
985.25	0.254
985.41	0.255
985.58	0.255
985.75	0.256
985.92	0.255
986.09	0.253
986.26	0.253
986.42	0.252
986.59	0.250
986.76	0.252
986.93	0.252
987.10	0.252
987.27	0.250
987.43	0.248
987.60	0.251
987.77	0.251
987.94	0.250
988.11	0.250
988.27	0.251
988.44	0.250
988.61	0.249
988.78	0.247
988.95	0.248
989.11	0.250
989.28	0.248
989.45	0.247
989.62	0.247
989.79	0.247
989.95	0.246
990.12	0.247
990.29	0.247
990.46	0.245
990.62	0.244
990.79	0.245
990.96	0.245
991.13	0.245
991.30	0.243
991.46	0.242
991.63	0.241
991.80	0.240
991.97	0.240
992.13	0.240
992.30	0.240
992.47	0.238
992.64	0.238
992.80	0.238
992.97	0.238
993.14	0.236
993.31	0.233
993.47	0.236
993.64	0.234
993.81	0.234
993.98	0.235
994.14	0.234
994.31	0.234
994.48	0.234
994.64	0.234
994.81	0.233
994.98	0.233
995.15	0.232
995.31	0.231
995.48	0.230
995.65	0.232
995.82	0.229
995.98	0.229
996.15	0.230
996.32	0.232
996.48	0.230
996.65	0.230
996.82	0.228
996.99	0.228
997.15	0.228
997.32	0.229
997.49	0.227
997.65	0.228
997.82	0.227
997.99	0.226
998.15	0.226
998.32	0.227
998.49	0.225
998.65	0.226
998.82	0.225
998.99	0.223
999.15	0.224
999.32	0.223
999.49	0.222
999.65	0.223
999.82	0.220
999.99	0.220
1000.15	0.221
1000.32	0.220
1000.49	0.220
1000.65	0.218
1000.82	0.218
1000.99	0.219
1001.15	0.219
1001.32	0.218
1001.49	0.218
1001.65	0.218
1001.82	0.221
1001.99	0.217
1002.15	0.217
1002.32	0.216
1002.49	0.217
1002.65	0.216
1002.82	0.214
1002.99	0.214
1003.15	0.217
1003.32	0.215
1003.48	0.215
1003.65	0.214
1003.82	0.213
1003.98	0.210
1004.15	0.210
1004.32	0.211
1004.48	0.211
1004.65	0.212
1004.81	0.209
1004.98	0.207
1005.15	0.208
1005.31	0.208
1005.48	0.206
1005.64	0.207
1005.81	0.209
1005.98	0.206
1006.14	0.206
1006.31	0.206
1006.47	0.204
1006.64	0.203
1006.81	0.203
1006.97	0.203
1007.14	0.203
1007.30	0.204
1007.47	0.204
1007.63	0.201
1007.80	0.200
1007.97	0.200
1008.13	0.200
1008.30	0.201
1008.46	0.201
1008.63	0.200
1008.79	0.200
1008.96	0.200
1009.13	0.200
1009.29	0.198
1009.46	0.198
1009.62	0.198
1009.79	0.196
1009.95	0.197
1010.12	0.196
1010.28	0.197
1010.45	0.195
1010.62	0.195
1010.78	0.194
1010.95	0.192
1011.11	0.194
1011.28	0.193
1011.44	0.196
1011.61	0.194
1011.77	0.192
1011.94	0.192
1012.10	0.192
1012.27	0.192
1012.43	0.192
1012.60	0.190
1012.76	0.191
1012.93	0.190
1013.10	0.188
1013.26	0.185
1013.43	0.186
1013.59	0.193
1013.76	0.185
1013.92	0.184
1014.09	0.182
1014.25	0.183
1014.42	0.184
1014.58	0.184
1014.75	0.186
1014.91	0.184
1015.08	0.187
1015.24	0.183
1015.41	0.185
1015.57	0.185
1015.73	0.184
1015.90	0.183
1016.06	0.185
1016.23	0.183
1016.39	0.183
1016.56	0.183
1016.72	0.183
1016.89	0.182
1017.05	0.185
1017.22	0.181
1017.38	0.181
1017.55	0.179
1017.71	0.181
1017.88	0.181
1018.04	0.181
1018.21	0.178
1018.37	0.179
1018.53	0.179
1018.70	0.177
1018.86	0.176
1019.03	0.179
1019.19	0.176
1019.36	0.176
1019.52	0.177
1019.69	0.177
1019.85	0.176
1020.01	0.176
1020.18	0.174
1020.34	0.173
1020.51	0.173
1020.67	0.174
1020.84	0.172
1021.00	0.173
1021.16	0.170
1021.33	0.171
1021.49	0.170
1021.66	0.171
1021.82	0.169
1021.98	0.169
1022.15	0.170
1022.31	0.169
1022.48	0.168
1022.64	0.169
1022.80	0.167
1022.97	0.166
1023.13	0.166
1023.30	0.166
1023.46	0.166
1023.62	0.163
1023.79	0.166
1023.95	0.166
1024.12	0.165
1024.28	0.164
1024.44	0.164
1024.61	0.163
1024.77	0.162
1024.93	0.161
1025.10	0.162
1025.26	0.161
1025.43	0.161
1025.59	0.156
1025.75	0.160
1025.92	0.159
1026.08	0.158
1026.24	0.157
1026.41	0.159
1026.57	0.158
1026.73	0.156
1026.90	0.158
1027.06	0.156
1027.23	0.158
1027.39	0.159
1027.55	0.160
1027.72	0.158
1027.88	0.158
1028.04	0.159
1028.21	0.159
1028.37	0.153
1028.53	0.158
1028.70	0.156
1028.86	0.154
1029.02	0.154
1029.19	0.155
1029.35	0.153
1029.51	0.153
1029.67	0.152
1029.84	0.153
1030.00	0.148
1030.16	0.149
1030.33	0.152
1030.49	0.149
1030.65	0.146
1030.82	0.162
1030.98	0.149
1031.14	0.148
1031.31	0.148
1031.47	0.145
1031.63	0.148
1031.79	0.147
1031.96	0.148
1032.12	0.150
1032.28	0.146
1032.45	0.150
1032.61	0.148
1032.77	0.147
1032.93	0.145
1033.10	0.147
1033.26	0.149
1033.42	0.147
1033.58	0.147
1033.75	0.148
1033.91	0.146
1034.07	0.149
1034.24	0.147
1034.40	0.145
1034.56	0.146
1034.72	0.147
1034.89	0.148
1035.05	0.145
1035.21	0.144
1035.37	0.142
1035.54	0.145
1035.70	0.142
1035.86	0.141
1036.02	0.143
1036.19	0.141
1036.35	0.140
1036.51	0.143
1036.67	0.140
1036.83	0.140
1037.00	0.139
1037.16	0.140
1037.32	0.142
1037.48	0.142
1037.65	0.146
1037.81	0.140
1037.97	0.140
1038.13	0.139
1038.29	0.137
1038.46	0.134
1038.62	0.139
1038.78	0.136
1038.94	0.134
1039.10	0.139
1039.27	0.134
1039.43	0.136
1039.59	0.136
1039.75	0.137
1039.91	0.136
1040.08	0.135
1040.24	0.138
1040.40	0.139
1040.56	0.137
1040.72	0.130
1040.89	0.133
1041.05	0.135
1041.21	0.134
1041.37	0.132
1041.53	0.137
1041.69	0.134
1041.86	0.134
1042.02	0.132
1042.18	0.132
1042.34	0.134
1042.50	0.138
1042.66	0.134
1042.83	0.133
1042.99	0.135
1043.15	0.131
1043.31	0.131
1043.47	0.136
1043.63	0.133
1043.79	0.132
1043.96	0.132
1044.12	0.137
1044.28	0.134
1044.44	0.136
1044.60	0.130
1044.76	0.129
1044.92	0.133
1045.09	0.135
1045.25	0.131
1045.41	0.132
1045.57	0.128
1045.73	0.127
1045.89	0.127
1046.05	0.129
1046.21	0.137
1046.38	0.124
1046.54	0.129
1046.70	0.130
1046.86	0.130
>>>>>End Processed Spectral Data<<<<<
