SpectraSuite Data File
++++++++++++++++++++++++++++++++++++
Date: Mon May 20 12:13:50 CDT 2013
User: Students
Dark Spectrum Present: Yes
Reference Spectrum Present: Yes
Number of Sampled Component Spectra: 1
Spectrometers: USB4H00887
Integration Time (usec): 60000 (USB4H00887)
Spectra Averaged: 5 (USB4H00887)
Boxcar Smoothing: 5 (USB4H00887)
Correct for Electrical Dark: No (USB4H00887)
Strobe/Lamp Enabled: No (USB4H00887)
Correct for Detector Non-linearity: No (USB4H00887)
Correct for Stray Light: No (USB4H00887)
Number of Pixels in Processed Spectrum: 3648
>>>>>Begin Processed Spectral Data<<<<<
345.83	0.194
346.05	0.194
346.26	0.194
346.48	-0.000
346.70	0.104
346.92	0.013
347.14	0.037
347.35	0.042
347.57	0.288
347.79	-0.214
348.01	-0.145
348.23	-0.275
348.44	-0.000
348.66	0.180
348.88	-0.338
349.10	-0.088
349.32	0.006
349.53	0.036
349.75	0.080
349.97	0.065
350.19	0.102
350.41	0.090
350.62	-0.223
350.84	0.022
351.06	0.026
351.28	0.035
351.50	-0.070
351.71	-0.068
351.93	-0.069
352.15	-0.034
352.37	-0.136
352.58	-0.038
352.80	-0.015
353.02	-0.005
353.24	0.002
353.46	-0.029
353.67	0.046
353.89	0.026
354.11	0.032
354.33	0.039
354.54	0.086
354.76	0.162
354.98	0.373
355.20	0.291
355.41	0.136
355.63	0.268
355.85	0.109
356.07	-0.000
356.28	0.091
356.50	0.151
356.72	0.062
356.94	0.188
357.15	0.281
357.37	-0.000
357.59	0.110
357.81	0.046
358.02	0.109
358.24	0.088
358.46	0.181
358.68	0.142
358.89	0.086
359.11	-0.000
359.33	0.067
359.55	-0.421
359.76	0.088
359.98	0.104
360.20	0.108
360.42	0.091
360.63	0.096
360.85	0.072
361.07	0.437
361.29	0.078
361.50	0.261
361.72	0.103
361.94	0.413
362.15	0.155
362.37	0.089
362.59	0.100
362.81	0.156
363.02	0.245
363.24	0.325
363.46	0.176
363.68	0.211
363.89	0.132
364.11	0.199
364.33	0.239
364.54	0.173
364.76	0.209
364.98	0.217
365.20	0.245
365.41	0.139
365.63	0.196
365.85	0.147
366.06	0.421
366.28	0.419
366.50	0.234
366.71	0.097
366.93	0.107
367.15	0.104
367.37	0.110
367.58	0.158
367.80	0.216
368.02	0.614
368.23	0.143
368.45	0.159
368.67	0.129
368.88	0.118
369.10	-0.000
369.32	0.141
369.53	0.074
369.75	0.117
369.97	0.232
370.19	0.144
370.40	0.059
370.62	0.202
370.84	0.084
371.05	0.593
371.27	0.179
371.49	0.201
371.70	0.199
371.92	0.319
372.14	0.131
372.35	0.128
372.57	0.142
372.79	0.404
373.00	0.088
373.22	0.153
373.44	0.138
373.65	0.105
373.87	0.157
374.09	0.687
374.30	0.145
374.52	0.134
374.74	0.088
374.95	0.327
375.17	0.104
375.39	-0.000
375.60	0.137
375.82	0.234
376.04	0.096
376.25	0.121
376.47	0.076
376.68	0.168
376.90	0.130
377.12	0.327
377.33	0.172
377.55	0.468
377.77	0.219
377.98	0.284
378.20	0.164
378.42	0.207
378.63	0.261
378.85	-0.000
379.07	0.162
379.28	0.571
379.50	0.321
379.71	0.159
379.93	0.114
380.15	0.159
380.36	0.261
380.58	0.162
380.80	0.402
381.01	0.119
381.23	0.103
381.44	0.129
381.66	0.154
381.88	0.193
382.09	-0.089
382.31	0.127
382.53	0.124
382.74	0.515
382.96	0.174
383.17	0.155
383.39	0.206
383.61	0.261
383.82	0.185
384.04	0.212
384.25	0.244
384.47	0.222
384.69	0.224
384.90	0.232
385.12	0.515
385.33	0.323
385.55	0.221
385.77	0.353
385.98	0.186
386.20	0.235
386.41	0.201
386.63	0.241
386.85	0.201
387.06	0.259
387.28	0.405
387.49	0.267
387.71	0.189
387.93	0.180
388.14	0.570
388.36	0.212
388.57	0.200
388.79	0.232
389.01	-0.000
389.22	0.283
389.44	0.230
389.65	0.185
389.87	0.192
390.08	0.236
390.30	0.165
390.52	0.325
390.73	0.362
390.95	0.244
391.16	0.226
391.38	-0.000
391.59	0.270
391.81	0.220
392.03	0.207
392.24	0.229
392.46	0.179
392.67	0.178
392.89	0.238
393.10	0.341
393.32	0.237
393.53	0.286
393.75	0.184
393.97	0.216
394.18	0.307
394.40	0.263
394.61	0.285
394.83	0.258
395.04	0.302
395.26	0.211
395.47	0.315
395.69	0.265
395.91	0.288
396.12	0.349
396.34	0.332
396.55	0.226
396.77	0.339
396.98	1.922
397.20	0.394
397.41	0.410
397.63	0.272
397.84	0.250
398.06	0.237
398.27	0.232
398.49	0.269
398.71	0.214
398.92	0.255
399.14	0.335
399.35	0.409
399.57	0.378
399.78	0.286
400.00	0.285
400.21	0.354
400.43	0.297
400.64	0.322
400.86	0.755
401.07	0.380
401.29	0.317
401.50	0.332
401.72	0.489
401.93	0.304
402.15	0.372
402.36	0.345
402.58	0.281
402.79	0.313
403.01	0.519
403.22	0.404
403.44	0.271
403.65	0.448
403.87	0.504
404.08	0.411
404.30	0.753
404.51	0.367
404.73	0.445
404.94	0.384
405.16	0.385
405.37	0.295
405.59	0.558
405.80	0.336
406.02	0.400
406.23	0.395
406.45	0.431
406.66	0.448
406.88	0.290
407.09	0.429
407.31	0.353
407.52	0.430
407.74	0.361
407.95	0.428
408.17	0.405
408.38	0.428
408.60	0.280
408.81	0.469
409.03	0.354
409.24	0.362
409.45	0.420
409.67	0.405
409.88	0.367
410.10	0.466
410.31	0.385
410.53	0.362
410.74	0.520
410.96	0.529
411.17	0.541
411.39	0.407
411.60	0.378
411.82	0.445
412.03	0.413
412.24	0.395
412.46	0.577
412.67	0.467
412.89	0.451
413.10	0.443
413.32	0.394
413.53	0.451
413.75	0.454
413.96	0.336
414.17	0.446
414.39	0.453
414.60	0.376
414.82	0.486
415.03	0.383
415.25	0.431
415.46	0.305
415.68	0.419
415.89	0.765
416.10	0.644
416.32	0.354
416.53	0.415
416.75	0.389
416.96	0.470
417.18	0.407
417.39	0.397
417.60	0.399
417.82	0.574
418.03	0.506
418.25	0.424
418.46	0.451
418.67	0.422
418.89	0.450
419.10	0.472
419.32	0.621
419.53	0.579
419.75	0.490
419.96	0.418
420.17	0.518
420.39	0.487
420.60	0.492
420.82	0.583
421.03	0.475
421.24	0.404
421.46	0.448
421.67	0.482
421.89	0.417
422.10	0.448
422.31	0.451
422.53	0.619
422.74	0.466
422.96	0.374
423.17	0.420
423.38	0.511
423.60	0.430
423.81	0.524
424.03	0.465
424.24	0.504
424.45	0.511
424.67	0.517
424.88	0.462
425.09	0.502
425.31	0.477
425.52	0.500
425.74	0.567
425.95	0.613
426.16	0.482
426.38	0.555
426.59	0.515
426.80	0.588
427.02	0.609
427.23	0.478
427.45	0.621
427.66	0.598
427.87	0.470
428.09	0.497
428.30	0.554
428.51	0.530
428.73	0.573
428.94	0.514
429.15	0.497
429.37	0.482
429.58	0.501
429.79	0.466
430.01	0.558
430.22	0.553
430.44	0.565
430.65	0.503
430.86	0.557
431.08	0.541
431.29	0.493
431.50	0.573
431.72	0.730
431.93	0.611
432.14	0.467
432.36	0.513
432.57	0.523
432.78	0.538
433.00	0.508
433.21	0.508
433.42	0.630
433.64	0.551
433.85	0.631
434.06	0.516
434.28	0.548
434.49	0.560
434.70	0.563
434.92	0.579
435.13	0.623
435.34	0.628
435.56	0.580
435.77	0.575
435.98	0.730
436.20	0.614
436.41	0.537
436.62	0.522
436.83	0.590
437.05	0.662
437.26	0.581
437.47	0.516
437.69	0.561
437.90	0.521
438.11	0.515
438.33	0.557
438.54	0.573
438.75	0.708
438.97	0.695
439.18	0.538
439.39	0.560
439.60	0.607
439.82	0.574
440.03	0.538
440.24	0.768
440.46	0.585
440.67	0.568
440.88	0.604
441.10	0.571
441.31	0.570
441.52	0.614
441.73	0.692
441.95	0.608
442.16	0.563
442.37	0.835
442.58	0.542
442.80	0.534
443.01	0.672
443.22	0.627
443.44	0.541
443.65	0.633
443.86	0.631
444.07	0.660
444.29	0.582
444.50	0.728
444.71	0.570
444.92	0.535
445.14	0.667
445.35	0.705
445.56	0.556
445.78	0.642
445.99	0.636
446.20	0.557
446.41	0.631
446.63	0.635
446.84	0.609
447.05	0.603
447.26	0.716
447.48	0.613
447.69	0.585
447.90	0.664
448.11	0.594
448.33	0.619
448.54	0.639
448.75	0.658
448.96	0.669
449.18	0.696
449.39	0.630
449.60	0.616
449.81	0.729
450.03	0.639
450.24	0.689
450.45	0.661
450.66	0.643
450.87	0.656
451.09	0.613
451.30	0.592
451.51	0.646
451.72	0.655
451.94	0.670
452.15	0.731
452.36	0.621
452.57	0.636
452.78	0.632
453.00	0.661
453.21	0.639
453.42	0.621
453.63	0.697
453.85	0.674
454.06	0.667
454.27	0.763
454.48	0.685
454.69	0.626
454.91	0.679
455.12	0.597
455.33	0.662
455.54	0.672
455.75	0.649
455.97	0.671
456.18	0.658
456.39	0.667
456.60	0.694
456.81	0.645
457.03	0.651
457.24	0.645
457.45	0.717
457.66	0.673
457.87	0.638
458.09	0.655
458.30	0.590
458.51	0.689
458.72	0.708
458.93	0.709
459.15	0.634
459.36	0.688
459.57	0.711
459.78	0.743
459.99	0.675
460.20	0.644
460.42	0.707
460.63	0.669
460.84	0.653
461.05	0.669
461.26	0.710
461.47	0.652
461.69	0.693
461.90	0.720
462.11	0.687
462.32	0.733
462.53	0.687
462.74	0.754
462.96	0.674
463.17	0.672
463.38	0.701
463.59	0.790
463.80	0.669
464.01	0.686
464.23	0.754
464.44	0.722
464.65	0.722
464.86	0.739
465.07	0.748
465.28	0.714
465.49	0.728
465.71	0.694
465.92	0.723
466.13	0.758
466.34	0.709
466.55	0.747
466.76	0.722
466.97	0.745
467.19	0.738
467.40	0.766
467.61	0.772
467.82	0.707
468.03	0.693
468.24	0.744
468.45	0.767
468.66	0.753
468.88	0.760
469.09	0.760
469.30	0.786
469.51	0.731
469.72	0.758
469.93	0.738
470.14	0.723
470.35	0.788
470.57	0.754
470.78	0.712
470.99	0.804
471.20	0.763
471.41	0.735
471.62	0.774
471.83	0.753
472.04	0.776
472.25	0.803
472.47	0.744
472.68	0.745
472.89	0.750
473.10	0.783
473.31	0.744
473.52	0.784
473.73	0.796
473.94	0.744
474.15	0.763
474.36	0.765
474.57	0.785
474.79	0.764
475.00	0.766
475.21	0.756
475.42	0.816
475.63	0.752
475.84	0.771
476.05	0.775
476.26	0.753
476.47	0.775
476.68	0.802
476.89	0.751
477.10	0.788
477.32	0.783
477.53	0.818
477.74	0.766
477.95	0.795
478.16	0.762
478.37	0.792
478.58	0.796
478.79	0.810
479.00	0.811
479.21	0.784
479.42	0.808
479.63	0.808
479.84	0.784
480.05	0.780
480.26	0.799
480.47	0.814
480.69	0.817
480.90	0.792
481.11	0.788
481.32	0.830
481.53	0.790
481.74	0.826
481.95	0.805
482.16	0.817
482.37	0.823
482.58	0.798
482.79	0.807
483.00	0.823
483.21	0.785
483.42	0.764
483.63	0.814
483.84	0.828
484.05	0.822
484.26	0.800
484.47	0.799
484.68	0.773
484.89	0.778
485.10	0.812
485.31	0.798
485.52	0.801
485.73	0.805
485.94	0.831
486.15	0.797
486.37	0.808
486.58	0.786
486.79	0.792
487.00	0.826
487.21	0.820
487.42	0.813
487.63	0.816
487.84	0.828
488.05	0.824
488.26	0.798
488.47	0.802
488.68	0.822
488.89	0.807
489.10	0.801
489.31	0.807
489.52	0.827
489.73	0.807
489.94	0.831
490.15	0.804
490.36	0.829
490.57	0.799
490.78	0.788
490.99	0.811
491.20	0.858
491.41	0.834
491.62	0.798
491.83	0.818
492.04	0.816
492.25	0.822
492.45	0.825
492.66	0.839
492.87	0.834
493.08	0.827
493.29	0.817
493.50	0.812
493.71	0.816
493.92	0.813
494.13	0.823
494.34	0.836
494.55	0.839
494.76	0.856
494.97	0.851
495.18	0.829
495.39	0.837
495.60	0.805
495.81	0.807
496.02	0.818
496.23	0.815
496.44	0.834
496.65	0.829
496.86	0.831
497.07	0.847
497.28	0.843
497.49	0.812
497.70	0.815
497.91	0.828
498.12	0.818
498.32	0.845
498.53	0.837
498.74	0.830
498.95	0.845
499.16	0.818
499.37	0.819
499.58	0.825
499.79	0.841
500.00	0.838
500.21	0.853
500.42	0.818
500.63	0.819
500.84	0.832
501.05	0.821
501.26	0.837
501.46	0.860
501.67	0.841
501.88	0.841
502.09	0.827
502.30	0.832
502.51	0.863
502.72	0.833
502.93	0.844
503.14	0.856
503.35	0.838
503.56	0.835
503.77	0.855
503.97	0.838
504.18	0.836
504.39	0.858
504.60	0.838
504.81	0.853
505.02	0.848
505.23	0.847
505.44	0.835
505.65	0.838
505.86	0.827
506.07	0.866
506.27	0.843
506.48	0.847
506.69	0.838
506.90	0.852
507.11	0.853
507.32	0.837
507.53	0.844
507.74	0.840
507.95	0.852
508.15	0.855
508.36	0.857
508.57	0.862
508.78	0.852
508.99	0.851
509.20	0.834
509.41	0.850
509.62	0.841
509.82	0.839
510.03	0.845
510.24	0.842
510.45	0.855
510.66	0.850
510.87	0.847
511.08	0.823
511.29	0.848
511.49	0.835
511.70	0.862
511.91	0.825
512.12	0.823
512.33	0.843
512.54	0.853
512.75	0.844
512.95	0.859
513.16	0.854
513.37	0.839
513.58	0.862
513.79	0.838
514.00	0.843
514.20	0.853
514.41	0.846
514.62	0.825
514.83	0.848
515.04	0.842
515.25	0.829
515.46	0.835
515.66	0.836
515.87	0.845
516.08	0.828
516.29	0.840
516.50	0.829
516.71	0.824
516.91	0.829
517.12	0.840
517.33	0.831
517.54	0.824
517.75	0.826
517.95	0.834
518.16	0.837
518.37	0.817
518.58	0.821
518.79	0.803
519.00	0.821
519.20	0.827
519.41	0.811
519.62	0.822
519.83	0.826
520.04	0.805
520.24	0.803
520.45	0.810
520.66	0.824
520.87	0.802
521.08	0.800
521.28	0.803
521.49	0.812
521.70	0.792
521.91	0.800
522.12	0.789
522.32	0.802
522.53	0.790
522.74	0.782
522.95	0.787
523.16	0.787
523.36	0.792
523.57	0.780
523.78	0.777
523.99	0.782
524.20	0.777
524.40	0.783
524.61	0.786
524.82	0.770
525.03	0.772
525.23	0.773
525.44	0.764
525.65	0.764
525.86	0.778
526.06	0.761
526.27	0.760
526.48	0.766
526.69	0.755
526.90	0.758
527.10	0.780
527.31	0.754
527.52	0.749
527.73	0.742
527.93	0.748
528.14	0.751
528.35	0.743
528.56	0.744
528.76	0.738
528.97	0.732
529.18	0.725
529.39	0.725
529.59	0.725
529.80	0.745
530.01	0.728
530.22	0.726
530.42	0.706
530.63	0.717
530.84	0.703
531.05	0.712
531.25	0.713
531.46	0.709
531.67	0.693
531.88	0.705
532.08	0.700
532.29	0.697
532.50	0.693
532.70	0.689
532.91	0.681
533.12	0.682
533.33	0.699
533.53	0.679
533.74	0.679
533.95	0.683
534.15	0.674
534.36	0.674
534.57	0.664
534.78	0.664
534.98	0.670
535.19	0.651
535.40	0.652
535.60	0.663
535.81	0.649
536.02	0.651
536.23	0.647
536.43	0.649
536.64	0.640
536.85	0.645
537.05	0.650
537.26	0.634
537.47	0.635
537.67	0.628
537.88	0.625
538.09	0.629
538.30	0.622
538.50	0.614
538.71	0.621
538.92	0.612
539.12	0.610
539.33	0.607
539.54	0.607
539.74	0.611
539.95	0.604
540.16	0.603
540.36	0.596
540.57	0.596
540.78	0.592
540.98	0.591
541.19	0.590
541.40	0.581
541.60	0.587
541.81	0.584
542.02	0.584
542.22	0.578
542.43	0.575
542.64	0.571
542.84	0.571
543.05	0.565
543.26	0.566
543.46	0.568
543.67	0.567
543.88	0.564
544.08	0.558
544.29	0.554
544.50	0.554
544.70	0.553
544.91	0.548
545.12	0.549
545.32	0.545
545.53	0.548
545.74	0.540
545.94	0.538
546.15	0.536
546.35	0.534
546.56	0.532
546.77	0.530
546.97	0.529
547.18	0.522
547.39	0.523
547.59	0.522
547.80	0.518
548.01	0.522
548.21	0.518
548.42	0.512
548.62	0.511
548.83	0.509
549.04	0.507
549.24	0.501
549.45	0.501
549.65	0.498
549.86	0.493
550.07	0.493
550.27	0.491
550.48	0.498
550.69	0.487
550.89	0.487
551.10	0.484
551.30	0.483
551.51	0.483
551.72	0.474
551.92	0.476
552.13	0.477
552.33	0.478
552.54	0.474
552.75	0.468
552.95	0.470
553.16	0.466
553.36	0.464
553.57	0.463
553.78	0.462
553.98	0.462
554.19	0.455
554.39	0.453
554.60	0.456
554.80	0.455
555.01	0.449
555.22	0.451
555.42	0.448
555.63	0.443
555.83	0.446
556.04	0.442
556.25	0.444
556.45	0.437
556.66	0.434
556.86	0.437
557.07	0.435
557.27	0.434
557.48	0.430
557.68	0.429
557.89	0.429
558.10	0.426
558.30	0.423
558.51	0.423
558.71	0.421
558.92	0.418
559.12	0.420
559.33	0.423
559.54	0.418
559.74	0.415
559.95	0.414
560.15	0.413
560.36	0.412
560.56	0.407
560.77	0.407
560.97	0.407
561.18	0.403
561.38	0.402
561.59	0.405
561.79	0.402
562.00	0.400
562.21	0.398
562.41	0.397
562.62	0.396
562.82	0.394
563.03	0.392
563.23	0.391
563.44	0.391
563.64	0.389
563.85	0.390
564.05	0.384
564.26	0.383
564.46	0.383
564.67	0.383
564.87	0.379
565.08	0.377
565.28	0.377
565.49	0.378
565.69	0.376
565.90	0.372
566.10	0.375
566.31	0.370
566.51	0.372
566.72	0.372
566.92	0.366
567.13	0.366
567.33	0.366
567.54	0.364
567.74	0.363
567.95	0.359
568.15	0.361
568.36	0.360
568.56	0.359
568.77	0.355
568.97	0.354
569.18	0.354
569.38	0.353
569.59	0.354
569.79	0.351
570.00	0.350
570.20	0.348
570.41	0.347
570.61	0.346
570.82	0.347
571.02	0.343
571.23	0.346
571.43	0.342
571.64	0.341
571.84	0.340
572.05	0.339
572.25	0.339
572.45	0.337
572.66	0.334
572.86	0.333
573.07	0.332
573.27	0.332
573.48	0.331
573.68	0.327
573.89	0.327
574.09	0.328
574.30	0.326
574.50	0.325
574.70	0.326
574.91	0.323
575.11	0.324
575.32	0.324
575.52	0.321
575.73	0.320
575.93	0.320
576.14	0.319
576.34	0.318
576.54	0.317
576.75	0.315
576.95	0.315
577.16	0.313
577.36	0.312
577.57	0.312
577.77	0.310
577.97	0.308
578.18	0.309
578.38	0.306
578.59	0.305
578.79	0.304
579.00	0.305
579.20	0.303
579.40	0.303
579.61	0.302
579.81	0.301
580.02	0.299
580.22	0.299
580.42	0.297
580.63	0.298
580.83	0.296
581.04	0.294
581.24	0.293
581.45	0.292
581.65	0.292
581.85	0.291
582.06	0.290
582.26	0.290
582.47	0.289
582.67	0.289
582.87	0.288
583.08	0.286
583.28	0.287
583.48	0.285
583.69	0.283
583.89	0.282
584.10	0.283
584.30	0.281
584.50	0.280
584.71	0.279
584.91	0.278
585.12	0.276
585.32	0.278
585.52	0.276
585.73	0.275
585.93	0.275
586.13	0.274
586.34	0.273
586.54	0.273
586.75	0.271
586.95	0.270
587.15	0.271
587.36	0.270
587.56	0.269
587.76	0.268
587.97	0.268
588.17	0.266
588.37	0.266
588.58	0.266
588.78	0.264
588.98	0.265
589.19	0.264
589.39	0.261
589.60	0.264
589.80	0.261
590.00	0.261
590.21	0.261
590.41	0.259
590.61	0.258
590.82	0.258
591.02	0.258
591.22	0.256
591.43	0.257
591.63	0.255
591.83	0.255
592.04	0.253
592.24	0.254
592.44	0.251
592.65	0.251
592.85	0.251
593.05	0.251
593.26	0.250
593.46	0.250
593.66	0.249
593.86	0.248
594.07	0.247
594.27	0.247
594.47	0.245
594.68	0.245
594.88	0.246
595.08	0.245
595.29	0.245
595.49	0.243
595.69	0.242
595.90	0.241
596.10	0.241
596.30	0.240
596.50	0.239
596.71	0.239
596.91	0.238
597.11	0.238
597.32	0.238
597.52	0.237
597.72	0.236
597.93	0.236
598.13	0.234
598.33	0.235
598.53	0.234
598.74	0.234
598.94	0.233
599.14	0.233
599.35	0.232
599.55	0.232
599.75	0.231
599.95	0.231
600.16	0.231
600.36	0.230
600.56	0.230
600.76	0.229
600.97	0.228
601.17	0.227
601.37	0.228
601.58	0.227
601.78	0.228
601.98	0.226
602.18	0.225
602.39	0.225
602.59	0.225
602.79	0.224
602.99	0.225
603.20	0.223
603.40	0.224
603.60	0.223
603.80	0.222
604.01	0.222
604.21	0.221
604.41	0.221
604.61	0.219
604.82	0.219
605.02	0.220
605.22	0.219
605.42	0.218
605.62	0.218
605.83	0.217
606.03	0.217
606.23	0.217
606.43	0.217
606.64	0.217
606.84	0.216
607.04	0.216
607.24	0.216
607.45	0.215
607.65	0.214
607.85	0.215
608.05	0.213
608.25	0.212
608.46	0.212
608.66	0.213
608.86	0.212
609.06	0.211
609.26	0.210
609.47	0.210
609.67	0.209
609.87	0.211
610.07	0.210
610.28	0.208
610.48	0.209
610.68	0.209
610.88	0.208
611.08	0.208
611.29	0.207
611.49	0.206
611.69	0.207
611.89	0.205
612.09	0.205
612.29	0.204
612.50	0.204
612.70	0.204
612.90	0.202
613.10	0.202
613.30	0.201
613.51	0.202
613.71	0.201
613.91	0.205
614.11	0.201
614.31	0.201
614.51	0.200
614.72	0.199
614.92	0.199
615.12	0.200
615.32	0.200
615.52	0.199
615.72	0.200
615.93	0.199
616.13	0.199
616.33	0.198
616.53	0.198
616.73	0.198
616.93	0.196
617.14	0.197
617.34	0.196
617.54	0.196
617.74	0.196
617.94	0.195
618.14	0.195
618.34	0.194
618.55	0.194
618.75	0.195
618.95	0.194
619.15	0.194
619.35	0.193
619.55	0.192
619.75	0.193
619.96	0.192
620.16	0.193
620.36	0.193
620.56	0.192
620.76	0.191
620.96	0.191
621.16	0.191
621.36	0.191
621.57	0.192
621.77	0.192
621.97	0.190
622.17	0.190
622.37	0.190
622.57	0.191
622.77	0.190
622.97	0.189
623.18	0.189
623.38	0.189
623.58	0.188
623.78	0.188
623.98	0.187
624.18	0.187
624.38	0.186
624.58	0.186
624.78	0.187
624.98	0.187
625.19	0.186
625.39	0.186
625.59	0.186
625.79	0.186
625.99	0.185
626.19	0.185
626.39	0.185
626.59	0.185
626.79	0.185
626.99	0.185
627.19	0.185
627.40	0.185
627.60	0.184
627.80	0.184
628.00	0.184
628.20	0.184
628.40	0.184
628.60	0.183
628.80	0.182
629.00	0.182
629.20	0.181
629.40	0.181
629.60	0.179
629.80	0.180
630.00	0.180
630.20	0.180
630.41	0.178
630.61	0.178
630.81	0.178
631.01	0.179
631.21	0.177
631.41	0.178
631.61	0.178
631.81	0.178
632.01	0.178
632.21	0.178
632.41	0.176
632.61	0.176
632.81	0.177
633.01	0.176
633.21	0.176
633.41	0.177
633.61	0.175
633.81	0.175
634.01	0.174
634.21	0.175
634.41	0.174
634.61	0.175
634.81	0.174
635.01	0.173
635.22	0.174
635.42	0.174
635.62	0.173
635.82	0.174
636.02	0.174
636.22	0.173
636.42	0.172
636.62	0.173
636.82	0.172
637.02	0.172
637.22	0.172
637.42	0.172
637.62	0.171
637.82	0.171
638.02	0.170
638.22	0.170
638.42	0.169
638.62	0.169
638.82	0.169
639.02	0.169
639.22	0.168
639.42	0.168
639.62	0.168
639.82	0.167
640.02	0.168
640.22	0.167
640.42	0.167
640.62	0.167
640.82	0.167
641.02	0.166
641.22	0.167
641.42	0.166
641.61	0.166
641.81	0.166
642.01	0.166
642.21	0.166
642.41	0.165
642.61	0.165
642.81	0.164
643.01	0.164
643.21	0.164
643.41	0.164
643.61	0.164
643.81	0.163
644.01	0.162
644.21	0.162
644.41	0.163
644.61	0.163
644.81	0.163
645.01	0.163
645.21	0.162
645.41	0.162
645.61	0.162
645.81	0.162
646.01	0.162
646.21	0.162
646.40	0.161
646.60	0.162
646.80	0.162
647.00	0.161
647.20	0.160
647.40	0.160
647.60	0.160
647.80	0.159
648.00	0.159
648.20	0.159
648.40	0.159
648.60	0.158
648.80	0.158
649.00	0.158
649.20	0.159
649.39	0.158
649.59	0.157
649.79	0.157
649.99	0.156
650.19	0.156
650.39	0.155
650.59	0.155
650.79	0.155
650.99	0.154
651.19	0.154
651.39	0.154
651.58	0.154
651.78	0.154
651.98	0.153
652.18	0.153
652.38	0.153
652.58	0.153
652.78	0.152
652.98	0.152
653.18	0.153
653.38	0.153
653.57	0.152
653.77	0.152
653.97	0.152
654.17	0.152
654.37	0.152
654.57	0.152
654.77	0.152
654.97	0.152
655.16	0.151
655.36	0.151
655.56	0.150
655.76	0.149
655.96	0.150
656.16	0.149
656.36	0.149
656.56	0.148
656.75	0.148
656.95	0.148
657.15	0.148
657.35	0.148
657.55	0.147
657.75	0.148
657.95	0.148
658.14	0.148
658.34	0.148
658.54	0.148
658.74	0.147
658.94	0.147
659.14	0.147
659.34	0.146
659.53	0.146
659.73	0.145
659.93	0.145
660.13	0.144
660.33	0.144
660.53	0.144
660.72	0.144
660.92	0.143
661.12	0.143
661.32	0.143
661.52	0.142
661.72	0.142
661.91	0.142
662.11	0.142
662.31	0.142
662.51	0.142
662.71	0.141
662.90	0.141
663.10	0.141
663.30	0.140
663.50	0.140
663.70	0.140
663.90	0.140
664.09	0.139
664.29	0.139
664.49	0.138
664.69	0.138
664.89	0.138
665.08	0.138
665.28	0.138
665.48	0.138
665.68	0.137
665.88	0.137
666.07	0.137
666.27	0.137
666.47	0.137
666.67	0.137
666.87	0.137
667.06	0.136
667.26	0.136
667.46	0.135
667.66	0.136
667.85	0.136
668.05	0.136
668.25	0.136
668.45	0.136
668.65	0.136
668.84	0.135
669.04	0.135
669.24	0.135
669.44	0.134
669.63	0.134
669.83	0.134
670.03	0.133
670.23	0.132
670.42	0.132
670.62	0.131
670.82	0.131
671.02	0.131
671.22	0.130
671.41	0.130
671.61	0.130
671.81	0.130
672.01	0.130
672.20	0.130
672.40	0.130
672.60	0.130
672.80	0.130
672.99	0.130
673.19	0.129
673.39	0.129
673.58	0.129
673.78	0.129
673.98	0.128
674.18	0.128
674.37	0.127
674.57	0.127
674.77	0.127
674.97	0.127
675.16	0.127
675.36	0.126
675.56	0.126
675.75	0.126
675.95	0.125
676.15	0.125
676.35	0.125
676.54	0.125
676.74	0.125
676.94	0.125
677.13	0.124
677.33	0.124
677.53	0.124
677.73	0.124
677.92	0.123
678.12	0.123
678.32	0.122
678.51	0.122
678.71	0.122
678.91	0.121
679.11	0.121
679.30	0.121
679.50	0.121
679.70	0.121
679.89	0.120
680.09	0.121
680.29	0.120
680.48	0.120
680.68	0.120
680.88	0.120
681.07	0.120
681.27	0.120
681.47	0.120
681.66	0.120
681.86	0.120
682.06	0.120
682.25	0.120
682.45	0.120
682.65	0.120
682.84	0.119
683.04	0.119
683.24	0.118
683.43	0.118
683.63	0.118
683.83	0.118
684.02	0.118
684.22	0.117
684.42	0.117
684.61	0.117
684.81	0.117
685.01	0.117
685.20	0.116
685.40	0.116
685.60	0.116
685.79	0.116
685.99	0.116
686.19	0.116
686.38	0.115
686.58	0.115
686.77	0.115
686.97	0.115
687.17	0.115
687.36	0.114
687.56	0.114
687.76	0.114
687.95	0.114
688.15	0.114
688.34	0.114
688.54	0.113
688.74	0.113
688.93	0.113
689.13	0.112
689.33	0.112
689.52	0.112
689.72	0.112
689.91	0.111
690.11	0.111
690.31	0.111
690.50	0.111
690.70	0.111
690.89	0.111
691.09	0.110
691.29	0.111
691.48	0.110
691.68	0.110
691.87	0.110
692.07	0.110
692.27	0.110
692.46	0.109
692.66	0.109
692.85	0.109
693.05	0.109
693.25	0.109
693.44	0.108
693.64	0.108
693.83	0.108
694.03	0.108
694.22	0.107
694.42	0.107
694.62	0.107
694.81	0.107
695.01	0.107
695.20	0.107
695.40	0.107
695.59	0.107
695.79	0.106
695.99	0.107
696.18	0.106
696.38	0.106
696.57	0.106
696.77	0.106
696.96	0.106
697.16	0.106
697.36	0.106
697.55	0.106
697.75	0.106
697.94	0.105
698.14	0.106
698.33	0.105
698.53	0.105
698.72	0.105
698.92	0.104
699.11	0.104
699.31	0.104
699.51	0.104
699.70	0.104
699.90	0.103
700.09	0.103
700.29	0.103
700.48	0.103
700.68	0.103
700.87	0.102
701.07	0.102
701.26	0.102
701.46	0.101
701.65	0.101
701.85	0.101
702.04	0.101
702.24	0.101
702.43	0.101
702.63	0.101
702.82	0.101
703.02	0.100
703.21	0.101
703.41	0.101
703.60	0.100
703.80	0.100
703.99	0.100
704.19	0.100
704.38	0.099
704.58	0.099
704.77	0.099
704.97	0.098
705.16	0.099
705.36	0.099
705.55	0.099
705.75	0.099
705.94	0.099
706.14	0.099
706.33	0.099
706.53	0.099
706.72	0.099
706.92	0.099
707.11	0.099
707.31	0.098
707.50	0.098
707.70	0.099
707.89	0.099
708.09	0.098
708.28	0.098
708.48	0.098
708.67	0.097
708.86	0.097
709.06	0.097
709.25	0.098
709.45	0.098
709.64	0.097
709.84	0.097
710.03	0.096
710.23	0.096
710.42	0.096
710.62	0.096
710.81	0.096
711.00	0.096
711.20	0.096
711.39	0.095
711.59	0.095
711.78	0.096
711.98	0.095
712.17	0.096
712.37	0.095
712.56	0.096
712.75	0.096
712.95	0.096
713.14	0.096
713.34	0.096
713.53	0.096
713.73	0.096
713.92	0.095
714.11	0.095
714.31	0.095
714.50	0.095
714.70	0.095
714.89	0.095
715.08	0.095
715.28	0.095
715.47	0.094
715.67	0.095
715.86	0.094
716.06	0.095
716.25	0.094
716.44	0.094
716.64	0.094
716.83	0.094
717.03	0.094
717.22	0.093
717.41	0.093
717.61	0.093
717.80	0.093
717.99	0.093
718.19	0.093
718.38	0.093
718.58	0.093
718.77	0.093
718.96	0.093
719.16	0.092
719.35	0.092
719.55	0.092
719.74	0.092
719.93	0.092
720.13	0.092
720.32	0.092
720.51	0.091
720.71	0.092
720.90	0.091
721.10	0.091
721.29	0.091
721.48	0.091
721.68	0.091
721.87	0.091
722.06	0.091
722.26	0.091
722.45	0.091
722.64	0.092
722.84	0.091
723.03	0.091
723.22	0.092
723.42	0.092
723.61	0.092
723.80	0.092
724.00	0.092
724.19	0.092
724.38	0.092
724.58	0.092
724.77	0.092
724.96	0.092
725.16	0.092
725.35	0.092
725.54	0.092
725.74	0.092
725.93	0.092
726.12	0.091
726.32	0.091
726.51	0.091
726.70	0.091
726.90	0.091
727.09	0.091
727.28	0.091
727.48	0.091
727.67	0.091
727.86	0.091
728.06	0.091
728.25	0.091
728.44	0.091
728.64	0.091
728.83	0.091
729.02	0.091
729.21	0.091
729.41	0.091
729.60	0.091
729.79	0.091
729.99	0.090
730.18	0.090
730.37	0.091
730.56	0.090
730.76	0.090
730.95	0.090
731.14	0.090
731.34	0.090
731.53	0.090
731.72	0.090
731.91	0.090
732.11	0.090
732.30	0.090
732.49	0.090
732.69	0.091
732.88	0.091
733.07	0.091
733.26	0.091
733.46	0.090
733.65	0.091
733.84	0.090
734.03	0.091
734.23	0.091
734.42	0.091
734.61	0.091
734.80	0.090
735.00	0.090
735.19	0.090
735.38	0.090
735.57	0.090
735.77	0.090
735.96	0.090
736.15	0.090
736.34	0.090
736.54	0.090
736.73	0.090
736.92	0.090
737.11	0.090
737.31	0.090
737.50	0.090
737.69	0.090
737.88	0.090
738.07	0.090
738.27	0.090
738.46	0.090
738.65	0.090
738.84	0.090
739.04	0.090
739.23	0.090
739.42	0.090
739.61	0.090
739.80	0.089
740.00	0.089
740.19	0.089
740.38	0.089
740.57	0.089
740.76	0.089
740.96	0.089
741.15	0.089
741.34	0.089
741.53	0.089
741.72	0.088
741.92	0.088
742.11	0.088
742.30	0.088
742.49	0.088
742.68	0.088
742.88	0.088
743.07	0.088
743.26	0.088
743.45	0.088
743.64	0.087
743.84	0.087
744.03	0.088
744.22	0.088
744.41	0.088
744.60	0.088
744.79	0.088
744.99	0.088
745.18	0.088
745.37	0.088
745.56	0.088
745.75	0.088
745.94	0.088
746.14	0.088
746.33	0.088
746.52	0.088
746.71	0.088
746.90	0.087
747.09	0.087
747.28	0.087
747.48	0.087
747.67	0.087
747.86	0.086
748.05	0.087
748.24	0.086
748.43	0.086
748.62	0.085
748.82	0.085
749.01	0.085
749.20	0.085
749.39	0.086
749.58	0.086
749.77	0.085
749.96	0.085
750.16	0.085
750.35	0.085
750.54	0.085
750.73	0.085
750.92	0.086
751.11	0.086
751.30	0.086
751.49	0.086
751.68	0.086
751.88	0.086
752.07	0.085
752.26	0.086
752.45	0.085
752.64	0.085
752.83	0.086
753.02	0.085
753.21	0.085
753.40	0.085
753.60	0.085
753.79	0.084
753.98	0.085
754.17	0.085
754.36	0.084
754.55	0.084
754.74	0.084
754.93	0.084
755.12	0.084
755.31	0.084
755.50	0.084
755.70	0.084
755.89	0.083
756.08	0.083
756.27	0.083
756.46	0.084
756.65	0.083
756.84	0.083
757.03	0.083
757.22	0.083
757.41	0.083
757.60	0.083
757.79	0.083
757.98	0.083
758.17	0.083
758.36	0.083
758.56	0.083
758.75	0.083
758.94	0.083
759.13	0.083
759.32	0.083
759.51	0.082
759.70	0.082
759.89	0.082
760.08	0.082
760.27	0.082
760.46	0.082
760.65	0.082
760.84	0.082
761.03	0.082
761.22	0.082
761.41	0.082
761.60	0.082
761.79	0.082
761.98	0.082
762.17	0.081
762.36	0.081
762.55	0.081
762.74	0.081
762.93	0.081
763.12	0.081
763.31	0.081
763.50	0.081
763.69	0.081
763.88	0.080
764.07	0.080
764.26	0.080
764.45	0.080
764.64	0.080
764.83	0.080
765.02	0.080
765.21	0.080
765.40	0.080
765.59	0.080
765.78	0.080
765.97	0.081
766.16	0.081
766.35	0.081
766.54	0.081
766.73	0.081
766.92	0.081
767.11	0.081
767.30	0.081
767.49	0.081
767.68	0.081
767.87	0.080
768.06	0.080
768.25	0.080
768.44	0.080
768.63	0.080
768.82	0.080
769.01	0.080
769.20	0.080
769.39	0.080
769.58	0.080
769.77	0.080
769.96	0.080
770.15	0.080
770.34	0.080
770.53	0.080
770.72	0.079
770.91	0.079
771.10	0.079
771.29	0.078
771.47	0.078
771.66	0.078
771.85	0.078
772.04	0.078
772.23	0.078
772.42	0.078
772.61	0.078
772.80	0.078
772.99	0.078
773.18	0.078
773.37	0.079
773.56	0.078
773.75	0.079
773.94	0.079
774.13	0.078
774.31	0.078
774.50	0.078
774.69	0.078
774.88	0.078
775.07	0.079
775.26	0.078
775.45	0.078
775.64	0.078
775.83	0.077
776.02	0.077
776.21	0.077
776.40	0.078
776.58	0.078
776.77	0.078
776.96	0.077
777.15	0.077
777.34	0.078
777.53	0.078
777.72	0.078
777.91	0.078
778.10	0.078
778.28	0.078
778.47	0.078
778.66	0.077
778.85	0.077
779.04	0.077
779.23	0.076
779.42	0.076
779.61	0.076
779.79	0.076
779.98	0.076
780.17	0.076
780.36	0.076
780.55	0.075
780.74	0.075
780.93	0.075
781.12	0.075
781.30	0.075
781.49	0.075
781.68	0.076
781.87	0.076
782.06	0.076
782.25	0.076
782.44	0.076
782.62	0.076
782.81	0.077
783.00	0.076
783.19	0.076
783.38	0.076
783.57	0.076
783.75	0.075
783.94	0.076
784.13	0.075
784.32	0.075
784.51	0.075
784.70	0.075
784.88	0.075
785.07	0.075
785.26	0.074
785.45	0.074
785.64	0.074
785.83	0.075
786.01	0.074
786.20	0.074
786.39	0.075
786.58	0.075
786.77	0.074
786.95	0.074
787.14	0.075
787.33	0.075
787.52	0.075
787.71	0.075
787.90	0.075
788.08	0.075
788.27	0.074
788.46	0.074
788.65	0.075
788.84	0.075
789.02	0.074
789.21	0.074
789.40	0.074
789.59	0.074
789.77	0.074
789.96	0.074
790.15	0.074
790.34	0.074
790.53	0.074
790.71	0.074
790.90	0.074
791.09	0.074
791.28	0.075
791.46	0.075
791.65	0.075
791.84	0.075
792.03	0.074
792.22	0.074
792.40	0.074
792.59	0.074
792.78	0.074
792.97	0.075
793.15	0.074
793.34	0.074
793.53	0.074
793.72	0.074
793.90	0.074
794.09	0.074
794.28	0.074
794.47	0.074
794.65	0.074
794.84	0.073
795.03	0.074
795.22	0.074
795.40	0.074
795.59	0.074
795.78	0.074
795.97	0.074
796.15	0.074
796.34	0.074
796.53	0.074
796.71	0.074
796.90	0.074
797.09	0.075
797.28	0.074
797.46	0.074
797.65	0.073
797.84	0.073
798.02	0.073
798.21	0.072
798.40	0.072
798.59	0.072
798.77	0.072
798.96	0.072
799.15	0.071
799.33	0.072
799.52	0.072
799.71	0.072
799.90	0.072
800.08	0.072
800.27	0.072
800.46	0.072
800.64	0.072
800.83	0.072
801.02	0.072
801.20	0.072
801.39	0.072
801.58	0.072
801.76	0.072
801.95	0.072
802.14	0.072
802.32	0.072
802.51	0.072
802.70	0.071
802.88	0.071
803.07	0.071
803.26	0.071
803.44	0.071
803.63	0.071
803.82	0.071
804.00	0.071
804.19	0.071
804.38	0.072
804.56	0.072
804.75	0.072
804.94	0.072
805.12	0.072
805.31	0.072
805.50	0.072
805.68	0.072
805.87	0.072
806.06	0.072
806.24	0.071
806.43	0.071
806.62	0.071
806.80	0.071
806.99	0.071
807.17	0.071
807.36	0.071
807.55	0.071
807.73	0.071
807.92	0.071
808.11	0.071
808.29	0.071
808.48	0.071
808.66	0.071
808.85	0.070
809.04	0.070
809.22	0.070
809.41	0.071
809.59	0.070
809.78	0.071
809.97	0.070
810.15	0.070
810.34	0.070
810.53	0.070
810.71	0.070
810.90	0.070
811.08	0.070
811.27	0.070
811.45	0.070
811.64	0.070
811.83	0.070
812.01	0.070
812.20	0.070
812.38	0.070
812.57	0.070
812.76	0.070
812.94	0.070
813.13	0.070
813.31	0.070
813.50	0.070
813.68	0.070
813.87	0.070
814.06	0.070
814.24	0.070
814.43	0.070
814.61	0.070
814.80	0.070
814.98	0.070
815.17	0.070
815.36	0.070
815.54	0.070
815.73	0.070
815.91	0.070
816.10	0.070
816.28	0.070
816.47	0.070
816.65	0.070
816.84	0.070
817.03	0.071
817.21	0.071
817.40	0.071
817.58	0.071
817.77	0.071
817.95	0.071
818.14	0.071
818.32	0.071
818.51	0.071
818.69	0.071
818.88	0.071
819.06	0.071
819.25	0.071
819.43	0.070
819.62	0.070
819.80	0.070
819.99	0.070
820.18	0.070
820.36	0.070
820.55	0.071
820.73	0.070
820.92	0.070
821.10	0.070
821.29	0.070
821.47	0.070
821.66	0.070
821.84	0.071
822.03	0.071
822.21	0.071
822.40	0.071
822.58	0.071
822.77	0.071
822.95	0.071
823.14	0.071
823.32	0.071
823.50	0.071
823.69	0.071
823.87	0.071
824.06	0.071
824.24	0.072
824.43	0.071
824.61	0.071
824.80	0.071
824.98	0.072
825.17	0.072
825.35	0.072
825.54	0.072
825.72	0.072
825.91	0.072
826.09	0.072
826.28	0.072
826.46	0.072
826.64	0.072
826.83	0.072
827.01	0.072
827.20	0.073
827.38	0.072
827.57	0.073
827.75	0.072
827.94	0.073
828.12	0.073
828.31	0.073
828.49	0.073
828.67	0.073
828.86	0.073
829.04	0.074
829.23	0.073
829.41	0.074
829.60	0.074
829.78	0.074
829.96	0.075
830.15	0.075
830.33	0.075
830.52	0.075
830.70	0.075
830.88	0.075
831.07	0.075
831.25	0.076
831.44	0.075
831.62	0.075
831.81	0.075
831.99	0.075
832.17	0.075
832.36	0.075
832.54	0.075
832.73	0.075
832.91	0.075
833.09	0.075
833.28	0.075
833.46	0.075
833.65	0.076
833.83	0.076
834.01	0.076
834.20	0.076
834.38	0.076
834.56	0.076
834.75	0.076
834.93	0.076
835.12	0.076
835.30	0.076
835.48	0.077
835.67	0.076
835.85	0.076
836.03	0.076
836.22	0.076
836.40	0.076
836.59	0.077
836.77	0.077
836.95	0.077
837.14	0.077
837.32	0.077
837.50	0.077
837.69	0.077
837.87	0.077
838.05	0.077
838.24	0.077
838.42	0.077
838.60	0.077
838.79	0.078
838.97	0.077
839.15	0.077
839.34	0.077
839.52	0.078
839.70	0.078
839.89	0.078
840.07	0.078
840.25	0.078
840.44	0.078
840.62	0.077
840.80	0.077
840.99	0.077
841.17	0.077
841.35	0.078
841.54	0.078
841.72	0.078
841.90	0.078
842.09	0.078
842.27	0.078
842.45	0.078
842.64	0.079
842.82	0.078
843.00	0.078
843.19	0.078
843.37	0.078
843.55	0.077
843.73	0.077
843.92	0.077
844.10	0.077
844.28	0.077
844.47	0.077
844.65	0.076
844.83	0.077
845.01	0.077
845.20	0.077
845.38	0.078
845.56	0.078
845.75	0.078
845.93	0.078
846.11	0.078
846.29	0.078
846.48	0.078
846.66	0.079
846.84	0.079
847.02	0.078
847.21	0.078
847.39	0.078
847.57	0.078
847.76	0.078
847.94	0.078
848.12	0.078
848.30	0.078
848.49	0.078
848.67	0.078
848.85	0.078
849.03	0.078
849.22	0.078
849.40	0.078
849.58	0.078
849.76	0.078
849.95	0.079
850.13	0.079
850.31	0.079
850.49	0.079
850.67	0.079
850.86	0.079
851.04	0.078
851.22	0.078
851.40	0.078
851.59	0.078
851.77	0.078
851.95	0.079
852.13	0.079
852.31	0.078
852.50	0.079
852.68	0.079
852.86	0.079
853.04	0.079
853.23	0.079
853.41	0.079
853.59	0.080
853.77	0.079
853.95	0.079
854.14	0.079
854.32	0.079
854.50	0.079
854.68	0.078
854.86	0.079
855.04	0.079
855.23	0.079
855.41	0.079
855.59	0.079
855.77	0.080
855.95	0.080
856.14	0.080
856.32	0.080
856.50	0.080
856.68	0.080
856.86	0.080
857.04	0.079
857.23	0.079
857.41	0.079
857.59	0.078
857.77	0.078
857.95	0.078
858.13	0.078
858.32	0.078
858.50	0.078
858.68	0.077
858.86	0.078
859.04	0.078
859.22	0.078
859.41	0.079
859.59	0.079
859.77	0.079
859.95	0.079
860.13	0.079
860.31	0.079
860.49	0.079
860.68	0.080
860.86	0.080
861.04	0.079
861.22	0.079
861.40	0.079
861.58	0.079
861.76	0.079
861.94	0.079
862.13	0.079
862.31	0.079
862.49	0.079
862.67	0.079
862.85	0.079
863.03	0.080
863.21	0.080
863.39	0.080
863.57	0.080
863.76	0.080
863.94	0.080
864.12	0.080
864.30	0.080
864.48	0.080
864.66	0.080
864.84	0.080
865.02	0.080
865.20	0.080
865.38	0.080
865.57	0.080
865.75	0.080
865.93	0.081
866.11	0.080
866.29	0.080
866.47	0.081
866.65	0.081
866.83	0.080
867.01	0.080
867.19	0.080
867.37	0.080
867.55	0.080
867.73	0.080
867.92	0.080
868.10	0.081
868.28	0.080
868.46	0.080
868.64	0.080
868.82	0.080
869.00	0.081
869.18	0.081
869.36	0.081
869.54	0.081
869.72	0.081
869.90	0.081
870.08	0.081
870.26	0.081
870.44	0.081
870.62	0.082
870.80	0.081
870.98	0.082
871.16	0.081
871.34	0.081
871.53	0.081
871.71	0.081
871.89	0.081
872.07	0.081
872.25	0.081
872.43	0.081
872.61	0.081
872.79	0.081
872.97	0.081
873.15	0.082
873.33	0.082
873.51	0.082
873.69	0.082
873.87	0.082
874.05	0.082
874.23	0.082
874.41	0.082
874.59	0.083
874.77	0.082
874.95	0.082
875.13	0.082
875.31	0.082
875.49	0.082
875.67	0.082
875.85	0.082
876.03	0.082
876.21	0.082
876.39	0.082
876.57	0.082
876.75	0.083
876.93	0.082
877.11	0.082
877.29	0.082
877.47	0.082
877.65	0.083
877.82	0.083
878.00	0.083
878.18	0.083
878.36	0.083
878.54	0.083
878.72	0.083
878.90	0.083
879.08	0.083
879.26	0.083
879.44	0.084
879.62	0.083
879.80	0.083
879.98	0.083
880.16	0.083
880.34	0.082
880.52	0.083
880.70	0.082
880.88	0.082
881.06	0.082
881.24	0.082
881.42	0.082
881.59	0.082
881.77	0.082
881.95	0.082
882.13	0.082
882.31	0.083
882.49	0.082
882.67	0.083
882.85	0.083
883.03	0.083
883.21	0.083
883.39	0.083
883.57	0.083
883.75	0.084
883.92	0.084
884.10	0.084
884.28	0.084
884.46	0.084
884.64	0.084
884.82	0.084
885.00	0.084
885.18	0.085
885.36	0.085
885.54	0.085
885.71	0.085
885.89	0.085
886.07	0.085
886.25	0.085
886.43	0.085
886.61	0.085
886.79	0.085
886.97	0.085
887.15	0.085
887.32	0.085
887.50	0.085
887.68	0.085
887.86	0.085
888.04	0.085
888.22	0.085
888.40	0.085
888.57	0.085
888.75	0.085
888.93	0.085
889.11	0.085
889.29	0.085
889.47	0.085
889.65	0.085
889.82	0.085
890.00	0.085
890.18	0.085
890.36	0.085
890.54	0.086
890.72	0.086
890.90	0.086
891.07	0.086
891.25	0.086
891.43	0.085
891.61	0.085
891.79	0.086
891.97	0.086
892.14	0.086
892.32	0.086
892.50	0.086
892.68	0.086
892.86	0.086
893.03	0.086
893.21	0.087
893.39	0.087
893.57	0.087
893.75	0.087
893.93	0.087
894.10	0.087
894.28	0.087
894.46	0.087
894.64	0.087
894.82	0.087
894.99	0.086
895.17	0.086
895.35	0.086
895.53	0.086
895.71	0.086
895.88	0.086
896.06	0.086
896.24	0.087
896.42	0.086
896.59	0.087
896.77	0.086
896.95	0.087
897.13	0.087
897.31	0.087
897.48	0.087
897.66	0.087
897.84	0.087
898.02	0.087
898.19	0.087
898.37	0.087
898.55	0.088
898.73	0.088
898.91	0.088
899.08	0.088
899.26	0.087
899.44	0.088
899.62	0.088
899.79	0.088
899.97	0.088
900.15	0.088
900.33	0.088
900.50	0.088
900.68	0.088
900.86	0.088
901.04	0.088
901.21	0.088
901.39	0.089
901.57	0.088
901.74	0.088
901.92	0.088
902.10	0.089
902.28	0.089
902.45	0.089
902.63	0.089
902.81	0.089
902.99	0.089
903.16	0.089
903.34	0.089
903.52	0.089
903.69	0.089
903.87	0.089
904.05	0.089
904.22	0.089
904.40	0.089
904.58	0.089
904.76	0.089
904.93	0.089
905.11	0.089
905.29	0.089
905.46	0.089
905.64	0.089
905.82	0.090
905.99	0.089
906.17	0.089
906.35	0.090
906.53	0.090
906.70	0.090
906.88	0.090
907.06	0.090
907.23	0.090
907.41	0.091
907.59	0.091
907.76	0.091
907.94	0.091
908.12	0.091
908.29	0.091
908.47	0.091
908.65	0.091
908.82	0.091
909.00	0.091
909.18	0.091
909.35	0.091
909.53	0.091
909.71	0.091
909.88	0.092
910.06	0.092
910.23	0.092
910.41	0.092
910.59	0.092
910.76	0.092
910.94	0.092
911.12	0.092
911.29	0.092
911.47	0.092
911.65	0.093
911.82	0.093
912.00	0.093
912.17	0.093
912.35	0.093
912.53	0.093
912.70	0.093
912.88	0.093
913.06	0.094
913.23	0.094
913.41	0.094
913.58	0.094
913.76	0.094
913.94	0.094
914.11	0.094
914.29	0.094
914.46	0.094
914.64	0.094
914.82	0.094
914.99	0.094
915.17	0.094
915.34	0.094
915.52	0.094
915.70	0.094
915.87	0.094
916.05	0.094
916.22	0.094
916.40	0.094
916.57	0.095
916.75	0.095
916.93	0.095
917.10	0.095
917.28	0.095
917.45	0.095
917.63	0.095
917.80	0.095
917.98	0.096
918.16	0.096
918.33	0.096
918.51	0.096
918.68	0.096
918.86	0.097
919.03	0.097
919.21	0.098
919.39	0.098
919.56	0.098
919.74	0.099
919.91	0.098
920.09	0.099
920.26	0.099
920.44	0.099
920.61	0.099
920.79	0.099
920.96	0.099
921.14	0.099
921.31	0.099
921.49	0.099
921.67	0.100
921.84	0.100
922.02	0.100
922.19	0.100
922.37	0.100
922.54	0.101
922.72	0.101
922.89	0.101
923.07	0.102
923.24	0.102
923.42	0.102
923.59	0.102
923.77	0.103
923.94	0.103
924.12	0.103
924.29	0.104
924.47	0.104
924.64	0.104
924.82	0.104
924.99	0.104
925.17	0.105
925.34	0.105
925.52	0.105
925.69	0.105
925.87	0.106
926.04	0.106
926.22	0.106
926.39	0.107
926.57	0.107
926.74	0.107
926.91	0.108
927.09	0.108
927.26	0.108
927.44	0.108
927.61	0.109
927.79	0.109
927.96	0.110
928.14	0.110
928.31	0.110
928.49	0.110
928.66	0.111
928.84	0.112
929.01	0.112
929.18	0.113
929.36	0.114
929.53	0.114
929.71	0.114
929.88	0.115
930.06	0.115
930.23	0.116
930.41	0.116
930.58	0.117
930.75	0.117
930.93	0.117
931.10	0.117
931.28	0.117
931.45	0.118
931.63	0.119
931.80	0.118
931.97	0.119
932.15	0.120
932.32	0.120
932.50	0.120
932.67	0.121
932.84	0.121
933.02	0.122
933.19	0.122
933.37	0.123
933.54	0.123
933.71	0.123
933.89	0.125
934.06	0.124
934.24	0.125
934.41	0.125
934.58	0.126
934.76	0.126
934.93	0.127
935.11	0.127
935.28	0.127
935.45	0.127
935.63	0.128
935.80	0.129
935.98	0.129
936.15	0.129
936.32	0.130
936.50	0.131
936.67	0.131
936.84	0.131
937.02	0.133
937.19	0.134
937.36	0.134
937.54	0.134
937.71	0.135
937.89	0.136
938.06	0.136
938.23	0.136
938.41	0.137
938.58	0.138
938.75	0.138
938.93	0.139
939.10	0.139
939.27	0.139
939.45	0.139
939.62	0.139
939.79	0.140
939.97	0.140
940.14	0.141
940.31	0.142
940.49	0.142
940.66	0.143
940.83	0.143
941.01	0.144
941.18	0.146
941.35	0.146
941.53	0.147
941.70	0.148
941.87	0.148
942.05	0.149
942.22	0.150
942.39	0.151
942.57	0.151
942.74	0.152
942.91	0.152
943.08	0.152
943.26	0.152
943.43	0.153
943.60	0.154
943.78	0.155
943.95	0.156
944.12	0.156
944.29	0.157
944.47	0.158
944.64	0.159
944.81	0.160
944.99	0.161
945.16	0.161
945.33	0.162
945.50	0.163
945.68	0.164
945.85	0.164
946.02	0.165
946.20	0.166
946.37	0.167
946.54	0.168
946.71	0.169
946.89	0.169
947.06	0.169
947.23	0.170
947.40	0.172
947.58	0.172
947.75	0.174
947.92	0.174
948.09	0.174
948.27	0.175
948.44	0.177
948.61	0.178
948.78	0.179
948.96	0.180
949.13	0.181
949.30	0.181
949.47	0.182
949.65	0.183
949.82	0.185
949.99	0.185
950.16	0.187
950.33	0.188
950.51	0.189
950.68	0.191
950.85	0.192
951.02	0.193
951.20	0.194
951.37	0.196
951.54	0.196
951.71	0.197
951.88	0.199
952.06	0.200
952.23	0.200
952.40	0.202
952.57	0.203
952.74	0.205
952.92	0.206
953.09	0.208
953.26	0.209
953.43	0.211
953.60	0.212
953.77	0.213
953.95	0.214
954.12	0.216
954.29	0.216
954.46	0.219
954.63	0.219
954.81	0.220
954.98	0.221
955.15	0.223
955.32	0.224
955.49	0.224
955.66	0.225
955.84	0.227
956.01	0.227
956.18	0.229
956.35	0.231
956.52	0.231
956.69	0.233
956.87	0.233
957.04	0.234
957.21	0.236
957.38	0.236
957.55	0.237
957.72	0.238
957.89	0.239
958.07	0.239
958.24	0.241
958.41	0.243
958.58	0.243
958.75	0.244
958.92	0.245
959.09	0.245
959.26	0.246
959.44	0.246
959.61	0.247
959.78	0.248
959.95	0.250
960.12	0.250
960.29	0.252
960.46	0.251
960.63	0.252
960.81	0.252
960.98	0.253
961.15	0.253
961.32	0.254
961.49	0.253
961.66	0.255
961.83	0.255
962.00	0.255
962.17	0.256
962.34	0.255
962.52	0.256
962.69	0.257
962.86	0.257
963.03	0.258
963.20	0.258
963.37	0.258
963.54	0.259
963.71	0.258
963.88	0.258
964.05	0.259
964.22	0.260
964.39	0.259
964.56	0.258
964.74	0.259
964.91	0.260
965.08	0.260
965.25	0.260
965.42	0.260
965.59	0.261
965.76	0.261
965.93	0.262
966.10	0.261
966.27	0.262
966.44	0.262
966.61	0.263
966.78	0.262
966.95	0.262
967.12	0.263
967.29	0.265
967.46	0.264
967.63	0.264
967.80	0.265
967.97	0.264
968.14	0.264
968.32	0.265
968.49	0.265
968.66	0.264
968.83	0.265
969.00	0.265
969.17	0.265
969.34	0.266
969.51	0.267
969.68	0.265
969.85	0.266
970.02	0.266
970.19	0.266
970.36	0.267
970.53	0.267
970.70	0.266
970.87	0.267
971.04	0.266
971.21	0.266
971.38	0.266
971.55	0.267
971.72	0.267
971.89	0.268
972.06	0.267
972.23	0.267
972.40	0.267
972.57	0.266
972.74	0.266
972.91	0.267
973.07	0.267
973.24	0.266
973.41	0.266
973.58	0.265
973.75	0.277
973.92	0.265
974.09	0.264
974.26	0.264
974.43	0.264
974.60	0.264
974.77	0.264
974.94	0.264
975.11	0.265
975.28	0.266
975.45	0.264
975.62	0.265
975.79	0.267
975.96	0.265
976.13	0.264
976.30	0.266
976.47	0.264
976.64	0.265
976.80	0.265
976.97	0.265
977.14	0.265
977.31	0.265
977.48	0.265
977.65	0.265
977.82	0.264
977.99	0.265
978.16	0.264
978.33	0.264
978.50	0.264
978.67	0.263
978.83	0.263
979.00	0.263
979.17	0.263
979.34	0.262
979.51	0.261
979.68	0.262
979.85	0.262
980.02	0.263
980.19	0.261
980.36	0.262
980.52	0.264
980.69	0.262
980.86	0.262
981.03	0.261
981.20	0.260
981.37	0.261
981.54	0.261
981.71	0.260
981.88	0.261
982.04	0.261
982.21	0.260
982.38	0.261
982.55	0.260
982.72	0.259
982.89	0.261
983.06	0.259
983.22	0.259
983.39	0.259
983.56	0.259
983.73	0.258
983.90	0.257
984.07	0.259
984.24	0.257
984.40	0.257
984.57	0.256
984.74	0.258
984.91	0.258
985.08	0.256
985.25	0.254
985.41	0.255
985.58	0.255
985.75	0.256
985.92	0.255
986.09	0.253
986.26	0.253
986.42	0.252
986.59	0.250
986.76	0.252
986.93	0.252
987.10	0.252
987.27	0.250
987.43	0.248
987.60	0.250
987.77	0.250
987.94	0.248
988.11	0.250
988.27	0.250
988.44	0.249
988.61	0.248
988.78	0.247
988.95	0.247
989.11	0.249
989.28	0.247
989.45	0.246
989.62	0.246
989.79	0.246
989.95	0.245
990.12	0.246
990.29	0.246
990.46	0.244
990.62	0.243
990.79	0.243
990.96	0.244
991.13	0.244
991.30	0.243
991.46	0.243
991.63	0.241
991.80	0.241
991.97	0.240
992.13	0.241
992.30	0.242
992.47	0.240
992.64	0.239
992.80	0.239
992.97	0.239
993.14	0.237
993.31	0.234
993.47	0.238
993.64	0.236
993.81	0.236
993.98	0.237
994.14	0.235
994.31	0.234
994.48	0.235
994.64	0.236
994.81	0.234
994.98	0.234
995.15	0.232
995.31	0.231
995.48	0.231
995.65	0.233
995.82	0.230
995.98	0.230
996.15	0.231
996.32	0.233
996.48	0.231
996.65	0.231
996.82	0.228
996.99	0.229
997.15	0.228
997.32	0.229
997.49	0.227
997.65	0.228
997.82	0.227
997.99	0.225
998.15	0.226
998.32	0.227
998.49	0.225
998.65	0.226
998.82	0.226
998.99	0.223
999.15	0.224
999.32	0.224
999.49	0.223
999.65	0.223
999.82	0.221
999.99	0.221
1000.15	0.221
1000.32	0.222
1000.49	0.222
1000.65	0.219
1000.82	0.219
1000.99	0.220
1001.15	0.219
1001.32	0.218
1001.49	0.219
1001.65	0.219
1001.82	0.221
1001.99	0.218
1002.15	0.217
1002.32	0.217
1002.49	0.218
1002.65	0.217
1002.82	0.215
1002.99	0.215
1003.15	0.217
1003.32	0.215
1003.48	0.215
1003.65	0.215
1003.82	0.213
1003.98	0.211
1004.15	0.210
1004.32	0.211
1004.48	0.211
1004.65	0.212
1004.81	0.210
1004.98	0.208
1005.15	0.209
1005.31	0.208
1005.48	0.206
1005.64	0.206
1005.81	0.208
1005.98	0.205
1006.14	0.204
1006.31	0.205
1006.47	0.204
1006.64	0.202
1006.81	0.203
1006.97	0.203
1007.14	0.202
1007.30	0.203
1007.47	0.203
1007.63	0.201
1007.80	0.199
1007.97	0.199
1008.13	0.200
1008.30	0.199
1008.46	0.200
1008.63	0.198
1008.79	0.198
1008.96	0.199
1009.13	0.200
1009.29	0.197
1009.46	0.197
1009.62	0.197
1009.79	0.194
1009.95	0.194
1010.12	0.195
1010.28	0.195
1010.45	0.194
1010.62	0.194
1010.78	0.192
1010.95	0.191
1011.11	0.192
1011.28	0.191
1011.44	0.193
1011.61	0.191
1011.77	0.190
1011.94	0.190
1012.10	0.190
1012.27	0.190
1012.43	0.190
1012.60	0.189
1012.76	0.189
1012.93	0.189
1013.10	0.187
1013.26	0.185
1013.43	0.187
1013.59	0.195
1013.76	0.187
1013.92	0.186
1014.09	0.184
1014.25	0.185
1014.42	0.185
1014.58	0.186
1014.75	0.188
1014.91	0.187
1015.08	0.189
1015.24	0.185
1015.41	0.187
1015.57	0.187
1015.73	0.186
1015.90	0.183
1016.06	0.185
1016.23	0.183
1016.39	0.183
1016.56	0.183
1016.72	0.182
1016.89	0.183
1017.05	0.184
1017.22	0.180
1017.38	0.180
1017.55	0.179
1017.71	0.180
1017.88	0.180
1018.04	0.181
1018.21	0.177
1018.37	0.177
1018.53	0.177
1018.70	0.175
1018.86	0.174
1019.03	0.177
1019.19	0.174
1019.36	0.174
1019.52	0.176
1019.69	0.176
1019.85	0.175
1020.01	0.175
1020.18	0.174
1020.34	0.174
1020.51	0.174
1020.67	0.175
1020.84	0.173
1021.00	0.174
1021.16	0.171
1021.33	0.171
1021.49	0.169
1021.66	0.170
1021.82	0.169
1021.98	0.169
1022.15	0.168
1022.31	0.167
1022.48	0.166
1022.64	0.168
1022.80	0.167
1022.97	0.165
1023.13	0.165
1023.30	0.166
1023.46	0.167
1023.62	0.164
1023.79	0.166
1023.95	0.166
1024.12	0.165
1024.28	0.165
1024.44	0.166
1024.61	0.164
1024.77	0.164
1024.93	0.163
1025.10	0.164
1025.26	0.162
1025.43	0.163
1025.59	0.159
1025.75	0.163
1025.92	0.162
1026.08	0.161
1026.24	0.160
1026.41	0.162
1026.57	0.160
1026.73	0.159
1026.90	0.160
1027.06	0.158
1027.23	0.158
1027.39	0.156
1027.55	0.156
1027.72	0.155
1027.88	0.156
1028.04	0.156
1028.21	0.156
1028.37	0.151
1028.53	0.155
1028.70	0.154
1028.86	0.152
1029.02	0.153
1029.19	0.155
1029.35	0.153
1029.51	0.152
1029.67	0.151
1029.84	0.153
1030.00	0.149
1030.16	0.149
1030.33	0.151
1030.49	0.149
1030.65	0.145
1030.82	0.160
1030.98	0.147
1031.14	0.148
1031.31	0.148
1031.47	0.145
1031.63	0.147
1031.79	0.145
1031.96	0.147
1032.12	0.149
1032.28	0.146
1032.45	0.151
1032.61	0.151
1032.77	0.149
1032.93	0.147
1033.10	0.148
1033.26	0.151
1033.42	0.148
1033.58	0.149
1033.75	0.150
1033.91	0.147
1034.07	0.149
1034.24	0.148
1034.40	0.145
1034.56	0.145
1034.72	0.145
1034.89	0.145
1035.05	0.143
1035.21	0.143
1035.37	0.141
1035.54	0.144
1035.70	0.142
1035.86	0.142
1036.02	0.143
1036.19	0.141
1036.35	0.139
1036.51	0.143
1036.67	0.140
1036.83	0.140
1037.00	0.139
1037.16	0.140
1037.32	0.141
1037.48	0.140
1037.65	0.144
1037.81	0.140
1037.97	0.140
1038.13	0.140
1038.29	0.139
1038.46	0.136
1038.62	0.141
1038.78	0.138
1038.94	0.135
1039.10	0.139
1039.27	0.134
1039.43	0.136
1039.59	0.136
1039.75	0.135
1039.91	0.134
1040.08	0.135
1040.24	0.136
1040.40	0.137
1040.56	0.135
1040.72	0.130
1040.89	0.133
1041.05	0.136
1041.21	0.136
1041.37	0.133
1041.53	0.139
1041.69	0.136
1041.86	0.133
1042.02	0.131
1042.18	0.130
1042.34	0.132
1042.50	0.136
1042.66	0.132
1042.83	0.130
1042.99	0.133
1043.15	0.128
1043.31	0.128
1043.47	0.133
1043.63	0.132
1043.79	0.132
1043.96	0.133
1044.12	0.137
1044.28	0.134
1044.44	0.136
1044.60	0.131
1044.76	0.129
1044.92	0.132
1045.09	0.133
1045.25	0.130
1045.41	0.129
1045.57	0.125
1045.73	0.126
1045.89	0.127
1046.05	0.128
1046.21	0.129
1046.38	0.131
1046.54	0.137
1046.70	0.126
1046.86	0.128
>>>>>End Processed Spectral Data<<<<<
