SpectraSuite Data File
++++++++++++++++++++++++++++++++++++
Date: Mon May 20 12:11:09 CDT 2013
User: Students
Dark Spectrum Present: Yes
Reference Spectrum Present: Yes
Number of Sampled Component Spectra: 1
Spectrometers: USB4H00887
Integration Time (usec): 60000 (USB4H00887)
Spectra Averaged: 5 (USB4H00887)
Boxcar Smoothing: 5 (USB4H00887)
Correct for Electrical Dark: No (USB4H00887)
Strobe/Lamp Enabled: No (USB4H00887)
Correct for Detector Non-linearity: No (USB4H00887)
Correct for Stray Light: No (USB4H00887)
Number of Pixels in Processed Spectrum: 3648
>>>>>Begin Processed Spectral Data<<<<<
345.83	-0.215
346.05	-0.215
346.26	-0.215
346.48	-0.000
346.70	0.087
346.92	0.159
347.14	0.096
347.35	0.096
347.57	0.681
347.79	-0.320
348.01	-0.209
348.23	-0.359
348.44	-0.000
348.66	0.385
348.88	-0.392
349.10	-0.139
349.32	0.038
349.53	0.014
349.75	0.112
349.97	0.096
350.19	0.104
350.41	0.087
350.62	-0.167
350.84	0.009
351.06	0.015
351.28	-0.004
351.50	-0.084
351.71	-0.017
351.93	-0.031
352.15	-0.011
352.37	-0.019
352.58	0.012
352.80	0.028
353.02	0.058
353.24	0.139
353.46	-0.000
353.67	-0.212
353.89	0.062
354.11	0.064
354.33	0.066
354.54	0.077
354.76	0.092
354.98	0.181
355.20	0.166
355.41	0.088
355.63	0.091
355.85	0.047
356.07	0.493
356.28	0.073
356.50	0.139
356.72	0.070
356.94	0.201
357.15	0.304
357.37	-0.000
357.59	0.088
357.81	0.042
358.02	0.077
358.24	0.048
358.46	0.105
358.68	0.058
358.89	0.017
359.11	-0.669
359.33	-0.011
359.55	-0.031
359.76	0.048
359.98	0.074
360.20	0.101
360.42	0.111
360.63	0.133
360.85	0.111
361.07	0.794
361.29	0.095
361.50	0.354
361.72	0.137
361.94	0.485
362.15	0.168
362.37	0.092
362.59	0.080
362.81	0.121
363.02	0.182
363.24	0.238
363.46	0.142
363.68	0.194
363.89	0.132
364.11	0.174
364.33	0.208
364.54	0.134
364.76	0.145
364.98	0.160
365.20	0.168
365.41	0.111
365.63	0.153
365.85	0.101
366.06	0.282
366.28	0.210
366.50	0.166
366.71	0.075
366.93	0.096
367.15	0.111
367.37	0.117
367.58	0.148
367.80	0.183
368.02	0.385
368.23	0.147
368.45	0.140
368.67	0.149
368.88	0.142
369.10	-0.000
369.32	0.143
369.53	0.097
369.75	0.151
369.97	0.363
370.19	0.214
370.40	0.103
370.62	0.275
370.84	0.111
371.05	0.544
371.27	0.130
371.49	0.140
371.70	0.168
371.92	0.232
372.14	0.094
372.35	0.100
372.57	0.110
372.79	0.224
373.00	0.066
373.22	0.093
373.44	0.110
373.65	0.092
373.87	0.122
374.09	0.477
374.30	0.110
374.52	0.138
374.74	0.100
374.95	0.390
375.17	0.127
375.39	-0.000
375.60	0.173
375.82	0.273
376.04	0.113
376.25	0.133
376.47	0.079
376.68	0.186
376.90	0.083
377.12	0.208
377.33	0.117
377.55	0.264
377.77	0.122
377.98	0.173
378.20	0.121
378.42	0.149
378.63	0.214
378.85	-0.000
379.07	0.131
379.28	0.500
379.50	0.305
379.71	0.172
379.93	0.125
380.15	0.172
380.36	0.263
380.58	0.180
380.80	0.487
381.01	0.144
381.23	0.141
381.44	0.161
381.66	0.202
381.88	0.232
382.09	-0.093
382.31	0.152
382.53	0.150
382.74	0.939
382.96	0.207
383.17	0.176
383.39	0.222
383.61	0.282
383.82	0.193
384.04	0.212
384.25	0.262
384.47	0.238
384.69	0.209
384.90	0.210
385.12	0.454
385.33	0.309
385.55	0.229
385.77	0.359
385.98	0.190
386.20	0.266
386.41	0.242
386.63	0.287
386.85	0.240
387.06	0.301
387.28	0.485
387.49	0.292
387.71	0.205
387.93	0.181
388.14	0.570
388.36	0.223
388.57	0.199
388.79	0.218
389.01	1.709
389.22	0.272
389.44	0.236
389.65	0.185
389.87	0.191
390.08	0.228
390.30	0.176
390.52	0.348
390.73	0.339
390.95	0.248
391.16	0.235
391.38	-0.000
391.59	0.281
391.81	0.227
392.03	0.223
392.24	0.270
392.46	0.225
392.67	0.210
392.89	0.282
393.10	0.456
393.32	0.294
393.53	0.345
393.75	0.218
393.97	0.242
394.18	0.353
394.40	0.301
394.61	0.299
394.83	0.253
395.04	0.305
395.26	0.202
395.47	0.278
395.69	0.229
395.91	0.234
396.12	0.287
396.34	0.289
396.55	0.180
396.77	0.274
396.98	0.934
397.20	0.344
397.41	0.373
397.63	0.287
397.84	0.270
398.06	0.251
398.27	0.271
398.49	0.308
398.71	0.232
398.92	0.298
399.14	0.372
399.35	0.482
399.57	0.445
399.78	0.296
400.00	0.272
400.21	0.351
400.43	0.291
400.64	0.309
400.86	0.725
401.07	0.380
401.29	0.317
401.50	0.344
401.72	0.496
401.93	0.304
402.15	0.375
402.36	0.350
402.58	0.289
402.79	0.320
403.01	0.508
403.22	0.409
403.44	0.268
403.65	0.430
403.87	0.481
404.08	0.360
404.30	0.656
404.51	0.340
404.73	0.408
404.94	0.344
405.16	0.364
405.37	0.289
405.59	0.514
405.80	0.319
406.02	0.413
406.23	0.403
406.45	0.473
406.66	0.477
406.88	0.309
407.09	0.478
407.31	0.383
407.52	0.451
407.74	0.369
407.95	0.449
408.17	0.422
408.38	0.430
408.60	0.289
408.81	0.484
409.03	0.364
409.24	0.365
409.45	0.432
409.67	0.411
409.88	0.368
410.10	0.481
410.31	0.390
410.53	0.376
410.74	0.534
410.96	0.521
411.17	0.541
411.39	0.405
411.60	0.380
411.82	0.445
412.03	0.431
412.24	0.412
412.46	0.599
412.67	0.487
412.89	0.473
413.10	0.472
413.32	0.429
413.53	0.511
413.75	0.539
413.96	0.400
414.17	0.524
414.39	0.527
414.60	0.429
414.82	0.575
415.03	0.442
415.25	0.488
415.46	0.336
415.68	0.477
415.89	0.891
416.10	0.693
416.32	0.374
416.53	0.450
416.75	0.427
416.96	0.525
417.18	0.452
417.39	0.437
417.60	0.442
417.82	0.656
418.03	0.561
418.25	0.458
418.46	0.476
418.67	0.437
418.89	0.461
419.10	0.492
419.32	0.677
419.53	0.615
419.75	0.515
419.96	0.462
420.17	0.578
420.39	0.539
420.60	0.563
420.82	0.706
421.03	0.561
421.24	0.470
421.46	0.512
421.67	0.560
421.89	0.479
422.10	0.513
422.31	0.498
422.53	0.713
422.74	0.533
422.96	0.423
423.17	0.478
423.38	0.572
423.60	0.480
423.81	0.598
424.03	0.513
424.24	0.567
424.45	0.568
424.67	0.569
424.88	0.503
425.09	0.532
425.31	0.496
425.52	0.527
425.74	0.620
425.95	0.690
426.16	0.527
426.38	0.608
426.59	0.552
426.80	0.639
427.02	0.675
427.23	0.518
427.45	0.688
427.66	0.657
427.87	0.501
428.09	0.525
428.30	0.585
428.51	0.580
428.73	0.645
428.94	0.572
429.15	0.556
429.37	0.532
429.58	0.563
429.79	0.525
430.01	0.638
430.22	0.623
430.44	0.638
430.65	0.559
430.86	0.594
431.08	0.579
431.29	0.534
431.50	0.630
431.72	0.835
431.93	0.671
432.14	0.507
432.36	0.555
432.57	0.576
432.78	0.598
433.00	0.556
433.21	0.547
433.42	0.683
433.64	0.588
433.85	0.676
434.06	0.545
434.28	0.580
434.49	0.593
434.70	0.604
434.92	0.616
435.13	0.666
435.34	0.671
435.56	0.633
435.77	0.633
435.98	0.820
436.20	0.679
436.41	0.583
436.62	0.574
436.83	0.657
437.05	0.756
437.26	0.663
437.47	0.582
437.69	0.635
437.90	0.587
438.11	0.566
438.33	0.618
438.54	0.638
438.75	0.813
438.97	0.797
439.18	0.595
439.39	0.621
439.60	0.666
439.82	0.627
440.03	0.579
440.24	0.846
440.46	0.640
440.67	0.621
440.88	0.663
441.10	0.621
441.31	0.612
441.52	0.653
441.73	0.728
441.95	0.649
442.16	0.600
442.37	0.968
442.58	0.591
442.80	0.582
443.01	0.752
443.22	0.687
443.44	0.586
443.65	0.696
443.86	0.705
444.07	0.756
444.29	0.643
444.50	0.823
444.71	0.615
444.92	0.581
445.14	0.735
445.35	0.775
445.56	0.606
445.78	0.712
445.99	0.710
446.20	0.609
446.41	0.688
446.63	0.687
446.84	0.645
447.05	0.654
447.26	0.779
447.48	0.656
447.69	0.630
447.90	0.717
448.11	0.638
448.33	0.666
448.54	0.688
448.75	0.720
448.96	0.736
449.18	0.775
449.39	0.685
449.60	0.667
449.81	0.809
450.03	0.697
450.24	0.757
450.45	0.717
450.66	0.701
450.87	0.734
451.09	0.685
451.30	0.665
451.51	0.738
451.72	0.750
451.94	0.778
452.15	0.852
452.36	0.705
452.57	0.727
452.78	0.726
453.00	0.756
453.21	0.707
453.42	0.678
453.63	0.770
453.85	0.738
454.06	0.729
454.27	0.864
454.48	0.773
454.69	0.696
454.91	0.769
455.12	0.671
455.33	0.755
455.54	0.772
455.75	0.745
455.97	0.773
456.18	0.764
456.39	0.778
456.60	0.798
456.81	0.728
457.03	0.745
457.24	0.742
457.45	0.832
457.66	0.774
457.87	0.734
458.09	0.749
458.30	0.666
458.51	0.788
458.72	0.814
458.93	0.827
459.15	0.728
459.36	0.794
459.57	0.820
459.78	0.871
459.99	0.776
460.20	0.737
460.42	0.830
460.63	0.781
460.84	0.768
461.05	0.782
461.26	0.842
461.47	0.760
461.69	0.814
461.90	0.844
462.11	0.795
462.32	0.856
462.53	0.791
462.74	0.892
462.96	0.773
463.17	0.761
463.38	0.801
463.59	0.914
463.80	0.756
464.01	0.778
464.23	0.873
464.44	0.834
464.65	0.839
464.86	0.860
465.07	0.859
465.28	0.820
465.49	0.840
465.71	0.799
465.92	0.844
466.13	0.899
466.34	0.831
466.55	0.886
466.76	0.845
466.97	0.875
467.19	0.864
467.40	0.908
467.61	0.910
467.82	0.825
468.03	0.802
468.24	0.873
468.45	0.906
468.66	0.883
468.88	0.887
469.09	0.888
469.30	0.931
469.51	0.856
469.72	0.898
469.93	0.870
470.14	0.850
470.35	0.945
470.57	0.889
470.78	0.825
470.99	0.962
471.20	0.896
471.41	0.851
471.62	0.906
471.83	0.877
472.04	0.904
472.25	0.944
472.47	0.863
472.68	0.871
472.89	0.878
473.10	0.924
473.31	0.875
473.52	0.945
473.73	0.969
473.94	0.887
474.15	0.915
474.36	0.915
474.57	0.939
474.79	0.904
475.00	0.907
475.21	0.891
475.42	0.981
475.63	0.879
475.84	0.907
476.05	0.913
476.26	0.883
476.47	0.913
476.68	0.961
476.89	0.892
477.10	0.944
477.32	0.928
477.53	0.984
477.74	0.900
477.95	0.943
478.16	0.891
478.37	0.934
478.58	0.938
478.79	0.954
479.00	0.956
479.21	0.917
479.42	0.956
479.63	0.965
479.84	0.925
480.05	0.927
480.26	0.952
480.47	0.970
480.69	0.974
480.90	0.936
481.11	0.936
481.32	0.994
481.53	0.933
481.74	0.987
481.95	0.950
482.16	0.965
482.37	0.976
482.58	0.943
482.79	0.962
483.00	0.996
483.21	0.941
483.42	0.909
483.63	0.989
483.84	1.017
484.05	1.008
484.26	0.977
484.47	0.980
484.68	0.939
484.89	0.946
485.10	0.998
485.31	0.971
485.52	0.976
485.73	0.978
485.94	1.019
486.15	0.966
486.37	0.981
486.58	0.944
486.79	0.956
487.00	1.005
487.21	0.997
487.42	0.991
487.63	0.994
487.84	1.014
488.05	1.007
488.26	0.968
488.47	0.970
488.68	0.998
488.89	0.976
489.10	0.971
489.31	0.983
489.52	1.016
489.73	0.978
489.94	1.015
490.15	0.969
490.36	1.012
490.57	0.966
490.78	0.952
490.99	0.993
491.20	1.070
491.41	1.022
491.62	0.964
491.83	0.995
492.04	0.992
492.25	1.003
492.45	1.005
492.66	1.030
492.87	1.016
493.08	1.005
493.29	0.988
493.50	0.981
493.71	0.994
493.92	0.989
494.13	1.004
494.34	1.025
494.55	1.030
494.76	1.062
494.97	1.052
495.18	1.019
495.39	1.033
495.60	0.983
495.81	0.984
496.02	1.002
496.23	0.998
496.44	1.030
496.65	1.021
496.86	1.027
497.07	1.053
497.28	1.050
497.49	0.995
497.70	0.997
497.91	1.018
498.12	0.998
498.32	1.040
498.53	1.022
498.74	1.013
498.95	1.040
499.16	0.994
499.37	0.998
499.58	1.008
499.79	1.038
500.00	1.031
500.21	1.058
500.42	1.003
500.63	1.006
500.84	1.026
501.05	1.001
501.26	1.027
501.46	1.066
501.67	1.028
501.88	1.030
502.09	1.003
502.30	1.012
502.51	1.063
502.72	1.016
502.93	1.031
503.14	1.057
503.35	1.028
503.56	1.024
503.77	1.059
503.97	1.033
504.18	1.030
504.39	1.068
504.60	1.039
504.81	1.068
505.02	1.059
505.23	1.061
505.44	1.040
505.65	1.048
505.86	1.028
506.07	1.095
506.27	1.052
506.48	1.058
506.69	1.040
506.90	1.062
507.11	1.060
507.32	1.033
507.53	1.041
507.74	1.032
507.95	1.047
508.15	1.055
508.36	1.060
508.57	1.074
508.78	1.057
508.99	1.060
509.20	1.032
509.41	1.056
509.62	1.043
509.82	1.040
510.03	1.050
510.24	1.048
510.45	1.070
510.66	1.060
510.87	1.055
511.08	1.013
511.29	1.055
511.49	1.031
511.70	1.080
511.91	1.014
512.12	1.010
512.33	1.045
512.54	1.062
512.75	1.044
512.95	1.070
513.16	1.060
513.37	1.035
513.58	1.073
513.79	1.036
514.00	1.043
514.20	1.062
514.41	1.050
514.62	1.015
514.83	1.055
515.04	1.046
515.25	1.025
515.46	1.036
515.66	1.042
515.87	1.055
516.08	1.023
516.29	1.049
516.50	1.029
516.71	1.023
516.91	1.034
517.12	1.051
517.33	1.038
517.54	1.025
517.75	1.029
517.95	1.040
518.16	1.052
518.37	1.017
518.58	1.021
518.79	0.993
519.00	1.025
519.20	1.036
519.41	1.010
519.62	1.027
519.83	1.033
520.04	0.998
520.24	0.994
520.45	1.003
520.66	1.028
520.87	0.990
521.08	0.989
521.28	0.994
521.49	1.008
521.70	0.977
521.91	0.992
522.12	0.976
522.32	0.999
522.53	0.982
522.74	0.971
522.95	0.979
523.16	0.983
523.36	0.992
523.57	0.974
523.78	0.968
523.99	0.976
524.20	0.968
524.40	0.981
524.61	0.986
524.82	0.959
525.03	0.962
525.23	0.964
525.44	0.947
525.65	0.945
525.86	0.968
526.06	0.939
526.27	0.939
526.48	0.949
526.69	0.930
526.90	0.934
527.10	0.969
527.31	0.924
527.52	0.916
527.73	0.908
527.93	0.918
528.14	0.922
528.35	0.912
528.56	0.913
528.76	0.907
528.97	0.899
529.18	0.891
529.39	0.891
529.59	0.894
529.80	0.926
530.01	0.899
530.22	0.897
530.42	0.867
530.63	0.884
530.84	0.861
531.05	0.874
531.25	0.876
531.46	0.868
531.67	0.846
531.88	0.864
532.08	0.857
532.29	0.853
532.50	0.846
532.70	0.840
532.91	0.831
533.12	0.834
533.33	0.858
533.53	0.827
533.74	0.826
533.95	0.832
534.15	0.821
534.36	0.822
534.57	0.805
534.78	0.807
534.98	0.817
535.19	0.786
535.40	0.787
535.60	0.807
535.81	0.788
536.02	0.790
536.23	0.783
536.43	0.785
536.64	0.772
536.85	0.780
537.05	0.786
537.26	0.763
537.47	0.768
537.67	0.757
537.88	0.752
538.09	0.760
538.30	0.749
538.50	0.739
538.71	0.750
538.92	0.737
539.12	0.733
539.33	0.730
539.54	0.731
539.74	0.734
539.95	0.725
540.16	0.720
540.36	0.711
540.57	0.711
540.78	0.704
540.98	0.703
541.19	0.701
541.40	0.688
541.60	0.697
541.81	0.691
542.02	0.690
542.22	0.679
542.43	0.675
542.64	0.670
542.84	0.670
543.05	0.661
543.26	0.661
543.46	0.664
543.67	0.663
543.88	0.658
544.08	0.648
544.29	0.643
544.50	0.643
544.70	0.643
544.91	0.635
545.12	0.635
545.32	0.631
545.53	0.635
545.74	0.622
545.94	0.619
546.15	0.616
546.35	0.614
546.56	0.610
546.77	0.607
546.97	0.605
547.18	0.597
547.39	0.597
547.59	0.595
547.80	0.590
548.01	0.594
548.21	0.590
548.42	0.583
548.62	0.581
548.83	0.578
549.04	0.574
549.24	0.567
549.45	0.566
549.65	0.563
549.86	0.559
550.07	0.558
550.27	0.556
550.48	0.563
550.69	0.549
550.89	0.549
551.10	0.545
551.30	0.544
551.51	0.543
551.72	0.532
551.92	0.533
552.13	0.532
552.33	0.532
552.54	0.526
552.75	0.520
552.95	0.520
553.16	0.515
553.36	0.513
553.57	0.511
553.78	0.509
553.98	0.510
554.19	0.502
554.39	0.498
554.60	0.501
554.80	0.501
555.01	0.494
555.22	0.496
555.42	0.494
555.63	0.487
555.83	0.491
556.04	0.485
556.25	0.486
556.45	0.477
556.66	0.475
556.86	0.477
557.07	0.475
557.27	0.474
557.48	0.468
557.68	0.466
557.89	0.466
558.10	0.462
558.30	0.459
558.51	0.458
558.71	0.457
558.92	0.452
559.12	0.454
559.33	0.457
559.54	0.452
559.74	0.448
559.95	0.446
560.15	0.447
560.36	0.444
560.56	0.438
560.77	0.438
560.97	0.438
561.18	0.433
561.38	0.431
561.59	0.434
561.79	0.430
562.00	0.427
562.21	0.424
562.41	0.422
562.62	0.421
562.82	0.419
563.03	0.416
563.23	0.415
563.44	0.414
563.64	0.411
563.85	0.412
564.05	0.404
564.26	0.404
564.46	0.403
564.67	0.404
564.87	0.400
565.08	0.397
565.28	0.397
565.49	0.398
565.69	0.395
565.90	0.392
566.10	0.395
566.31	0.389
566.51	0.390
566.72	0.391
566.92	0.385
567.13	0.385
567.33	0.384
567.54	0.382
567.74	0.381
567.95	0.376
568.15	0.377
568.36	0.376
568.56	0.374
568.77	0.369
568.97	0.368
569.18	0.367
569.38	0.365
569.59	0.366
569.79	0.363
570.00	0.360
570.20	0.359
570.41	0.358
570.61	0.356
570.82	0.357
571.02	0.353
571.23	0.355
571.43	0.351
571.64	0.350
571.84	0.349
572.05	0.348
572.25	0.348
572.45	0.346
572.66	0.343
572.86	0.343
573.07	0.341
573.27	0.341
573.48	0.340
573.68	0.336
573.89	0.336
574.09	0.336
574.30	0.334
574.50	0.332
574.70	0.332
574.91	0.330
575.11	0.330
575.32	0.329
575.52	0.325
575.73	0.324
575.93	0.324
576.14	0.322
576.34	0.321
576.54	0.320
576.75	0.318
576.95	0.317
577.16	0.315
577.36	0.314
577.57	0.314
577.77	0.312
577.97	0.310
578.18	0.312
578.38	0.309
578.59	0.308
578.79	0.306
579.00	0.307
579.20	0.305
579.40	0.304
579.61	0.304
579.81	0.303
580.02	0.301
580.22	0.300
580.42	0.299
580.63	0.299
580.83	0.297
581.04	0.296
581.24	0.295
581.45	0.294
581.65	0.293
581.85	0.291
582.06	0.289
582.26	0.289
582.47	0.287
582.67	0.287
582.87	0.286
583.08	0.284
583.28	0.284
583.48	0.282
583.69	0.280
583.89	0.280
584.10	0.281
584.30	0.279
584.50	0.277
584.71	0.276
584.91	0.276
585.12	0.274
585.32	0.275
585.52	0.273
585.73	0.272
585.93	0.271
586.13	0.270
586.34	0.269
586.54	0.268
586.75	0.268
586.95	0.266
587.15	0.267
587.36	0.266
587.56	0.264
587.76	0.263
587.97	0.262
588.17	0.261
588.37	0.261
588.58	0.261
588.78	0.258
588.98	0.259
589.19	0.257
589.39	0.255
589.60	0.257
589.80	0.254
590.00	0.253
590.21	0.254
590.41	0.252
590.61	0.252
590.82	0.252
591.02	0.251
591.22	0.249
591.43	0.250
591.63	0.248
591.83	0.248
592.04	0.246
592.24	0.247
592.44	0.243
592.65	0.242
592.85	0.242
593.05	0.242
593.26	0.240
593.46	0.240
593.66	0.240
593.86	0.239
594.07	0.237
594.27	0.238
594.47	0.236
594.68	0.235
594.88	0.236
595.08	0.235
595.29	0.236
595.49	0.233
595.69	0.233
595.90	0.232
596.10	0.232
596.30	0.231
596.50	0.230
596.71	0.230
596.91	0.229
597.11	0.229
597.32	0.229
597.52	0.228
597.72	0.228
597.93	0.227
598.13	0.225
598.33	0.225
598.53	0.224
598.74	0.223
598.94	0.223
599.14	0.222
599.35	0.222
599.55	0.221
599.75	0.220
599.95	0.219
600.16	0.220
600.36	0.218
600.56	0.219
600.76	0.218
600.97	0.217
601.17	0.216
601.37	0.216
601.58	0.215
601.78	0.215
601.98	0.214
602.18	0.214
602.39	0.213
602.59	0.213
602.79	0.212
602.99	0.212
603.20	0.210
603.40	0.210
603.60	0.210
603.80	0.209
604.01	0.209
604.21	0.208
604.41	0.207
604.61	0.207
604.82	0.207
605.02	0.207
605.22	0.207
605.42	0.206
605.62	0.206
605.83	0.205
606.03	0.204
606.23	0.204
606.43	0.204
606.64	0.204
606.84	0.203
607.04	0.202
607.24	0.202
607.45	0.202
607.65	0.200
607.85	0.201
608.05	0.200
608.25	0.199
608.46	0.199
608.66	0.199
608.86	0.198
609.06	0.197
609.26	0.196
609.47	0.197
609.67	0.195
609.87	0.196
610.07	0.195
610.28	0.193
610.48	0.193
610.68	0.193
610.88	0.192
611.08	0.193
611.29	0.191
611.49	0.191
611.69	0.192
611.89	0.190
612.09	0.189
612.29	0.189
612.50	0.189
612.70	0.189
612.90	0.188
613.10	0.187
613.30	0.187
613.51	0.187
613.71	0.187
613.91	0.191
614.11	0.186
614.31	0.186
614.51	0.186
614.72	0.185
614.92	0.185
615.12	0.185
615.32	0.185
615.52	0.185
615.72	0.185
615.93	0.184
616.13	0.184
616.33	0.183
616.53	0.183
616.73	0.183
616.93	0.181
617.14	0.182
617.34	0.182
617.54	0.181
617.74	0.181
617.94	0.180
618.14	0.180
618.34	0.179
618.55	0.179
618.75	0.179
618.95	0.179
619.15	0.179
619.35	0.179
619.55	0.177
619.75	0.178
619.96	0.177
620.16	0.177
620.36	0.177
620.56	0.177
620.76	0.177
620.96	0.176
621.16	0.176
621.36	0.175
621.57	0.175
621.77	0.176
621.97	0.175
622.17	0.175
622.37	0.175
622.57	0.175
622.77	0.174
622.97	0.173
623.18	0.173
623.38	0.174
623.58	0.173
623.78	0.172
623.98	0.172
624.18	0.171
624.38	0.171
624.58	0.171
624.78	0.171
624.98	0.170
625.19	0.170
625.39	0.170
625.59	0.169
625.79	0.170
625.99	0.169
626.19	0.169
626.39	0.169
626.59	0.169
626.79	0.169
626.99	0.169
627.19	0.169
627.40	0.169
627.60	0.169
627.80	0.169
628.00	0.168
628.20	0.168
628.40	0.167
628.60	0.167
628.80	0.166
629.00	0.165
629.20	0.164
629.40	0.165
629.60	0.163
629.80	0.163
630.00	0.163
630.20	0.163
630.41	0.162
630.61	0.162
630.81	0.162
631.01	0.163
631.21	0.162
631.41	0.162
631.61	0.163
631.81	0.163
632.01	0.162
632.21	0.162
632.41	0.161
632.61	0.161
632.81	0.161
633.01	0.162
633.21	0.161
633.41	0.161
633.61	0.160
633.81	0.159
634.01	0.159
634.21	0.159
634.41	0.159
634.61	0.159
634.81	0.159
635.01	0.158
635.22	0.158
635.42	0.158
635.62	0.157
635.82	0.158
636.02	0.158
636.22	0.157
636.42	0.157
636.62	0.157
636.82	0.157
637.02	0.156
637.22	0.156
637.42	0.156
637.62	0.155
637.82	0.155
638.02	0.154
638.22	0.154
638.42	0.154
638.62	0.153
638.82	0.153
639.02	0.153
639.22	0.153
639.42	0.152
639.62	0.152
639.82	0.152
640.02	0.152
640.22	0.152
640.42	0.152
640.62	0.152
640.82	0.152
641.02	0.151
641.22	0.152
641.42	0.151
641.61	0.151
641.81	0.151
642.01	0.151
642.21	0.151
642.41	0.151
642.61	0.150
642.81	0.149
643.01	0.149
643.21	0.149
643.41	0.149
643.61	0.148
643.81	0.148
644.01	0.147
644.21	0.147
644.41	0.147
644.61	0.147
644.81	0.147
645.01	0.147
645.21	0.146
645.41	0.146
645.61	0.146
645.81	0.145
646.01	0.145
646.21	0.145
646.40	0.145
646.60	0.145
646.80	0.146
647.00	0.145
647.20	0.144
647.40	0.144
647.60	0.144
647.80	0.144
648.00	0.144
648.20	0.143
648.40	0.143
648.60	0.142
648.80	0.142
649.00	0.142
649.20	0.142
649.39	0.142
649.59	0.141
649.79	0.141
649.99	0.141
650.19	0.140
650.39	0.141
650.59	0.141
650.79	0.140
650.99	0.140
651.19	0.139
651.39	0.139
651.58	0.138
651.78	0.138
651.98	0.138
652.18	0.138
652.38	0.138
652.58	0.138
652.78	0.137
652.98	0.137
653.18	0.138
653.38	0.138
653.57	0.137
653.77	0.138
653.97	0.137
654.17	0.137
654.37	0.136
654.57	0.136
654.77	0.136
654.97	0.136
655.16	0.136
655.36	0.136
655.56	0.135
655.76	0.135
655.96	0.135
656.16	0.134
656.36	0.134
656.56	0.134
656.75	0.134
656.95	0.134
657.15	0.134
657.35	0.133
657.55	0.133
657.75	0.133
657.95	0.133
658.14	0.132
658.34	0.132
658.54	0.132
658.74	0.132
658.94	0.131
659.14	0.131
659.34	0.130
659.53	0.130
659.73	0.130
659.93	0.129
660.13	0.129
660.33	0.129
660.53	0.129
660.72	0.129
660.92	0.129
661.12	0.129
661.32	0.129
661.52	0.128
661.72	0.128
661.91	0.128
662.11	0.128
662.31	0.128
662.51	0.128
662.71	0.128
662.90	0.127
663.10	0.126
663.30	0.126
663.50	0.126
663.70	0.126
663.90	0.126
664.09	0.125
664.29	0.125
664.49	0.125
664.69	0.125
664.89	0.124
665.08	0.124
665.28	0.124
665.48	0.124
665.68	0.123
665.88	0.123
666.07	0.123
666.27	0.123
666.47	0.123
666.67	0.123
666.87	0.123
667.06	0.123
667.26	0.122
667.46	0.122
667.66	0.122
667.85	0.122
668.05	0.122
668.25	0.122
668.45	0.122
668.65	0.122
668.84	0.121
669.04	0.121
669.24	0.121
669.44	0.120
669.63	0.120
669.83	0.120
670.03	0.119
670.23	0.119
670.42	0.119
670.62	0.118
670.82	0.118
671.02	0.118
671.22	0.118
671.41	0.117
671.61	0.118
671.81	0.118
672.01	0.118
672.20	0.117
672.40	0.117
672.60	0.117
672.80	0.116
672.99	0.116
673.19	0.116
673.39	0.116
673.58	0.116
673.78	0.115
673.98	0.115
674.18	0.114
674.37	0.114
674.57	0.114
674.77	0.114
674.97	0.114
675.16	0.114
675.36	0.113
675.56	0.112
675.75	0.112
675.95	0.112
676.15	0.112
676.35	0.112
676.54	0.112
676.74	0.112
676.94	0.113
677.13	0.112
677.33	0.111
677.53	0.112
677.73	0.112
677.92	0.112
678.12	0.112
678.32	0.111
678.51	0.111
678.71	0.111
678.91	0.110
679.11	0.110
679.30	0.110
679.50	0.110
679.70	0.109
679.89	0.109
680.09	0.109
680.29	0.109
680.48	0.109
680.68	0.108
680.88	0.109
681.07	0.109
681.27	0.108
681.47	0.108
681.66	0.108
681.86	0.108
682.06	0.107
682.25	0.107
682.45	0.107
682.65	0.107
682.84	0.107
683.04	0.106
683.24	0.106
683.43	0.106
683.63	0.106
683.83	0.106
684.02	0.105
684.22	0.105
684.42	0.105
684.61	0.105
684.81	0.105
685.01	0.105
685.20	0.104
685.40	0.104
685.60	0.104
685.79	0.104
685.99	0.104
686.19	0.104
686.38	0.104
686.58	0.104
686.77	0.104
686.97	0.104
687.17	0.104
687.36	0.104
687.56	0.103
687.76	0.103
687.95	0.102
688.15	0.102
688.34	0.102
688.54	0.101
688.74	0.101
688.93	0.101
689.13	0.100
689.33	0.101
689.52	0.100
689.72	0.101
689.91	0.100
690.11	0.100
690.31	0.100
690.50	0.100
690.70	0.100
690.89	0.099
691.09	0.099
691.29	0.099
691.48	0.099
691.68	0.098
691.87	0.098
692.07	0.098
692.27	0.098
692.46	0.098
692.66	0.098
692.85	0.098
693.05	0.098
693.25	0.098
693.44	0.098
693.64	0.097
693.83	0.097
694.03	0.097
694.22	0.097
694.42	0.097
694.62	0.097
694.81	0.097
695.01	0.097
695.20	0.097
695.40	0.096
695.59	0.096
695.79	0.096
695.99	0.096
696.18	0.096
696.38	0.096
696.57	0.096
696.77	0.095
696.96	0.095
697.16	0.095
697.36	0.094
697.55	0.095
697.75	0.094
697.94	0.094
698.14	0.094
698.33	0.094
698.53	0.094
698.72	0.093
698.92	0.093
699.11	0.093
699.31	0.093
699.51	0.093
699.70	0.093
699.90	0.093
700.09	0.093
700.29	0.093
700.48	0.093
700.68	0.093
700.87	0.093
701.07	0.093
701.26	0.093
701.46	0.092
701.65	0.092
701.85	0.092
702.04	0.092
702.24	0.092
702.43	0.092
702.63	0.091
702.82	0.091
703.02	0.092
703.21	0.091
703.41	0.091
703.60	0.091
703.80	0.090
703.99	0.090
704.19	0.090
704.38	0.090
704.58	0.089
704.77	0.089
704.97	0.089
705.16	0.089
705.36	0.089
705.55	0.089
705.75	0.088
705.94	0.088
706.14	0.089
706.33	0.089
706.53	0.089
706.72	0.089
706.92	0.088
707.11	0.088
707.31	0.088
707.50	0.088
707.70	0.089
707.89	0.089
708.09	0.088
708.28	0.088
708.48	0.088
708.67	0.088
708.86	0.088
709.06	0.088
709.25	0.088
709.45	0.088
709.64	0.088
709.84	0.088
710.03	0.087
710.23	0.087
710.42	0.086
710.62	0.086
710.81	0.086
711.00	0.087
711.20	0.087
711.39	0.086
711.59	0.086
711.78	0.086
711.98	0.086
712.17	0.087
712.37	0.086
712.56	0.086
712.75	0.087
712.95	0.086
713.14	0.086
713.34	0.086
713.53	0.086
713.73	0.086
713.92	0.086
714.11	0.086
714.31	0.086
714.50	0.086
714.70	0.086
714.89	0.086
715.08	0.086
715.28	0.086
715.47	0.086
715.67	0.085
715.86	0.085
716.06	0.085
716.25	0.085
716.44	0.085
716.64	0.085
716.83	0.085
717.03	0.084
717.22	0.084
717.41	0.084
717.61	0.084
717.80	0.085
717.99	0.084
718.19	0.085
718.38	0.085
718.58	0.084
718.77	0.084
718.96	0.084
719.16	0.084
719.35	0.084
719.55	0.083
719.74	0.083
719.93	0.083
720.13	0.083
720.32	0.082
720.51	0.083
720.71	0.083
720.90	0.083
721.10	0.083
721.29	0.083
721.48	0.083
721.68	0.083
721.87	0.083
722.06	0.083
722.26	0.084
722.45	0.084
722.64	0.084
722.84	0.083
723.03	0.083
723.22	0.083
723.42	0.083
723.61	0.083
723.80	0.083
724.00	0.083
724.19	0.083
724.38	0.083
724.58	0.083
724.77	0.083
724.96	0.083
725.16	0.083
725.35	0.083
725.54	0.083
725.74	0.083
725.93	0.083
726.12	0.083
726.32	0.083
726.51	0.083
726.70	0.083
726.90	0.083
727.09	0.083
727.28	0.083
727.48	0.083
727.67	0.082
727.86	0.082
728.06	0.082
728.25	0.082
728.44	0.082
728.64	0.082
728.83	0.082
729.02	0.082
729.21	0.082
729.41	0.082
729.60	0.082
729.79	0.083
729.99	0.083
730.18	0.083
730.37	0.083
730.56	0.083
730.76	0.082
730.95	0.083
731.14	0.083
731.34	0.083
731.53	0.083
731.72	0.083
731.91	0.083
732.11	0.083
732.30	0.083
732.49	0.083
732.69	0.084
732.88	0.084
733.07	0.084
733.26	0.084
733.46	0.083
733.65	0.083
733.84	0.083
734.03	0.083
734.23	0.083
734.42	0.083
734.61	0.083
734.80	0.083
735.00	0.083
735.19	0.083
735.38	0.083
735.57	0.083
735.77	0.083
735.96	0.083
736.15	0.083
736.34	0.083
736.54	0.083
736.73	0.083
736.92	0.083
737.11	0.083
737.31	0.083
737.50	0.083
737.69	0.084
737.88	0.083
738.07	0.083
738.27	0.083
738.46	0.083
738.65	0.082
738.84	0.083
739.04	0.083
739.23	0.082
739.42	0.083
739.61	0.083
739.80	0.082
740.00	0.083
740.19	0.083
740.38	0.083
740.57	0.083
740.76	0.082
740.96	0.082
741.15	0.082
741.34	0.082
741.53	0.082
741.72	0.082
741.92	0.081
742.11	0.081
742.30	0.081
742.49	0.081
742.68	0.082
742.88	0.082
743.07	0.082
743.26	0.082
743.45	0.082
743.64	0.081
743.84	0.081
744.03	0.081
744.22	0.081
744.41	0.081
744.60	0.081
744.79	0.081
744.99	0.080
745.18	0.080
745.37	0.080
745.56	0.080
745.75	0.080
745.94	0.080
746.14	0.079
746.33	0.080
746.52	0.080
746.71	0.080
746.90	0.080
747.09	0.080
747.28	0.080
747.48	0.080
747.67	0.079
747.86	0.080
748.05	0.080
748.24	0.079
748.43	0.079
748.62	0.078
748.82	0.078
749.01	0.078
749.20	0.078
749.39	0.078
749.58	0.078
749.77	0.078
749.96	0.078
750.16	0.078
750.35	0.078
750.54	0.079
750.73	0.079
750.92	0.079
751.11	0.079
751.30	0.079
751.49	0.079
751.68	0.079
751.88	0.079
752.07	0.078
752.26	0.079
752.45	0.078
752.64	0.078
752.83	0.078
753.02	0.078
753.21	0.078
753.40	0.077
753.60	0.078
753.79	0.078
753.98	0.078
754.17	0.078
754.36	0.077
754.55	0.077
754.74	0.077
754.93	0.077
755.12	0.077
755.31	0.078
755.50	0.077
755.70	0.077
755.89	0.077
756.08	0.077
756.27	0.077
756.46	0.077
756.65	0.077
756.84	0.076
757.03	0.076
757.22	0.076
757.41	0.076
757.60	0.076
757.79	0.076
757.98	0.076
758.17	0.076
758.36	0.076
758.56	0.076
758.75	0.076
758.94	0.076
759.13	0.076
759.32	0.076
759.51	0.075
759.70	0.076
759.89	0.076
760.08	0.076
760.27	0.076
760.46	0.076
760.65	0.076
760.84	0.076
761.03	0.076
761.22	0.076
761.41	0.076
761.60	0.076
761.79	0.075
761.98	0.075
762.17	0.075
762.36	0.075
762.55	0.074
762.74	0.075
762.93	0.075
763.12	0.075
763.31	0.075
763.50	0.074
763.69	0.075
763.88	0.075
764.07	0.075
764.26	0.075
764.45	0.075
764.64	0.075
764.83	0.074
765.02	0.075
765.21	0.075
765.40	0.075
765.59	0.074
765.78	0.075
765.97	0.074
766.16	0.074
766.35	0.074
766.54	0.074
766.73	0.074
766.92	0.074
767.11	0.074
767.30	0.074
767.49	0.074
767.68	0.074
767.87	0.074
768.06	0.074
768.25	0.074
768.44	0.075
768.63	0.074
768.82	0.074
769.01	0.074
769.20	0.074
769.39	0.074
769.58	0.074
769.77	0.074
769.96	0.074
770.15	0.074
770.34	0.074
770.53	0.073
770.72	0.073
770.91	0.073
771.10	0.073
771.29	0.073
771.47	0.073
771.66	0.072
771.85	0.073
772.04	0.073
772.23	0.073
772.42	0.072
772.61	0.072
772.80	0.073
772.99	0.073
773.18	0.072
773.37	0.073
773.56	0.073
773.75	0.073
773.94	0.073
774.13	0.072
774.31	0.072
774.50	0.073
774.69	0.073
774.88	0.072
775.07	0.073
775.26	0.073
775.45	0.072
775.64	0.072
775.83	0.072
776.02	0.071
776.21	0.072
776.40	0.072
776.58	0.072
776.77	0.072
776.96	0.072
777.15	0.072
777.34	0.072
777.53	0.072
777.72	0.072
777.91	0.072
778.10	0.072
778.28	0.072
778.47	0.072
778.66	0.071
778.85	0.071
779.04	0.071
779.23	0.071
779.42	0.071
779.61	0.071
779.79	0.071
779.98	0.070
780.17	0.071
780.36	0.070
780.55	0.070
780.74	0.070
780.93	0.070
781.12	0.071
781.30	0.070
781.49	0.070
781.68	0.071
781.87	0.071
782.06	0.070
782.25	0.070
782.44	0.071
782.62	0.071
782.81	0.071
783.00	0.071
783.19	0.071
783.38	0.071
783.57	0.071
783.75	0.070
783.94	0.070
784.13	0.070
784.32	0.070
784.51	0.070
784.70	0.070
784.88	0.070
785.07	0.070
785.26	0.069
785.45	0.069
785.64	0.069
785.83	0.069
786.01	0.069
786.20	0.068
786.39	0.069
786.58	0.068
786.77	0.068
786.95	0.068
787.14	0.069
787.33	0.069
787.52	0.069
787.71	0.069
787.90	0.069
788.08	0.069
788.27	0.069
788.46	0.069
788.65	0.069
788.84	0.069
789.02	0.069
789.21	0.069
789.40	0.069
789.59	0.069
789.77	0.069
789.96	0.069
790.15	0.069
790.34	0.069
790.53	0.069
790.71	0.068
790.90	0.068
791.09	0.068
791.28	0.068
791.46	0.069
791.65	0.068
791.84	0.068
792.03	0.068
792.22	0.068
792.40	0.068
792.59	0.068
792.78	0.069
792.97	0.068
793.15	0.069
793.34	0.068
793.53	0.068
793.72	0.068
793.90	0.068
794.09	0.068
794.28	0.068
794.47	0.068
794.65	0.068
794.84	0.068
795.03	0.068
795.22	0.068
795.40	0.068
795.59	0.068
795.78	0.068
795.97	0.068
796.15	0.068
796.34	0.068
796.53	0.068
796.71	0.068
796.90	0.068
797.09	0.068
797.28	0.068
797.46	0.068
797.65	0.068
797.84	0.068
798.02	0.068
798.21	0.068
798.40	0.068
798.59	0.067
798.77	0.067
798.96	0.067
799.15	0.066
799.33	0.067
799.52	0.066
799.71	0.066
799.90	0.066
800.08	0.066
800.27	0.066
800.46	0.066
800.64	0.065
800.83	0.066
801.02	0.066
801.20	0.066
801.39	0.066
801.58	0.066
801.76	0.066
801.95	0.066
802.14	0.066
802.32	0.066
802.51	0.066
802.70	0.066
802.88	0.066
803.07	0.066
803.26	0.066
803.44	0.066
803.63	0.066
803.82	0.066
804.00	0.066
804.19	0.066
804.38	0.066
804.56	0.066
804.75	0.066
804.94	0.066
805.12	0.067
805.31	0.066
805.50	0.067
805.68	0.066
805.87	0.067
806.06	0.067
806.24	0.067
806.43	0.066
806.62	0.067
806.80	0.066
806.99	0.066
807.17	0.066
807.36	0.066
807.55	0.066
807.73	0.066
807.92	0.066
808.11	0.066
808.29	0.066
808.48	0.065
808.66	0.066
808.85	0.065
809.04	0.065
809.22	0.065
809.41	0.066
809.59	0.065
809.78	0.065
809.97	0.065
810.15	0.065
810.34	0.065
810.53	0.065
810.71	0.065
810.90	0.065
811.08	0.065
811.27	0.065
811.45	0.065
811.64	0.065
811.83	0.065
812.01	0.065
812.20	0.065
812.38	0.064
812.57	0.065
812.76	0.065
812.94	0.065
813.13	0.065
813.31	0.065
813.50	0.066
813.68	0.065
813.87	0.065
814.06	0.065
814.24	0.065
814.43	0.066
814.61	0.065
814.80	0.065
814.98	0.066
815.17	0.065
815.36	0.065
815.54	0.065
815.73	0.065
815.91	0.066
816.10	0.066
816.28	0.066
816.47	0.065
816.65	0.066
816.84	0.065
817.03	0.066
817.21	0.066
817.40	0.066
817.58	0.065
817.77	0.065
817.95	0.065
818.14	0.065
818.32	0.065
818.51	0.066
818.69	0.066
818.88	0.066
819.06	0.066
819.25	0.066
819.43	0.066
819.62	0.066
819.80	0.066
819.99	0.066
820.18	0.066
820.36	0.066
820.55	0.066
820.73	0.066
820.92	0.066
821.10	0.066
821.29	0.066
821.47	0.065
821.66	0.065
821.84	0.066
822.03	0.066
822.21	0.066
822.40	0.066
822.58	0.066
822.77	0.066
822.95	0.066
823.14	0.066
823.32	0.066
823.50	0.066
823.69	0.067
823.87	0.066
824.06	0.066
824.24	0.066
824.43	0.066
824.61	0.066
824.80	0.067
824.98	0.067
825.17	0.067
825.35	0.067
825.54	0.067
825.72	0.067
825.91	0.067
826.09	0.067
826.28	0.067
826.46	0.068
826.64	0.068
826.83	0.068
827.01	0.068
827.20	0.068
827.38	0.067
827.57	0.068
827.75	0.068
827.94	0.068
828.12	0.069
828.31	0.069
828.49	0.069
828.67	0.069
828.86	0.069
829.04	0.069
829.23	0.069
829.41	0.069
829.60	0.069
829.78	0.070
829.96	0.070
830.15	0.070
830.33	0.070
830.52	0.070
830.70	0.070
830.88	0.070
831.07	0.070
831.25	0.070
831.44	0.070
831.62	0.070
831.81	0.070
831.99	0.070
832.17	0.070
832.36	0.070
832.54	0.071
832.73	0.071
832.91	0.071
833.09	0.071
833.28	0.071
833.46	0.071
833.65	0.071
833.83	0.072
834.01	0.072
834.20	0.072
834.38	0.071
834.56	0.071
834.75	0.072
834.93	0.072
835.12	0.071
835.30	0.072
835.48	0.072
835.67	0.071
835.85	0.071
836.03	0.071
836.22	0.071
836.40	0.072
836.59	0.072
836.77	0.071
836.95	0.072
837.14	0.072
837.32	0.071
837.50	0.071
837.69	0.071
837.87	0.072
838.05	0.072
838.24	0.072
838.42	0.072
838.60	0.072
838.79	0.073
838.97	0.072
839.15	0.072
839.34	0.072
839.52	0.073
839.70	0.072
839.89	0.072
840.07	0.072
840.25	0.072
840.44	0.072
840.62	0.072
840.80	0.072
840.99	0.072
841.17	0.072
841.35	0.072
841.54	0.072
841.72	0.072
841.90	0.072
842.09	0.073
842.27	0.073
842.45	0.073
842.64	0.073
842.82	0.073
843.00	0.073
843.19	0.073
843.37	0.073
843.55	0.073
843.73	0.073
843.92	0.073
844.10	0.073
844.28	0.073
844.47	0.073
844.65	0.072
844.83	0.073
845.01	0.073
845.20	0.073
845.38	0.073
845.56	0.073
845.75	0.073
845.93	0.073
846.11	0.073
846.29	0.073
846.48	0.073
846.66	0.074
846.84	0.073
847.02	0.073
847.21	0.073
847.39	0.073
847.57	0.073
847.76	0.073
847.94	0.073
848.12	0.074
848.30	0.074
848.49	0.074
848.67	0.074
848.85	0.074
849.03	0.074
849.22	0.074
849.40	0.075
849.58	0.074
849.76	0.074
849.95	0.074
850.13	0.074
850.31	0.074
850.49	0.074
850.67	0.074
850.86	0.074
851.04	0.074
851.22	0.074
851.40	0.074
851.59	0.074
851.77	0.074
851.95	0.074
852.13	0.074
852.31	0.073
852.50	0.074
852.68	0.074
852.86	0.074
853.04	0.074
853.23	0.074
853.41	0.074
853.59	0.074
853.77	0.074
853.95	0.074
854.14	0.074
854.32	0.074
854.50	0.074
854.68	0.074
854.86	0.074
855.04	0.074
855.23	0.074
855.41	0.075
855.59	0.075
855.77	0.075
855.95	0.075
856.14	0.075
856.32	0.075
856.50	0.075
856.68	0.075
856.86	0.075
857.04	0.074
857.23	0.074
857.41	0.074
857.59	0.074
857.77	0.074
857.95	0.074
858.13	0.073
858.32	0.074
858.50	0.074
858.68	0.074
858.86	0.074
859.04	0.074
859.22	0.074
859.41	0.074
859.59	0.074
859.77	0.074
859.95	0.074
860.13	0.075
860.31	0.074
860.49	0.074
860.68	0.074
860.86	0.074
861.04	0.074
861.22	0.074
861.40	0.074
861.58	0.074
861.76	0.075
861.94	0.075
862.13	0.074
862.31	0.074
862.49	0.075
862.67	0.075
862.85	0.075
863.03	0.075
863.21	0.075
863.39	0.076
863.57	0.075
863.76	0.075
863.94	0.076
864.12	0.076
864.30	0.076
864.48	0.076
864.66	0.076
864.84	0.076
865.02	0.076
865.20	0.076
865.38	0.076
865.57	0.076
865.75	0.077
865.93	0.077
866.11	0.077
866.29	0.077
866.47	0.077
866.65	0.077
866.83	0.077
867.01	0.077
867.19	0.077
867.37	0.077
867.55	0.077
867.73	0.077
867.92	0.076
868.10	0.076
868.28	0.076
868.46	0.076
868.64	0.076
868.82	0.076
869.00	0.076
869.18	0.076
869.36	0.076
869.54	0.077
869.72	0.077
869.90	0.077
870.08	0.076
870.26	0.077
870.44	0.077
870.62	0.077
870.80	0.076
870.98	0.076
871.16	0.076
871.34	0.076
871.53	0.076
871.71	0.076
871.89	0.076
872.07	0.077
872.25	0.076
872.43	0.076
872.61	0.076
872.79	0.077
872.97	0.077
873.15	0.077
873.33	0.077
873.51	0.078
873.69	0.078
873.87	0.078
874.05	0.078
874.23	0.078
874.41	0.078
874.59	0.078
874.77	0.078
874.95	0.078
875.13	0.078
875.31	0.078
875.49	0.078
875.67	0.078
875.85	0.078
876.03	0.078
876.21	0.078
876.39	0.078
876.57	0.078
876.75	0.078
876.93	0.078
877.11	0.078
877.29	0.078
877.47	0.078
877.65	0.078
877.82	0.079
878.00	0.079
878.18	0.079
878.36	0.079
878.54	0.079
878.72	0.079
878.90	0.079
879.08	0.079
879.26	0.079
879.44	0.079
879.62	0.078
879.80	0.078
879.98	0.078
880.16	0.078
880.34	0.078
880.52	0.078
880.70	0.078
880.88	0.078
881.06	0.078
881.24	0.078
881.42	0.078
881.59	0.078
881.77	0.078
881.95	0.078
882.13	0.078
882.31	0.078
882.49	0.078
882.67	0.078
882.85	0.078
883.03	0.078
883.21	0.078
883.39	0.078
883.57	0.078
883.75	0.079
883.92	0.079
884.10	0.080
884.28	0.079
884.46	0.080
884.64	0.080
884.82	0.080
885.00	0.080
885.18	0.080
885.36	0.080
885.54	0.080
885.71	0.080
885.89	0.080
886.07	0.080
886.25	0.080
886.43	0.080
886.61	0.080
886.79	0.080
886.97	0.080
887.15	0.080
887.32	0.080
887.50	0.080
887.68	0.080
887.86	0.080
888.04	0.081
888.22	0.081
888.40	0.080
888.57	0.080
888.75	0.080
888.93	0.080
889.11	0.080
889.29	0.080
889.47	0.081
889.65	0.080
889.82	0.080
890.00	0.080
890.18	0.080
890.36	0.080
890.54	0.081
890.72	0.081
890.90	0.081
891.07	0.081
891.25	0.081
891.43	0.080
891.61	0.081
891.79	0.081
891.97	0.080
892.14	0.081
892.32	0.081
892.50	0.081
892.68	0.081
892.86	0.081
893.03	0.081
893.21	0.081
893.39	0.082
893.57	0.082
893.75	0.082
893.93	0.083
894.10	0.082
894.28	0.082
894.46	0.082
894.64	0.082
894.82	0.082
894.99	0.082
895.17	0.082
895.35	0.082
895.53	0.082
895.71	0.081
895.88	0.081
896.06	0.082
896.24	0.082
896.42	0.082
896.59	0.082
896.77	0.082
896.95	0.082
897.13	0.082
897.31	0.082
897.48	0.082
897.66	0.083
897.84	0.082
898.02	0.082
898.19	0.082
898.37	0.082
898.55	0.083
898.73	0.082
898.91	0.082
899.08	0.082
899.26	0.082
899.44	0.082
899.62	0.083
899.79	0.083
899.97	0.083
900.15	0.083
900.33	0.083
900.50	0.083
900.68	0.083
900.86	0.083
901.04	0.083
901.21	0.084
901.39	0.084
901.57	0.083
901.74	0.083
901.92	0.083
902.10	0.084
902.28	0.084
902.45	0.084
902.63	0.084
902.81	0.084
902.99	0.084
903.16	0.084
903.34	0.084
903.52	0.084
903.69	0.084
903.87	0.084
904.05	0.084
904.22	0.084
904.40	0.084
904.58	0.084
904.76	0.084
904.93	0.084
905.11	0.084
905.29	0.085
905.46	0.084
905.64	0.085
905.82	0.085
905.99	0.085
906.17	0.085
906.35	0.085
906.53	0.085
906.70	0.085
906.88	0.085
907.06	0.085
907.23	0.086
907.41	0.086
907.59	0.086
907.76	0.086
907.94	0.086
908.12	0.086
908.29	0.086
908.47	0.086
908.65	0.086
908.82	0.086
909.00	0.086
909.18	0.086
909.35	0.086
909.53	0.086
909.71	0.086
909.88	0.086
910.06	0.087
910.23	0.087
910.41	0.087
910.59	0.086
910.76	0.086
910.94	0.087
911.12	0.087
911.29	0.087
911.47	0.087
911.65	0.087
911.82	0.087
912.00	0.087
912.17	0.087
912.35	0.087
912.53	0.087
912.70	0.088
912.88	0.088
913.06	0.088
913.23	0.089
913.41	0.089
913.58	0.089
913.76	0.089
913.94	0.089
914.11	0.089
914.29	0.090
914.46	0.090
914.64	0.090
914.82	0.090
914.99	0.090
915.17	0.090
915.34	0.090
915.52	0.090
915.70	0.090
915.87	0.090
916.05	0.090
916.22	0.090
916.40	0.090
916.57	0.090
916.75	0.090
916.93	0.090
917.10	0.090
917.28	0.090
917.45	0.090
917.63	0.090
917.80	0.090
917.98	0.091
918.16	0.091
918.33	0.091
918.51	0.091
918.68	0.092
918.86	0.092
919.03	0.092
919.21	0.092
919.39	0.093
919.56	0.093
919.74	0.093
919.91	0.093
920.09	0.093
920.26	0.093
920.44	0.094
920.61	0.094
920.79	0.094
920.96	0.094
921.14	0.095
921.31	0.095
921.49	0.095
921.67	0.095
921.84	0.096
922.02	0.096
922.19	0.096
922.37	0.096
922.54	0.096
922.72	0.096
922.89	0.097
923.07	0.097
923.24	0.097
923.42	0.097
923.59	0.098
923.77	0.098
923.94	0.098
924.12	0.098
924.29	0.099
924.47	0.099
924.64	0.100
924.82	0.100
924.99	0.100
925.17	0.101
925.34	0.101
925.52	0.101
925.69	0.102
925.87	0.102
926.04	0.102
926.22	0.102
926.39	0.103
926.57	0.103
926.74	0.103
926.91	0.103
927.09	0.104
927.26	0.104
927.44	0.104
927.61	0.104
927.79	0.105
927.96	0.105
928.14	0.106
928.31	0.106
928.49	0.106
928.66	0.107
928.84	0.107
929.01	0.108
929.18	0.108
929.36	0.109
929.53	0.109
929.71	0.109
929.88	0.110
930.06	0.110
930.23	0.110
930.41	0.111
930.58	0.111
930.75	0.112
930.93	0.112
931.10	0.112
931.28	0.113
931.45	0.113
931.63	0.113
931.80	0.113
931.97	0.114
932.15	0.115
932.32	0.115
932.50	0.115
932.67	0.116
932.84	0.116
933.02	0.117
933.19	0.118
933.37	0.118
933.54	0.119
933.71	0.120
933.89	0.121
934.06	0.121
934.24	0.121
934.41	0.122
934.58	0.122
934.76	0.122
934.93	0.123
935.11	0.122
935.28	0.122
935.45	0.123
935.63	0.123
935.80	0.124
935.98	0.124
936.15	0.125
936.32	0.125
936.50	0.126
936.67	0.126
936.84	0.127
937.02	0.128
937.19	0.129
937.36	0.129
937.54	0.130
937.71	0.130
937.89	0.131
938.06	0.131
938.23	0.131
938.41	0.132
938.58	0.133
938.75	0.133
938.93	0.134
939.10	0.134
939.27	0.133
939.45	0.134
939.62	0.135
939.79	0.136
939.97	0.136
940.14	0.137
940.31	0.138
940.49	0.138
940.66	0.139
940.83	0.140
941.01	0.140
941.18	0.141
941.35	0.142
941.53	0.142
941.70	0.143
941.87	0.143
942.05	0.144
942.22	0.144
942.39	0.146
942.57	0.146
942.74	0.147
942.91	0.147
943.08	0.148
943.26	0.149
943.43	0.149
943.60	0.150
943.78	0.151
943.95	0.152
944.12	0.152
944.29	0.153
944.47	0.153
944.64	0.154
944.81	0.155
944.99	0.156
945.16	0.156
945.33	0.157
945.50	0.158
945.68	0.158
945.85	0.159
946.02	0.160
946.20	0.161
946.37	0.162
946.54	0.163
946.71	0.164
946.89	0.164
947.06	0.165
947.23	0.165
947.40	0.167
947.58	0.167
947.75	0.168
947.92	0.169
948.09	0.169
948.27	0.171
948.44	0.172
948.61	0.173
948.78	0.173
948.96	0.175
949.13	0.176
949.30	0.177
949.47	0.178
949.65	0.179
949.82	0.181
949.99	0.181
950.16	0.184
950.33	0.184
950.51	0.186
950.68	0.187
950.85	0.188
951.02	0.189
951.20	0.190
951.37	0.191
951.54	0.192
951.71	0.193
951.88	0.194
952.06	0.195
952.23	0.196
952.40	0.197
952.57	0.199
952.74	0.200
952.92	0.201
953.09	0.202
953.26	0.204
953.43	0.205
953.60	0.206
953.77	0.207
953.95	0.208
954.12	0.210
954.29	0.211
954.46	0.214
954.63	0.214
954.81	0.215
954.98	0.216
955.15	0.218
955.32	0.220
955.49	0.220
955.66	0.221
955.84	0.222
956.01	0.222
956.18	0.224
956.35	0.226
956.52	0.226
956.69	0.228
956.87	0.228
957.04	0.229
957.21	0.231
957.38	0.231
957.55	0.232
957.72	0.233
957.89	0.234
958.07	0.234
958.24	0.236
958.41	0.238
958.58	0.238
958.75	0.240
958.92	0.241
959.09	0.241
959.26	0.242
959.44	0.242
959.61	0.244
959.78	0.244
959.95	0.246
960.12	0.245
960.29	0.247
960.46	0.246
960.63	0.247
960.81	0.247
960.98	0.248
961.15	0.249
961.32	0.249
961.49	0.248
961.66	0.250
961.83	0.250
962.00	0.250
962.17	0.251
962.34	0.250
962.52	0.251
962.69	0.252
962.86	0.251
963.03	0.252
963.20	0.253
963.37	0.252
963.54	0.253
963.71	0.253
963.88	0.253
964.05	0.254
964.22	0.256
964.39	0.255
964.56	0.254
964.74	0.255
964.91	0.255
965.08	0.255
965.25	0.255
965.42	0.256
965.59	0.257
965.76	0.257
965.93	0.258
966.10	0.256
966.27	0.257
966.44	0.257
966.61	0.258
966.78	0.258
966.95	0.258
967.12	0.259
967.29	0.261
967.46	0.260
967.63	0.260
967.80	0.260
967.97	0.260
968.14	0.260
968.32	0.260
968.49	0.260
968.66	0.260
968.83	0.260
969.00	0.260
969.17	0.260
969.34	0.261
969.51	0.262
969.68	0.261
969.85	0.261
970.02	0.262
970.19	0.261
970.36	0.262
970.53	0.261
970.70	0.260
970.87	0.260
971.04	0.259
971.21	0.260
971.38	0.260
971.55	0.261
971.72	0.260
971.89	0.261
972.06	0.260
972.23	0.261
972.40	0.261
972.57	0.260
972.74	0.260
972.91	0.261
973.07	0.262
973.24	0.261
973.41	0.261
973.58	0.260
973.75	0.273
973.92	0.261
974.09	0.260
974.26	0.259
974.43	0.259
974.60	0.260
974.77	0.261
974.94	0.260
975.11	0.260
975.28	0.261
975.45	0.259
975.62	0.260
975.79	0.262
975.96	0.260
976.13	0.259
976.30	0.261
976.47	0.259
976.64	0.259
976.80	0.260
976.97	0.259
977.14	0.259
977.31	0.260
977.48	0.260
977.65	0.260
977.82	0.259
977.99	0.260
978.16	0.260
978.33	0.260
978.50	0.259
978.67	0.259
978.83	0.259
979.00	0.259
979.17	0.259
979.34	0.259
979.51	0.258
979.68	0.258
979.85	0.258
980.02	0.258
980.19	0.256
980.36	0.258
980.52	0.259
980.69	0.258
980.86	0.257
981.03	0.257
981.20	0.255
981.37	0.256
981.54	0.257
981.71	0.255
981.88	0.255
982.04	0.255
982.21	0.255
982.38	0.256
982.55	0.255
982.72	0.254
982.89	0.255
983.06	0.254
983.22	0.253
983.39	0.254
983.56	0.254
983.73	0.253
983.90	0.252
984.07	0.254
984.24	0.253
984.40	0.252
984.57	0.251
984.74	0.253
984.91	0.254
985.08	0.252
985.25	0.249
985.41	0.250
985.58	0.250
985.75	0.251
985.92	0.250
986.09	0.249
986.26	0.250
986.42	0.249
986.59	0.247
986.76	0.249
986.93	0.249
987.10	0.249
987.27	0.246
987.43	0.244
987.60	0.247
987.77	0.246
987.94	0.245
988.11	0.245
988.27	0.245
988.44	0.245
988.61	0.244
988.78	0.242
988.95	0.243
989.11	0.245
989.28	0.244
989.45	0.243
989.62	0.242
989.79	0.243
989.95	0.242
990.12	0.243
990.29	0.243
990.46	0.240
990.62	0.239
990.79	0.239
990.96	0.239
991.13	0.239
991.30	0.239
991.46	0.238
991.63	0.237
991.80	0.236
991.97	0.236
992.13	0.237
992.30	0.238
992.47	0.236
992.64	0.236
992.80	0.236
992.97	0.236
993.14	0.233
993.31	0.231
993.47	0.234
993.64	0.231
993.81	0.231
993.98	0.232
994.14	0.230
994.31	0.230
994.48	0.231
994.64	0.231
994.81	0.229
994.98	0.230
995.15	0.228
995.31	0.227
995.48	0.227
995.65	0.229
995.82	0.226
995.98	0.226
996.15	0.227
996.32	0.228
996.48	0.227
996.65	0.227
996.82	0.224
996.99	0.224
997.15	0.224
997.32	0.225
997.49	0.224
997.65	0.225
997.82	0.225
997.99	0.223
998.15	0.222
998.32	0.223
998.49	0.222
998.65	0.223
998.82	0.222
998.99	0.219
999.15	0.220
999.32	0.219
999.49	0.219
999.65	0.218
999.82	0.216
999.99	0.217
1000.15	0.217
1000.32	0.217
1000.49	0.216
1000.65	0.215
1000.82	0.215
1000.99	0.215
1001.15	0.216
1001.32	0.215
1001.49	0.215
1001.65	0.215
1001.82	0.217
1001.99	0.214
1002.15	0.213
1002.32	0.213
1002.49	0.214
1002.65	0.213
1002.82	0.211
1002.99	0.210
1003.15	0.212
1003.32	0.211
1003.48	0.211
1003.65	0.210
1003.82	0.209
1003.98	0.206
1004.15	0.206
1004.32	0.206
1004.48	0.206
1004.65	0.208
1004.81	0.206
1004.98	0.205
1005.15	0.205
1005.31	0.205
1005.48	0.203
1005.64	0.203
1005.81	0.207
1005.98	0.203
1006.14	0.203
1006.31	0.203
1006.47	0.200
1006.64	0.199
1006.81	0.199
1006.97	0.200
1007.14	0.199
1007.30	0.200
1007.47	0.200
1007.63	0.197
1007.80	0.196
1007.97	0.195
1008.13	0.196
1008.30	0.197
1008.46	0.197
1008.63	0.195
1008.79	0.196
1008.96	0.196
1009.13	0.197
1009.29	0.194
1009.46	0.194
1009.62	0.194
1009.79	0.192
1009.95	0.192
1010.12	0.192
1010.28	0.192
1010.45	0.191
1010.62	0.190
1010.78	0.189
1010.95	0.187
1011.11	0.188
1011.28	0.187
1011.44	0.190
1011.61	0.188
1011.77	0.188
1011.94	0.188
1012.10	0.188
1012.27	0.187
1012.43	0.188
1012.60	0.186
1012.76	0.186
1012.93	0.186
1013.10	0.184
1013.26	0.181
1013.43	0.183
1013.59	0.190
1013.76	0.183
1013.92	0.181
1014.09	0.180
1014.25	0.181
1014.42	0.182
1014.58	0.182
1014.75	0.184
1014.91	0.182
1015.08	0.184
1015.24	0.181
1015.41	0.182
1015.57	0.182
1015.73	0.181
1015.90	0.179
1016.06	0.181
1016.23	0.180
1016.39	0.179
1016.56	0.180
1016.72	0.178
1016.89	0.178
1017.05	0.180
1017.22	0.176
1017.38	0.176
1017.55	0.174
1017.71	0.175
1017.88	0.174
1018.04	0.174
1018.21	0.172
1018.37	0.172
1018.53	0.172
1018.70	0.171
1018.86	0.170
1019.03	0.173
1019.19	0.171
1019.36	0.171
1019.52	0.172
1019.69	0.173
1019.85	0.172
1020.01	0.172
1020.18	0.171
1020.34	0.170
1020.51	0.171
1020.67	0.171
1020.84	0.169
1021.00	0.169
1021.16	0.167
1021.33	0.167
1021.49	0.165
1021.66	0.166
1021.82	0.165
1021.98	0.165
1022.15	0.165
1022.31	0.164
1022.48	0.163
1022.64	0.166
1022.80	0.165
1022.97	0.164
1023.13	0.163
1023.30	0.163
1023.46	0.164
1023.62	0.160
1023.79	0.162
1023.95	0.162
1024.12	0.161
1024.28	0.160
1024.44	0.160
1024.61	0.158
1024.77	0.158
1024.93	0.157
1025.10	0.158
1025.26	0.156
1025.43	0.157
1025.59	0.152
1025.75	0.155
1025.92	0.154
1026.08	0.154
1026.24	0.152
1026.41	0.153
1026.57	0.152
1026.73	0.150
1026.90	0.152
1027.06	0.150
1027.23	0.152
1027.39	0.152
1027.55	0.153
1027.72	0.151
1027.88	0.151
1028.04	0.151
1028.21	0.151
1028.37	0.145
1028.53	0.150
1028.70	0.147
1028.86	0.146
1029.02	0.145
1029.19	0.146
1029.35	0.144
1029.51	0.144
1029.67	0.144
1029.84	0.145
1030.00	0.141
1030.16	0.142
1030.33	0.144
1030.49	0.142
1030.65	0.140
1030.82	0.155
1030.98	0.142
1031.14	0.142
1031.31	0.142
1031.47	0.140
1031.63	0.143
1031.79	0.142
1031.96	0.143
1032.12	0.144
1032.28	0.142
1032.45	0.146
1032.61	0.145
1032.77	0.144
1032.93	0.141
1033.10	0.143
1033.26	0.145
1033.42	0.142
1033.58	0.143
1033.75	0.145
1033.91	0.142
1034.07	0.145
1034.24	0.143
1034.40	0.141
1034.56	0.140
1034.72	0.142
1034.89	0.142
1035.05	0.140
1035.21	0.140
1035.37	0.138
1035.54	0.141
1035.70	0.141
1035.86	0.141
1036.02	0.142
1036.19	0.140
1036.35	0.139
1036.51	0.143
1036.67	0.141
1036.83	0.139
1037.00	0.138
1037.16	0.138
1037.32	0.139
1037.48	0.138
1037.65	0.141
1037.81	0.135
1037.97	0.135
1038.13	0.134
1038.29	0.133
1038.46	0.130
1038.62	0.134
1038.78	0.132
1038.94	0.128
1039.10	0.132
1039.27	0.127
1039.43	0.128
1039.59	0.129
1039.75	0.128
1039.91	0.126
1040.08	0.125
1040.24	0.128
1040.40	0.130
1040.56	0.129
1040.72	0.125
1040.89	0.128
1041.05	0.130
1041.21	0.129
1041.37	0.127
1041.53	0.134
1041.69	0.133
1041.86	0.132
1042.02	0.128
1042.18	0.129
1042.34	0.130
1042.50	0.133
1042.66	0.128
1042.83	0.128
1042.99	0.130
1043.15	0.126
1043.31	0.126
1043.47	0.128
1043.63	0.126
1043.79	0.125
1043.96	0.124
1044.12	0.128
1044.28	0.126
1044.44	0.130
1044.60	0.125
1044.76	0.123
1044.92	0.126
1045.09	0.129
1045.25	0.128
1045.41	0.128
1045.57	0.125
1045.73	0.126
1045.89	0.127
1046.05	0.127
1046.21	0.124
1046.38	0.128
1046.54	0.137
1046.70	0.115
1046.86	0.114
>>>>>End Processed Spectral Data<<<<<
