SpectraSuite Data File
++++++++++++++++++++++++++++++++++++
Date: Mon May 20 12:12:18 CDT 2013
User: Students
Dark Spectrum Present: Yes
Reference Spectrum Present: Yes
Number of Sampled Component Spectra: 1
Spectrometers: USB4H00887
Integration Time (usec): 60000 (USB4H00887)
Spectra Averaged: 5 (USB4H00887)
Boxcar Smoothing: 5 (USB4H00887)
Correct for Electrical Dark: No (USB4H00887)
Strobe/Lamp Enabled: No (USB4H00887)
Correct for Detector Non-linearity: No (USB4H00887)
Correct for Stray Light: No (USB4H00887)
Number of Pixels in Processed Spectrum: 3648
>>>>>Begin Processed Spectral Data<<<<<
345.83	-0.166
346.05	-0.166
346.26	-0.166
346.48	-0.000
346.70	0.477
346.92	0.011
347.14	0.015
347.35	0.012
347.57	0.073
347.79	-0.112
348.01	-0.076
348.23	-0.194
348.44	-0.000
348.66	0.206
348.88	-0.375
349.10	-0.187
349.32	0.136
349.53	-0.035
349.75	-0.041
349.97	-0.007
350.19	0.026
350.41	-0.032
350.62	0.046
350.84	-0.005
351.06	0.011
351.28	0.018
351.50	0.007
351.71	0.091
351.93	0.070
352.15	0.024
352.37	0.191
352.58	0.070
352.80	0.086
353.02	0.144
353.24	0.193
353.46	-0.000
353.67	-0.267
353.89	0.105
354.11	0.112
354.33	0.133
354.54	0.197
354.76	0.334
354.98	0.603
355.20	0.451
355.41	0.157
355.63	0.349
355.85	0.170
356.07	-0.000
356.28	0.165
356.50	0.306
356.72	0.078
356.94	0.212
357.15	0.233
357.37	-0.000
357.59	0.074
357.81	0.029
358.02	0.077
358.24	0.058
358.46	0.114
358.68	0.068
358.89	0.033
359.11	-0.000
359.33	0.058
359.55	-0.457
359.76	0.126
359.98	0.170
360.20	0.201
360.42	0.145
360.63	0.184
360.85	0.144
361.07	1.421
361.29	0.120
361.50	0.425
361.72	0.140
361.94	0.749
362.15	0.200
362.37	0.095
362.59	0.087
362.81	0.146
363.02	0.232
363.24	0.406
363.46	0.246
363.68	0.305
363.89	0.182
364.11	0.240
364.33	0.279
364.54	0.167
364.76	0.215
364.98	0.232
365.20	0.271
365.41	0.154
365.63	0.164
365.85	0.102
366.06	0.251
366.28	0.255
366.50	0.139
366.71	0.065
366.93	0.099
367.15	0.091
367.37	0.062
367.58	0.082
367.80	0.116
368.02	0.332
368.23	0.134
368.45	0.155
368.67	0.146
368.88	0.162
369.10	-0.000
369.32	0.182
369.53	0.110
369.75	0.217
369.97	0.645
370.19	0.294
370.40	0.106
370.62	0.340
370.84	0.118
371.05	0.591
371.27	0.134
371.49	0.140
371.70	0.171
371.92	0.250
372.14	0.104
372.35	0.119
372.57	0.116
372.79	0.337
373.00	0.079
373.22	0.124
373.44	0.126
373.65	0.092
373.87	0.144
374.09	0.548
374.30	0.136
374.52	0.161
374.74	0.116
374.95	0.655
375.17	0.132
375.39	-0.000
375.60	0.153
375.82	0.261
376.04	0.111
376.25	0.126
376.47	0.075
376.68	0.159
376.90	0.088
377.12	0.167
377.33	0.095
377.55	0.235
377.77	0.109
377.98	0.180
378.20	0.132
378.42	0.164
378.63	0.188
378.85	-0.000
379.07	0.136
379.28	0.483
379.50	0.340
379.71	0.167
379.93	0.118
380.15	0.160
380.36	0.215
380.58	0.138
380.80	0.386
381.01	0.126
381.23	0.099
381.44	0.116
381.66	0.146
381.88	0.160
382.09	-0.081
382.31	0.130
382.53	0.139
382.74	0.995
382.96	0.208
383.17	0.172
383.39	0.242
383.61	0.338
383.82	0.238
384.04	0.273
384.25	0.338
384.47	0.315
384.69	0.313
384.90	0.294
385.12	0.657
385.33	0.356
385.55	0.278
385.77	0.469
385.98	0.216
386.20	0.273
386.41	0.226
386.63	0.265
386.85	0.208
387.06	0.244
387.28	0.357
387.49	0.221
387.71	0.180
387.93	0.152
388.14	0.405
388.36	0.189
388.57	0.191
388.79	0.214
389.01	2.065
389.22	0.288
389.44	0.244
389.65	0.195
389.87	0.187
390.08	0.216
390.30	0.171
390.52	0.329
390.73	0.338
390.95	0.232
391.16	0.231
391.38	-0.000
391.59	0.266
391.81	0.224
392.03	0.224
392.24	0.287
392.46	0.238
392.67	0.212
392.89	0.298
393.10	0.454
393.32	0.298
393.53	0.338
393.75	0.197
393.97	0.226
394.18	0.326
394.40	0.278
394.61	0.280
394.83	0.249
395.04	0.312
395.26	0.207
395.47	0.307
395.69	0.253
395.91	0.277
396.12	0.347
396.34	0.328
396.55	0.199
396.77	0.293
396.98	1.355
397.20	0.360
397.41	0.355
397.63	0.260
397.84	0.241
398.06	0.231
398.27	0.241
398.49	0.282
398.71	0.209
398.92	0.269
399.14	0.363
399.35	0.439
399.57	0.421
399.78	0.301
400.00	0.283
400.21	0.355
400.43	0.279
400.64	0.289
400.86	0.652
401.07	0.367
401.29	0.309
401.50	0.327
401.72	0.458
401.93	0.298
402.15	0.352
402.36	0.327
402.58	0.266
402.79	0.306
403.01	0.509
403.22	0.396
403.44	0.275
403.65	0.429
403.87	0.460
404.08	0.366
404.30	0.579
404.51	0.324
404.73	0.393
404.94	0.339
405.16	0.341
405.37	0.260
405.59	0.473
405.80	0.298
406.02	0.374
406.23	0.368
406.45	0.430
406.66	0.467
406.88	0.302
407.09	0.462
407.31	0.362
407.52	0.436
407.74	0.358
407.95	0.412
408.17	0.371
408.38	0.401
408.60	0.269
408.81	0.441
409.03	0.323
409.24	0.327
409.45	0.386
409.67	0.382
409.88	0.351
410.10	0.448
410.31	0.365
410.53	0.358
410.74	0.499
410.96	0.495
411.17	0.525
411.39	0.423
411.60	0.385
411.82	0.441
412.03	0.429
412.24	0.403
412.46	0.585
412.67	0.482
412.89	0.472
413.10	0.462
413.32	0.418
413.53	0.477
413.75	0.488
413.96	0.372
414.17	0.499
414.39	0.513
414.60	0.424
414.82	0.570
415.03	0.436
415.25	0.488
415.46	0.339
415.68	0.476
415.89	0.902
416.10	0.706
416.32	0.382
416.53	0.444
416.75	0.407
416.96	0.496
417.18	0.421
417.39	0.406
417.60	0.401
417.82	0.578
418.03	0.511
418.25	0.426
418.46	0.439
418.67	0.399
418.89	0.433
419.10	0.450
419.32	0.595
419.53	0.555
419.75	0.470
419.96	0.416
420.17	0.511
420.39	0.477
420.60	0.493
420.82	0.605
421.03	0.497
421.24	0.418
421.46	0.463
421.67	0.511
421.89	0.443
422.10	0.481
422.31	0.477
422.53	0.668
422.74	0.494
422.96	0.400
423.17	0.447
423.38	0.543
423.60	0.455
423.81	0.548
424.03	0.466
424.24	0.512
424.45	0.515
424.67	0.517
424.88	0.464
425.09	0.504
425.31	0.457
425.52	0.475
425.74	0.528
425.95	0.570
426.16	0.462
426.38	0.528
426.59	0.493
426.80	0.560
427.02	0.575
427.23	0.453
427.45	0.586
427.66	0.575
427.87	0.461
428.09	0.490
428.30	0.536
428.51	0.522
428.73	0.569
428.94	0.502
429.15	0.494
429.37	0.476
429.58	0.506
429.79	0.471
430.01	0.561
430.22	0.554
430.44	0.568
430.65	0.512
430.86	0.554
431.08	0.539
431.29	0.495
431.50	0.577
431.72	0.750
431.93	0.608
432.14	0.460
432.36	0.502
432.57	0.517
432.78	0.530
433.00	0.488
433.21	0.480
433.42	0.590
433.64	0.525
433.85	0.590
434.06	0.492
434.28	0.518
434.49	0.535
434.70	0.545
434.92	0.543
435.13	0.587
435.34	0.605
435.56	0.574
435.77	0.574
435.98	0.723
436.20	0.612
436.41	0.525
436.62	0.518
436.83	0.580
437.05	0.650
437.26	0.578
437.47	0.520
437.69	0.560
437.90	0.521
438.11	0.507
438.33	0.549
438.54	0.565
438.75	0.710
438.97	0.692
439.18	0.532
439.39	0.556
439.60	0.604
439.82	0.565
440.03	0.531
440.24	0.738
440.46	0.574
440.67	0.553
440.88	0.595
441.10	0.557
441.31	0.559
441.52	0.609
441.73	0.678
441.95	0.609
442.16	0.561
442.37	0.844
442.58	0.552
442.80	0.539
443.01	0.691
443.22	0.630
443.44	0.545
443.65	0.633
443.86	0.630
444.07	0.672
444.29	0.583
444.50	0.732
444.71	0.565
444.92	0.533
445.14	0.672
445.35	0.701
445.56	0.561
445.78	0.648
445.99	0.650
446.20	0.565
446.41	0.629
446.63	0.629
446.84	0.597
447.05	0.596
447.26	0.702
447.48	0.605
447.69	0.577
447.90	0.655
448.11	0.586
448.33	0.607
448.54	0.625
448.75	0.645
448.96	0.651
449.18	0.680
449.39	0.620
449.60	0.603
449.81	0.709
450.03	0.624
450.24	0.670
450.45	0.635
450.66	0.627
450.87	0.649
451.09	0.614
451.30	0.599
451.51	0.662
451.72	0.666
451.94	0.679
452.15	0.737
452.36	0.630
452.57	0.639
452.78	0.647
453.00	0.668
453.21	0.631
453.42	0.612
453.63	0.693
453.85	0.656
454.06	0.654
454.27	0.756
454.48	0.681
454.69	0.618
454.91	0.670
455.12	0.589
455.33	0.655
455.54	0.671
455.75	0.649
455.97	0.662
456.18	0.659
456.39	0.667
456.60	0.691
456.81	0.643
457.03	0.650
457.24	0.654
457.45	0.723
457.66	0.675
457.87	0.638
458.09	0.653
458.30	0.587
458.51	0.681
458.72	0.694
458.93	0.696
459.15	0.626
459.36	0.678
459.57	0.692
459.78	0.731
459.99	0.664
460.20	0.641
460.42	0.700
460.63	0.670
460.84	0.657
461.05	0.673
461.26	0.719
461.47	0.652
461.69	0.694
461.90	0.725
462.11	0.690
462.32	0.736
462.53	0.688
462.74	0.762
462.96	0.671
463.17	0.667
463.38	0.699
463.59	0.785
463.80	0.669
464.01	0.684
464.23	0.746
464.44	0.714
464.65	0.713
464.86	0.731
465.07	0.736
465.28	0.711
465.49	0.725
465.71	0.689
465.92	0.717
466.13	0.755
466.34	0.709
466.55	0.749
466.76	0.723
466.97	0.743
467.19	0.730
467.40	0.759
467.61	0.758
467.82	0.696
468.03	0.682
468.24	0.732
468.45	0.750
468.66	0.739
468.88	0.744
469.09	0.745
469.30	0.774
469.51	0.725
469.72	0.753
469.93	0.732
470.14	0.718
470.35	0.782
470.57	0.750
470.78	0.710
470.99	0.804
471.20	0.761
471.41	0.733
471.62	0.774
471.83	0.752
472.04	0.770
472.25	0.802
472.47	0.742
472.68	0.744
472.89	0.746
473.10	0.774
473.31	0.736
473.52	0.780
473.73	0.794
473.94	0.738
474.15	0.756
474.36	0.756
474.57	0.770
474.79	0.752
475.00	0.754
475.21	0.744
475.42	0.806
475.63	0.740
475.84	0.761
476.05	0.766
476.26	0.746
476.47	0.770
476.68	0.800
476.89	0.754
477.10	0.786
477.32	0.780
477.53	0.816
477.74	0.761
477.95	0.786
478.16	0.751
478.37	0.779
478.58	0.782
478.79	0.791
479.00	0.794
479.21	0.766
479.42	0.795
479.63	0.797
479.84	0.772
480.05	0.772
480.26	0.793
480.47	0.805
480.69	0.805
480.90	0.784
481.11	0.784
481.32	0.822
481.53	0.780
481.74	0.812
481.95	0.788
482.16	0.799
482.37	0.805
482.58	0.783
482.79	0.793
483.00	0.810
483.21	0.772
483.42	0.748
483.63	0.797
483.84	0.815
484.05	0.807
484.26	0.790
484.47	0.788
484.68	0.763
484.89	0.766
485.10	0.797
485.31	0.785
485.52	0.792
485.73	0.795
485.94	0.820
486.15	0.787
486.37	0.799
486.58	0.775
486.79	0.783
487.00	0.814
487.21	0.809
487.42	0.806
487.63	0.809
487.84	0.819
488.05	0.817
488.26	0.790
488.47	0.793
488.68	0.810
488.89	0.796
489.10	0.792
489.31	0.797
489.52	0.817
489.73	0.795
489.94	0.817
490.15	0.789
490.36	0.812
490.57	0.784
490.78	0.777
490.99	0.799
491.20	0.846
491.41	0.819
491.62	0.786
491.83	0.803
492.04	0.804
492.25	0.809
492.45	0.811
492.66	0.828
492.87	0.821
493.08	0.811
493.29	0.802
493.50	0.796
493.71	0.801
493.92	0.799
494.13	0.809
494.34	0.820
494.55	0.823
494.76	0.838
494.97	0.832
495.18	0.811
495.39	0.820
495.60	0.789
495.81	0.792
496.02	0.804
496.23	0.802
496.44	0.820
496.65	0.816
496.86	0.819
497.07	0.837
497.28	0.834
497.49	0.804
497.70	0.806
497.91	0.820
498.12	0.808
498.32	0.835
498.53	0.826
498.74	0.820
498.95	0.835
499.16	0.808
499.37	0.809
499.58	0.816
499.79	0.834
500.00	0.832
500.21	0.849
500.42	0.813
500.63	0.814
500.84	0.825
501.05	0.813
501.26	0.827
501.46	0.850
501.67	0.830
501.88	0.831
502.09	0.814
502.30	0.817
502.51	0.847
502.72	0.821
502.93	0.831
503.14	0.842
503.35	0.826
503.56	0.824
503.77	0.843
503.97	0.827
504.18	0.826
504.39	0.847
504.60	0.832
504.81	0.846
505.02	0.840
505.23	0.842
505.44	0.830
505.65	0.834
505.86	0.822
506.07	0.860
506.27	0.836
506.48	0.841
506.69	0.831
506.90	0.842
507.11	0.841
507.32	0.826
507.53	0.830
507.74	0.827
507.95	0.834
508.15	0.836
508.36	0.837
508.57	0.845
508.78	0.834
508.99	0.834
509.20	0.818
509.41	0.834
509.62	0.828
509.82	0.825
510.03	0.831
510.24	0.831
510.45	0.844
510.66	0.839
510.87	0.835
511.08	0.811
511.29	0.834
511.49	0.822
511.70	0.848
511.91	0.809
512.12	0.808
512.33	0.826
512.54	0.835
512.75	0.825
512.95	0.841
513.16	0.837
513.37	0.824
513.58	0.846
513.79	0.825
514.00	0.827
514.20	0.838
514.41	0.830
514.62	0.812
514.83	0.836
515.04	0.830
515.25	0.818
515.46	0.825
515.66	0.827
515.87	0.832
516.08	0.815
516.29	0.829
516.50	0.816
516.71	0.813
516.91	0.818
517.12	0.828
517.33	0.820
517.54	0.810
517.75	0.810
517.95	0.817
518.16	0.824
518.37	0.804
518.58	0.807
518.79	0.792
519.00	0.810
519.20	0.815
519.41	0.797
519.62	0.809
519.83	0.816
520.04	0.795
520.24	0.793
520.45	0.797
520.66	0.810
520.87	0.787
521.08	0.786
521.28	0.790
521.49	0.798
521.70	0.781
521.91	0.788
522.12	0.775
522.32	0.787
522.53	0.778
522.74	0.772
522.95	0.777
523.16	0.778
523.36	0.784
523.57	0.772
523.78	0.769
523.99	0.772
524.20	0.768
524.40	0.776
524.61	0.781
524.82	0.765
525.03	0.767
525.23	0.767
525.44	0.757
525.65	0.753
525.86	0.766
526.06	0.749
526.27	0.749
526.48	0.754
526.69	0.742
526.90	0.743
527.10	0.763
527.31	0.737
527.52	0.733
527.73	0.729
527.93	0.735
528.14	0.740
528.35	0.733
528.56	0.733
528.76	0.728
528.97	0.723
529.18	0.717
529.39	0.717
529.59	0.717
529.80	0.735
530.01	0.719
530.22	0.717
530.42	0.697
530.63	0.709
530.84	0.694
531.05	0.703
531.25	0.705
531.46	0.700
531.67	0.686
531.88	0.697
532.08	0.693
532.29	0.688
532.50	0.684
532.70	0.680
532.91	0.673
533.12	0.674
533.33	0.689
533.53	0.670
533.74	0.670
533.95	0.673
534.15	0.667
534.36	0.666
534.57	0.655
534.78	0.656
534.98	0.662
535.19	0.643
535.40	0.644
535.60	0.655
535.81	0.641
536.02	0.643
536.23	0.637
536.43	0.637
536.64	0.630
536.85	0.636
537.05	0.641
537.26	0.626
537.47	0.627
537.67	0.620
537.88	0.617
538.09	0.621
538.30	0.614
538.50	0.607
538.71	0.615
538.92	0.605
539.12	0.603
539.33	0.599
539.54	0.600
539.74	0.603
539.95	0.596
540.16	0.594
540.36	0.589
540.57	0.588
540.78	0.584
540.98	0.583
541.19	0.582
541.40	0.573
541.60	0.580
541.81	0.576
542.02	0.575
542.22	0.567
542.43	0.564
542.64	0.561
542.84	0.560
543.05	0.554
543.26	0.554
543.46	0.556
543.67	0.555
543.88	0.552
544.08	0.544
544.29	0.541
544.50	0.542
544.70	0.543
544.91	0.536
545.12	0.538
545.32	0.535
545.53	0.538
545.74	0.530
545.94	0.527
546.15	0.526
546.35	0.524
546.56	0.523
546.77	0.521
546.97	0.519
547.18	0.513
547.39	0.513
547.59	0.512
547.80	0.508
548.01	0.512
548.21	0.509
548.42	0.503
548.62	0.502
548.83	0.500
549.04	0.496
549.24	0.491
549.45	0.491
549.65	0.489
549.86	0.486
550.07	0.486
550.27	0.484
550.48	0.490
550.69	0.480
550.89	0.480
551.10	0.477
551.30	0.477
551.51	0.477
551.72	0.468
551.92	0.469
552.13	0.468
552.33	0.469
552.54	0.464
552.75	0.459
552.95	0.461
553.16	0.456
553.36	0.455
553.57	0.454
553.78	0.453
553.98	0.453
554.19	0.446
554.39	0.445
554.60	0.447
554.80	0.447
555.01	0.441
555.22	0.442
555.42	0.440
555.63	0.435
555.83	0.438
556.04	0.432
556.25	0.434
556.45	0.427
556.66	0.425
556.86	0.429
557.07	0.427
557.27	0.426
557.48	0.421
557.68	0.420
557.89	0.421
558.10	0.418
558.30	0.416
558.51	0.415
558.71	0.414
558.92	0.410
559.12	0.412
559.33	0.414
559.54	0.410
559.74	0.406
559.95	0.404
560.15	0.404
560.36	0.403
560.56	0.399
560.77	0.400
560.97	0.400
561.18	0.396
561.38	0.395
561.59	0.397
561.79	0.394
562.00	0.392
562.21	0.390
562.41	0.389
562.62	0.388
562.82	0.386
563.03	0.384
563.23	0.383
563.44	0.383
563.64	0.381
563.85	0.382
564.05	0.377
564.26	0.377
564.46	0.376
564.67	0.377
564.87	0.373
565.08	0.370
565.28	0.370
565.49	0.371
565.69	0.369
565.90	0.367
566.10	0.369
566.31	0.364
566.51	0.366
566.72	0.366
566.92	0.361
567.13	0.361
567.33	0.360
567.54	0.359
567.74	0.359
567.95	0.355
568.15	0.356
568.36	0.355
568.56	0.354
568.77	0.350
568.97	0.349
569.18	0.349
569.38	0.347
569.59	0.348
569.79	0.346
570.00	0.344
570.20	0.343
570.41	0.341
570.61	0.340
570.82	0.341
571.02	0.337
571.23	0.339
571.43	0.335
571.64	0.334
571.84	0.334
572.05	0.332
572.25	0.332
572.45	0.330
572.66	0.328
572.86	0.328
573.07	0.327
573.27	0.328
573.48	0.327
573.68	0.324
573.89	0.323
574.09	0.325
574.30	0.323
574.50	0.322
574.70	0.322
574.91	0.320
575.11	0.320
575.32	0.320
575.52	0.316
575.73	0.316
575.93	0.316
576.14	0.315
576.34	0.313
576.54	0.312
576.75	0.311
576.95	0.311
577.16	0.309
577.36	0.308
577.57	0.308
577.77	0.306
577.97	0.304
578.18	0.306
578.38	0.302
578.59	0.301
578.79	0.300
579.00	0.301
579.20	0.300
579.40	0.299
579.61	0.299
579.81	0.298
580.02	0.296
580.22	0.296
580.42	0.295
580.63	0.296
580.83	0.295
581.04	0.293
581.24	0.293
581.45	0.291
581.65	0.291
581.85	0.289
582.06	0.287
582.26	0.287
582.47	0.287
582.67	0.286
582.87	0.285
583.08	0.283
583.28	0.284
583.48	0.282
583.69	0.279
583.89	0.279
584.10	0.281
584.30	0.279
584.50	0.277
584.71	0.276
584.91	0.276
585.12	0.274
585.32	0.276
585.52	0.274
585.73	0.274
585.93	0.273
586.13	0.273
586.34	0.272
586.54	0.272
586.75	0.271
586.95	0.270
587.15	0.271
587.36	0.270
587.56	0.268
587.76	0.267
587.97	0.266
588.17	0.265
588.37	0.265
588.58	0.265
588.78	0.262
588.98	0.263
589.19	0.263
589.39	0.261
589.60	0.263
589.80	0.260
590.00	0.260
590.21	0.260
590.41	0.259
590.61	0.258
590.82	0.258
591.02	0.258
591.22	0.256
591.43	0.256
591.63	0.255
591.83	0.254
592.04	0.253
592.24	0.254
592.44	0.251
592.65	0.250
592.85	0.251
593.05	0.251
593.26	0.249
593.46	0.249
593.66	0.248
593.86	0.248
594.07	0.246
594.27	0.247
594.47	0.245
594.68	0.245
594.88	0.246
595.08	0.245
595.29	0.245
595.49	0.243
595.69	0.243
595.90	0.242
596.10	0.242
596.30	0.241
596.50	0.240
596.71	0.240
596.91	0.239
597.11	0.238
597.32	0.238
597.52	0.237
597.72	0.236
597.93	0.236
598.13	0.234
598.33	0.235
598.53	0.234
598.74	0.234
598.94	0.233
599.14	0.232
599.35	0.233
599.55	0.233
599.75	0.232
599.95	0.231
600.16	0.231
600.36	0.230
600.56	0.230
600.76	0.229
600.97	0.228
601.17	0.228
601.37	0.228
601.58	0.227
601.78	0.227
601.98	0.226
602.18	0.225
602.39	0.225
602.59	0.225
602.79	0.224
602.99	0.225
603.20	0.223
603.40	0.223
603.60	0.223
603.80	0.223
604.01	0.222
604.21	0.221
604.41	0.221
604.61	0.220
604.82	0.220
605.02	0.220
605.22	0.219
605.42	0.219
605.62	0.219
605.83	0.218
606.03	0.217
606.23	0.217
606.43	0.217
606.64	0.217
606.84	0.216
607.04	0.216
607.24	0.216
607.45	0.216
607.65	0.214
607.85	0.215
608.05	0.214
608.25	0.213
608.46	0.213
608.66	0.213
608.86	0.212
609.06	0.211
609.26	0.210
609.47	0.211
609.67	0.209
609.87	0.210
610.07	0.210
610.28	0.208
610.48	0.208
610.68	0.209
610.88	0.207
611.08	0.208
611.29	0.207
611.49	0.206
611.69	0.207
611.89	0.206
612.09	0.205
612.29	0.205
612.50	0.205
612.70	0.205
612.90	0.204
613.10	0.203
613.30	0.203
613.51	0.203
613.71	0.202
613.91	0.207
614.11	0.202
614.31	0.201
614.51	0.201
614.72	0.200
614.92	0.200
615.12	0.200
615.32	0.200
615.52	0.200
615.72	0.200
615.93	0.200
616.13	0.199
616.33	0.199
616.53	0.199
616.73	0.199
616.93	0.198
617.14	0.199
617.34	0.198
617.54	0.199
617.74	0.199
617.94	0.198
618.14	0.198
618.34	0.197
618.55	0.197
618.75	0.198
618.95	0.197
619.15	0.197
619.35	0.196
619.55	0.195
619.75	0.195
619.96	0.194
620.16	0.194
620.36	0.194
620.56	0.193
620.76	0.193
620.96	0.192
621.16	0.192
621.36	0.192
621.57	0.192
621.77	0.193
621.97	0.192
622.17	0.192
622.37	0.192
622.57	0.192
622.77	0.191
622.97	0.190
623.18	0.190
623.38	0.191
623.58	0.190
623.78	0.189
623.98	0.189
624.18	0.188
624.38	0.188
624.58	0.188
624.78	0.188
624.98	0.188
625.19	0.188
625.39	0.187
625.59	0.186
625.79	0.187
625.99	0.186
626.19	0.186
626.39	0.186
626.59	0.186
626.79	0.185
626.99	0.185
627.19	0.185
627.40	0.185
627.60	0.184
627.80	0.184
628.00	0.184
628.20	0.183
628.40	0.183
628.60	0.184
628.80	0.182
629.00	0.183
629.20	0.182
629.40	0.183
629.60	0.182
629.80	0.182
630.00	0.181
630.20	0.181
630.41	0.180
630.61	0.180
630.81	0.180
631.01	0.180
631.21	0.179
631.41	0.179
631.61	0.179
631.81	0.179
632.01	0.179
632.21	0.179
632.41	0.178
632.61	0.178
632.81	0.179
633.01	0.179
633.21	0.179
633.41	0.179
633.61	0.178
633.81	0.178
634.01	0.177
634.21	0.177
634.41	0.176
634.61	0.177
634.81	0.176
635.01	0.175
635.22	0.175
635.42	0.175
635.62	0.175
635.82	0.175
636.02	0.174
636.22	0.174
636.42	0.173
636.62	0.174
636.82	0.173
637.02	0.173
637.22	0.173
637.42	0.172
637.62	0.172
637.82	0.172
638.02	0.171
638.22	0.171
638.42	0.171
638.62	0.170
638.82	0.170
639.02	0.170
639.22	0.170
639.42	0.169
639.62	0.169
639.82	0.168
640.02	0.169
640.22	0.168
640.42	0.169
640.62	0.169
640.82	0.169
641.02	0.168
641.22	0.168
641.42	0.167
641.61	0.167
641.81	0.167
642.01	0.167
642.21	0.167
642.41	0.167
642.61	0.167
642.81	0.165
643.01	0.165
643.21	0.165
643.41	0.165
643.61	0.165
643.81	0.165
644.01	0.164
644.21	0.163
644.41	0.164
644.61	0.164
644.81	0.164
645.01	0.164
645.21	0.163
645.41	0.163
645.61	0.163
645.81	0.162
646.01	0.162
646.21	0.162
646.40	0.162
646.60	0.162
646.80	0.162
647.00	0.161
647.20	0.160
647.40	0.160
647.60	0.161
647.80	0.160
648.00	0.160
648.20	0.160
648.40	0.160
648.60	0.159
648.80	0.159
649.00	0.159
649.20	0.160
649.39	0.159
649.59	0.158
649.79	0.158
649.99	0.158
650.19	0.157
650.39	0.157
650.59	0.157
650.79	0.157
650.99	0.156
651.19	0.156
651.39	0.156
651.58	0.156
651.78	0.156
651.98	0.155
652.18	0.155
652.38	0.155
652.58	0.155
652.78	0.154
652.98	0.154
653.18	0.154
653.38	0.155
653.57	0.154
653.77	0.154
653.97	0.154
654.17	0.154
654.37	0.154
654.57	0.154
654.77	0.153
654.97	0.153
655.16	0.153
655.36	0.153
655.56	0.152
655.76	0.151
655.96	0.152
656.16	0.150
656.36	0.150
656.56	0.149
656.75	0.149
656.95	0.149
657.15	0.149
657.35	0.148
657.55	0.148
657.75	0.148
657.95	0.148
658.14	0.147
658.34	0.148
658.54	0.148
658.74	0.147
658.94	0.147
659.14	0.147
659.34	0.146
659.53	0.146
659.73	0.146
659.93	0.146
660.13	0.145
660.33	0.145
660.53	0.145
660.72	0.146
660.92	0.146
661.12	0.145
661.32	0.145
661.52	0.145
661.72	0.145
661.91	0.144
662.11	0.144
662.31	0.144
662.51	0.144
662.71	0.143
662.90	0.142
663.10	0.142
663.30	0.142
663.50	0.142
663.70	0.141
663.90	0.141
664.09	0.141
664.29	0.140
664.49	0.140
664.69	0.140
664.89	0.139
665.08	0.139
665.28	0.139
665.48	0.139
665.68	0.138
665.88	0.138
666.07	0.138
666.27	0.138
666.47	0.138
666.67	0.138
666.87	0.138
667.06	0.137
667.26	0.137
667.46	0.137
667.66	0.137
667.85	0.137
668.05	0.137
668.25	0.137
668.45	0.137
668.65	0.137
668.84	0.137
669.04	0.136
669.24	0.136
669.44	0.135
669.63	0.135
669.83	0.135
670.03	0.134
670.23	0.134
670.42	0.134
670.62	0.133
670.82	0.132
671.02	0.132
671.22	0.132
671.41	0.132
671.61	0.132
671.81	0.132
672.01	0.132
672.20	0.131
672.40	0.131
672.60	0.131
672.80	0.131
672.99	0.131
673.19	0.130
673.39	0.130
673.58	0.130
673.78	0.129
673.98	0.129
674.18	0.129
674.37	0.128
674.57	0.128
674.77	0.128
674.97	0.128
675.16	0.128
675.36	0.127
675.56	0.127
675.75	0.127
675.95	0.126
676.15	0.126
676.35	0.126
676.54	0.126
676.74	0.125
676.94	0.126
677.13	0.125
677.33	0.125
677.53	0.125
677.73	0.124
677.92	0.124
678.12	0.124
678.32	0.124
678.51	0.124
678.71	0.124
678.91	0.123
679.11	0.123
679.30	0.123
679.50	0.123
679.70	0.122
679.89	0.122
680.09	0.122
680.29	0.122
680.48	0.122
680.68	0.121
680.88	0.121
681.07	0.121
681.27	0.120
681.47	0.120
681.66	0.120
681.86	0.120
682.06	0.120
682.25	0.120
682.45	0.120
682.65	0.120
682.84	0.119
683.04	0.119
683.24	0.119
683.43	0.119
683.63	0.118
683.83	0.118
684.02	0.118
684.22	0.117
684.42	0.117
684.61	0.117
684.81	0.117
685.01	0.117
685.20	0.116
685.40	0.116
685.60	0.117
685.79	0.117
685.99	0.117
686.19	0.117
686.38	0.117
686.58	0.117
686.77	0.117
686.97	0.117
687.17	0.116
687.36	0.116
687.56	0.116
687.76	0.115
687.95	0.115
688.15	0.114
688.34	0.114
688.54	0.113
688.74	0.113
688.93	0.112
689.13	0.112
689.33	0.113
689.52	0.112
689.72	0.113
689.91	0.112
690.11	0.112
690.31	0.112
690.50	0.112
690.70	0.112
690.89	0.112
691.09	0.111
691.29	0.111
691.48	0.110
691.68	0.110
691.87	0.110
692.07	0.111
692.27	0.110
692.46	0.110
692.66	0.110
692.85	0.109
693.05	0.109
693.25	0.109
693.44	0.109
693.64	0.109
693.83	0.110
694.03	0.109
694.22	0.109
694.42	0.109
694.62	0.109
694.81	0.109
695.01	0.109
695.20	0.108
695.40	0.108
695.59	0.108
695.79	0.107
695.99	0.107
696.18	0.107
696.38	0.107
696.57	0.106
696.77	0.106
696.96	0.106
697.16	0.106
697.36	0.106
697.55	0.106
697.75	0.105
697.94	0.105
698.14	0.105
698.33	0.105
698.53	0.105
698.72	0.105
698.92	0.105
699.11	0.104
699.31	0.104
699.51	0.105
699.70	0.104
699.90	0.104
700.09	0.105
700.29	0.104
700.48	0.105
700.68	0.104
700.87	0.104
701.07	0.104
701.26	0.104
701.46	0.103
701.65	0.103
701.85	0.103
702.04	0.103
702.24	0.102
702.43	0.102
702.63	0.102
702.82	0.101
703.02	0.101
703.21	0.101
703.41	0.101
703.60	0.101
703.80	0.101
703.99	0.100
704.19	0.101
704.38	0.101
704.58	0.100
704.77	0.100
704.97	0.100
705.16	0.100
705.36	0.100
705.55	0.100
705.75	0.100
705.94	0.100
706.14	0.100
706.33	0.100
706.53	0.099
706.72	0.099
706.92	0.099
707.11	0.099
707.31	0.099
707.50	0.099
707.70	0.099
707.89	0.099
708.09	0.098
708.28	0.098
708.48	0.098
708.67	0.098
708.86	0.098
709.06	0.098
709.25	0.097
709.45	0.097
709.64	0.097
709.84	0.097
710.03	0.097
710.23	0.097
710.42	0.096
710.62	0.096
710.81	0.096
711.00	0.097
711.20	0.096
711.39	0.096
711.59	0.096
711.78	0.097
711.98	0.096
712.17	0.096
712.37	0.096
712.56	0.096
712.75	0.096
712.95	0.096
713.14	0.096
713.34	0.096
713.53	0.097
713.73	0.097
713.92	0.096
714.11	0.096
714.31	0.096
714.50	0.096
714.70	0.096
714.89	0.096
715.08	0.096
715.28	0.095
715.47	0.095
715.67	0.095
715.86	0.095
716.06	0.095
716.25	0.095
716.44	0.095
716.64	0.095
716.83	0.094
717.03	0.094
717.22	0.094
717.41	0.094
717.61	0.094
717.80	0.094
717.99	0.094
718.19	0.094
718.38	0.094
718.58	0.093
718.77	0.093
718.96	0.093
719.16	0.093
719.35	0.093
719.55	0.093
719.74	0.093
719.93	0.093
720.13	0.092
720.32	0.092
720.51	0.092
720.71	0.092
720.90	0.092
721.10	0.092
721.29	0.092
721.48	0.092
721.68	0.092
721.87	0.091
722.06	0.091
722.26	0.092
722.45	0.091
722.64	0.092
722.84	0.092
723.03	0.092
723.22	0.092
723.42	0.093
723.61	0.093
723.80	0.093
724.00	0.093
724.19	0.093
724.38	0.093
724.58	0.092
724.77	0.092
724.96	0.092
725.16	0.092
725.35	0.092
725.54	0.092
725.74	0.092
725.93	0.092
726.12	0.092
726.32	0.091
726.51	0.092
726.70	0.091
726.90	0.092
727.09	0.091
727.28	0.091
727.48	0.091
727.67	0.091
727.86	0.091
728.06	0.091
728.25	0.091
728.44	0.092
728.64	0.091
728.83	0.091
729.02	0.091
729.21	0.091
729.41	0.091
729.60	0.091
729.79	0.091
729.99	0.090
730.18	0.090
730.37	0.090
730.56	0.090
730.76	0.090
730.95	0.090
731.14	0.090
731.34	0.090
731.53	0.090
731.72	0.089
731.91	0.090
732.11	0.089
732.30	0.090
732.49	0.090
732.69	0.090
732.88	0.090
733.07	0.090
733.26	0.091
733.46	0.090
733.65	0.090
733.84	0.090
734.03	0.090
734.23	0.091
734.42	0.091
734.61	0.091
734.80	0.091
735.00	0.091
735.19	0.090
735.38	0.091
735.57	0.091
735.77	0.091
735.96	0.091
736.15	0.091
736.34	0.090
736.54	0.091
736.73	0.091
736.92	0.090
737.11	0.090
737.31	0.090
737.50	0.090
737.69	0.091
737.88	0.090
738.07	0.090
738.27	0.090
738.46	0.090
738.65	0.090
738.84	0.090
739.04	0.090
739.23	0.090
739.42	0.090
739.61	0.090
739.80	0.090
740.00	0.090
740.19	0.090
740.38	0.090
740.57	0.089
740.76	0.089
740.96	0.089
741.15	0.089
741.34	0.089
741.53	0.089
741.72	0.089
741.92	0.088
742.11	0.089
742.30	0.089
742.49	0.089
742.68	0.089
742.88	0.089
743.07	0.089
743.26	0.089
743.45	0.090
743.64	0.089
743.84	0.089
744.03	0.089
744.22	0.089
744.41	0.089
744.60	0.088
744.79	0.088
744.99	0.088
745.18	0.088
745.37	0.088
745.56	0.087
745.75	0.088
745.94	0.087
746.14	0.087
746.33	0.087
746.52	0.088
746.71	0.088
746.90	0.088
747.09	0.088
747.28	0.087
747.48	0.087
747.67	0.087
747.86	0.087
748.05	0.087
748.24	0.087
748.43	0.087
748.62	0.086
748.82	0.086
749.01	0.086
749.20	0.086
749.39	0.086
749.58	0.086
749.77	0.086
749.96	0.086
750.16	0.086
750.35	0.086
750.54	0.086
750.73	0.086
750.92	0.086
751.11	0.085
751.30	0.086
751.49	0.086
751.68	0.086
751.88	0.085
752.07	0.085
752.26	0.085
752.45	0.085
752.64	0.085
752.83	0.085
753.02	0.085
753.21	0.085
753.40	0.084
753.60	0.085
753.79	0.085
753.98	0.085
754.17	0.084
754.36	0.084
754.55	0.084
754.74	0.084
754.93	0.084
755.12	0.084
755.31	0.084
755.50	0.084
755.70	0.084
755.89	0.083
756.08	0.084
756.27	0.083
756.46	0.084
756.65	0.083
756.84	0.083
757.03	0.083
757.22	0.082
757.41	0.082
757.60	0.082
757.79	0.082
757.98	0.083
758.17	0.083
758.36	0.083
758.56	0.082
758.75	0.082
758.94	0.082
759.13	0.083
759.32	0.083
759.51	0.083
759.70	0.083
759.89	0.082
760.08	0.082
760.27	0.082
760.46	0.082
760.65	0.082
760.84	0.082
761.03	0.082
761.22	0.082
761.41	0.082
761.60	0.081
761.79	0.081
761.98	0.081
762.17	0.081
762.36	0.081
762.55	0.081
762.74	0.081
762.93	0.081
763.12	0.081
763.31	0.081
763.50	0.080
763.69	0.081
763.88	0.081
764.07	0.081
764.26	0.081
764.45	0.081
764.64	0.081
764.83	0.081
765.02	0.081
765.21	0.081
765.40	0.081
765.59	0.081
765.78	0.081
765.97	0.081
766.16	0.081
766.35	0.081
766.54	0.081
766.73	0.081
766.92	0.081
767.11	0.080
767.30	0.081
767.49	0.080
767.68	0.080
767.87	0.080
768.06	0.080
768.25	0.080
768.44	0.080
768.63	0.080
768.82	0.080
769.01	0.079
769.20	0.079
769.39	0.080
769.58	0.080
769.77	0.080
769.96	0.080
770.15	0.079
770.34	0.079
770.53	0.079
770.72	0.078
770.91	0.078
771.10	0.078
771.29	0.078
771.47	0.078
771.66	0.078
771.85	0.078
772.04	0.078
772.23	0.078
772.42	0.078
772.61	0.078
772.80	0.078
772.99	0.078
773.18	0.078
773.37	0.079
773.56	0.078
773.75	0.079
773.94	0.079
774.13	0.078
774.31	0.078
774.50	0.078
774.69	0.078
774.88	0.078
775.07	0.078
775.26	0.078
775.45	0.077
775.64	0.078
775.83	0.077
776.02	0.077
776.21	0.077
776.40	0.077
776.58	0.076
776.77	0.077
776.96	0.077
777.15	0.077
777.34	0.077
777.53	0.077
777.72	0.077
777.91	0.077
778.10	0.077
778.28	0.077
778.47	0.077
778.66	0.077
778.85	0.076
779.04	0.076
779.23	0.076
779.42	0.076
779.61	0.076
779.79	0.076
779.98	0.075
780.17	0.076
780.36	0.076
780.55	0.075
780.74	0.075
780.93	0.075
781.12	0.075
781.30	0.075
781.49	0.075
781.68	0.075
781.87	0.075
782.06	0.075
782.25	0.075
782.44	0.075
782.62	0.076
782.81	0.076
783.00	0.076
783.19	0.076
783.38	0.076
783.57	0.076
783.75	0.076
783.94	0.076
784.13	0.076
784.32	0.075
784.51	0.075
784.70	0.075
784.88	0.075
785.07	0.075
785.26	0.075
785.45	0.075
785.64	0.074
785.83	0.075
786.01	0.075
786.20	0.075
786.39	0.074
786.58	0.074
786.77	0.074
786.95	0.074
787.14	0.074
787.33	0.074
787.52	0.074
787.71	0.074
787.90	0.074
788.08	0.074
788.27	0.074
788.46	0.074
788.65	0.074
788.84	0.074
789.02	0.074
789.21	0.074
789.40	0.074
789.59	0.074
789.77	0.074
789.96	0.074
790.15	0.074
790.34	0.074
790.53	0.074
790.71	0.074
790.90	0.074
791.09	0.073
791.28	0.074
791.46	0.074
791.65	0.074
791.84	0.074
792.03	0.073
792.22	0.073
792.40	0.073
792.59	0.073
792.78	0.073
792.97	0.073
793.15	0.073
793.34	0.073
793.53	0.073
793.72	0.073
793.90	0.073
794.09	0.073
794.28	0.073
794.47	0.074
794.65	0.073
794.84	0.073
795.03	0.073
795.22	0.073
795.40	0.073
795.59	0.073
795.78	0.073
795.97	0.073
796.15	0.073
796.34	0.073
796.53	0.073
796.71	0.073
796.90	0.073
797.09	0.073
797.28	0.073
797.46	0.073
797.65	0.073
797.84	0.073
798.02	0.072
798.21	0.072
798.40	0.072
798.59	0.072
798.77	0.072
798.96	0.071
799.15	0.071
799.33	0.072
799.52	0.071
799.71	0.071
799.90	0.071
800.08	0.071
800.27	0.071
800.46	0.071
800.64	0.071
800.83	0.071
801.02	0.071
801.20	0.071
801.39	0.071
801.58	0.071
801.76	0.071
801.95	0.072
802.14	0.072
802.32	0.072
802.51	0.072
802.70	0.072
802.88	0.071
803.07	0.072
803.26	0.071
803.44	0.071
803.63	0.072
803.82	0.071
804.00	0.071
804.19	0.072
804.38	0.072
804.56	0.071
804.75	0.071
804.94	0.072
805.12	0.072
805.31	0.072
805.50	0.072
805.68	0.072
805.87	0.072
806.06	0.072
806.24	0.072
806.43	0.072
806.62	0.072
806.80	0.072
806.99	0.071
807.17	0.071
807.36	0.071
807.55	0.071
807.73	0.071
807.92	0.071
808.11	0.071
808.29	0.070
808.48	0.070
808.66	0.070
808.85	0.070
809.04	0.070
809.22	0.070
809.41	0.070
809.59	0.070
809.78	0.070
809.97	0.070
810.15	0.070
810.34	0.070
810.53	0.070
810.71	0.070
810.90	0.071
811.08	0.070
811.27	0.070
811.45	0.070
811.64	0.071
811.83	0.071
812.01	0.071
812.20	0.071
812.38	0.070
812.57	0.070
812.76	0.070
812.94	0.070
813.13	0.070
813.31	0.070
813.50	0.070
813.68	0.070
813.87	0.070
814.06	0.070
814.24	0.070
814.43	0.070
814.61	0.070
814.80	0.070
814.98	0.070
815.17	0.070
815.36	0.070
815.54	0.070
815.73	0.070
815.91	0.070
816.10	0.070
816.28	0.070
816.47	0.070
816.65	0.070
816.84	0.070
817.03	0.071
817.21	0.071
817.40	0.071
817.58	0.070
817.77	0.071
817.95	0.070
818.14	0.071
818.32	0.071
818.51	0.070
818.69	0.070
818.88	0.070
819.06	0.070
819.25	0.070
819.43	0.070
819.62	0.070
819.80	0.070
819.99	0.070
820.18	0.070
820.36	0.070
820.55	0.070
820.73	0.070
820.92	0.070
821.10	0.070
821.29	0.070
821.47	0.070
821.66	0.070
821.84	0.070
822.03	0.070
822.21	0.070
822.40	0.070
822.58	0.070
822.77	0.070
822.95	0.071
823.14	0.071
823.32	0.071
823.50	0.072
823.69	0.071
823.87	0.071
824.06	0.072
824.24	0.072
824.43	0.072
824.61	0.072
824.80	0.072
824.98	0.072
825.17	0.073
825.35	0.072
825.54	0.072
825.72	0.072
825.91	0.072
826.09	0.072
826.28	0.071
826.46	0.072
826.64	0.072
826.83	0.072
827.01	0.072
827.20	0.072
827.38	0.072
827.57	0.072
827.75	0.072
827.94	0.072
828.12	0.072
828.31	0.072
828.49	0.073
828.67	0.073
828.86	0.073
829.04	0.073
829.23	0.073
829.41	0.073
829.60	0.073
829.78	0.074
829.96	0.074
830.15	0.075
830.33	0.075
830.52	0.075
830.70	0.075
830.88	0.075
831.07	0.075
831.25	0.075
831.44	0.075
831.62	0.075
831.81	0.075
831.99	0.074
832.17	0.074
832.36	0.075
832.54	0.075
832.73	0.075
832.91	0.075
833.09	0.074
833.28	0.074
833.46	0.075
833.65	0.075
833.83	0.076
834.01	0.076
834.20	0.076
834.38	0.075
834.56	0.076
834.75	0.076
834.93	0.076
835.12	0.076
835.30	0.076
835.48	0.076
835.67	0.076
835.85	0.076
836.03	0.076
836.22	0.076
836.40	0.076
836.59	0.076
836.77	0.076
836.95	0.077
837.14	0.077
837.32	0.076
837.50	0.076
837.69	0.076
837.87	0.076
838.05	0.076
838.24	0.076
838.42	0.076
838.60	0.076
838.79	0.077
838.97	0.076
839.15	0.077
839.34	0.077
839.52	0.077
839.70	0.077
839.89	0.077
840.07	0.077
840.25	0.077
840.44	0.077
840.62	0.077
840.80	0.077
840.99	0.077
841.17	0.077
841.35	0.077
841.54	0.077
841.72	0.077
841.90	0.077
842.09	0.077
842.27	0.077
842.45	0.077
842.64	0.078
842.82	0.077
843.00	0.078
843.19	0.077
843.37	0.077
843.55	0.078
843.73	0.077
843.92	0.077
844.10	0.078
844.28	0.078
844.47	0.078
844.65	0.078
844.83	0.078
845.01	0.078
845.20	0.078
845.38	0.078
845.56	0.078
845.75	0.078
845.93	0.078
846.11	0.078
846.29	0.078
846.48	0.078
846.66	0.078
846.84	0.077
847.02	0.077
847.21	0.077
847.39	0.077
847.57	0.077
847.76	0.077
847.94	0.077
848.12	0.077
848.30	0.077
848.49	0.078
848.67	0.078
848.85	0.078
849.03	0.079
849.22	0.079
849.40	0.080
849.58	0.080
849.76	0.080
849.95	0.079
850.13	0.080
850.31	0.080
850.49	0.080
850.67	0.079
850.86	0.079
851.04	0.079
851.22	0.079
851.40	0.078
851.59	0.078
851.77	0.078
851.95	0.078
852.13	0.078
852.31	0.078
852.50	0.079
852.68	0.079
852.86	0.079
853.04	0.079
853.23	0.079
853.41	0.078
853.59	0.078
853.77	0.078
853.95	0.078
854.14	0.078
854.32	0.078
854.50	0.078
854.68	0.078
854.86	0.078
855.04	0.078
855.23	0.078
855.41	0.079
855.59	0.079
855.77	0.079
855.95	0.080
856.14	0.079
856.32	0.079
856.50	0.079
856.68	0.079
856.86	0.079
857.04	0.079
857.23	0.079
857.41	0.078
857.59	0.078
857.77	0.078
857.95	0.078
858.13	0.079
858.32	0.079
858.50	0.079
858.68	0.079
858.86	0.079
859.04	0.079
859.22	0.079
859.41	0.079
859.59	0.079
859.77	0.079
859.95	0.079
860.13	0.079
860.31	0.079
860.49	0.078
860.68	0.079
860.86	0.079
861.04	0.079
861.22	0.079
861.40	0.079
861.58	0.079
861.76	0.079
861.94	0.079
862.13	0.079
862.31	0.079
862.49	0.079
862.67	0.079
862.85	0.080
863.03	0.080
863.21	0.080
863.39	0.080
863.57	0.080
863.76	0.080
863.94	0.080
864.12	0.080
864.30	0.079
864.48	0.079
864.66	0.079
864.84	0.080
865.02	0.080
865.20	0.080
865.38	0.080
865.57	0.080
865.75	0.080
865.93	0.081
866.11	0.081
866.29	0.081
866.47	0.081
866.65	0.081
866.83	0.081
867.01	0.081
867.19	0.081
867.37	0.081
867.55	0.081
867.73	0.081
867.92	0.081
868.10	0.081
868.28	0.081
868.46	0.081
868.64	0.081
868.82	0.081
869.00	0.081
869.18	0.081
869.36	0.081
869.54	0.081
869.72	0.081
869.90	0.081
870.08	0.081
870.26	0.081
870.44	0.081
870.62	0.081
870.80	0.081
870.98	0.081
871.16	0.081
871.34	0.080
871.53	0.081
871.71	0.081
871.89	0.081
872.07	0.081
872.25	0.081
872.43	0.081
872.61	0.081
872.79	0.081
872.97	0.081
873.15	0.081
873.33	0.082
873.51	0.082
873.69	0.082
873.87	0.082
874.05	0.082
874.23	0.082
874.41	0.082
874.59	0.083
874.77	0.082
874.95	0.082
875.13	0.082
875.31	0.082
875.49	0.082
875.67	0.082
875.85	0.082
876.03	0.083
876.21	0.083
876.39	0.083
876.57	0.083
876.75	0.083
876.93	0.083
877.11	0.083
877.29	0.083
877.47	0.083
877.65	0.083
877.82	0.084
878.00	0.083
878.18	0.084
878.36	0.083
878.54	0.083
878.72	0.083
878.90	0.083
879.08	0.083
879.26	0.083
879.44	0.083
879.62	0.083
879.80	0.083
879.98	0.083
880.16	0.083
880.34	0.083
880.52	0.083
880.70	0.083
880.88	0.083
881.06	0.083
881.24	0.083
881.42	0.083
881.59	0.083
881.77	0.082
881.95	0.083
882.13	0.083
882.31	0.083
882.49	0.083
882.67	0.084
882.85	0.083
883.03	0.084
883.21	0.084
883.39	0.084
883.57	0.084
883.75	0.085
883.92	0.084
884.10	0.085
884.28	0.084
884.46	0.084
884.64	0.084
884.82	0.084
885.00	0.084
885.18	0.084
885.36	0.084
885.54	0.084
885.71	0.084
885.89	0.085
886.07	0.085
886.25	0.085
886.43	0.085
886.61	0.084
886.79	0.084
886.97	0.084
887.15	0.084
887.32	0.084
887.50	0.084
887.68	0.084
887.86	0.084
888.04	0.084
888.22	0.084
888.40	0.084
888.57	0.084
888.75	0.084
888.93	0.084
889.11	0.084
889.29	0.085
889.47	0.085
889.65	0.085
889.82	0.085
890.00	0.085
890.18	0.085
890.36	0.085
890.54	0.086
890.72	0.086
890.90	0.086
891.07	0.086
891.25	0.086
891.43	0.085
891.61	0.086
891.79	0.086
891.97	0.085
892.14	0.085
892.32	0.085
892.50	0.085
892.68	0.085
892.86	0.086
893.03	0.085
893.21	0.085
893.39	0.086
893.57	0.086
893.75	0.086
893.93	0.086
894.10	0.086
894.28	0.086
894.46	0.086
894.64	0.086
894.82	0.086
894.99	0.086
895.17	0.086
895.35	0.086
895.53	0.086
895.71	0.086
895.88	0.086
896.06	0.087
896.24	0.087
896.42	0.087
896.59	0.087
896.77	0.087
896.95	0.087
897.13	0.087
897.31	0.087
897.48	0.087
897.66	0.087
897.84	0.087
898.02	0.087
898.19	0.087
898.37	0.087
898.55	0.088
898.73	0.088
898.91	0.088
899.08	0.088
899.26	0.088
899.44	0.088
899.62	0.088
899.79	0.088
899.97	0.088
900.15	0.088
900.33	0.088
900.50	0.087
900.68	0.087
900.86	0.087
901.04	0.088
901.21	0.088
901.39	0.087
901.57	0.087
901.74	0.087
901.92	0.088
902.10	0.088
902.28	0.088
902.45	0.088
902.63	0.088
902.81	0.088
902.99	0.088
903.16	0.088
903.34	0.088
903.52	0.089
903.69	0.089
903.87	0.088
904.05	0.089
904.22	0.089
904.40	0.089
904.58	0.089
904.76	0.090
904.93	0.090
905.11	0.090
905.29	0.090
905.46	0.090
905.64	0.090
905.82	0.090
905.99	0.090
906.17	0.090
906.35	0.090
906.53	0.090
906.70	0.090
906.88	0.090
907.06	0.090
907.23	0.090
907.41	0.090
907.59	0.090
907.76	0.090
907.94	0.090
908.12	0.090
908.29	0.090
908.47	0.090
908.65	0.091
908.82	0.090
909.00	0.090
909.18	0.091
909.35	0.091
909.53	0.091
909.71	0.091
909.88	0.091
910.06	0.091
910.23	0.091
910.41	0.091
910.59	0.091
910.76	0.091
910.94	0.091
911.12	0.091
911.29	0.091
911.47	0.091
911.65	0.091
911.82	0.091
912.00	0.092
912.17	0.091
912.35	0.092
912.53	0.092
912.70	0.092
912.88	0.093
913.06	0.093
913.23	0.093
913.41	0.093
913.58	0.094
913.76	0.094
913.94	0.094
914.11	0.094
914.29	0.094
914.46	0.094
914.64	0.094
914.82	0.094
914.99	0.094
915.17	0.094
915.34	0.094
915.52	0.094
915.70	0.094
915.87	0.094
916.05	0.094
916.22	0.094
916.40	0.094
916.57	0.094
916.75	0.095
916.93	0.095
917.10	0.095
917.28	0.095
917.45	0.095
917.63	0.095
917.80	0.095
917.98	0.096
918.16	0.096
918.33	0.097
918.51	0.097
918.68	0.097
918.86	0.097
919.03	0.097
919.21	0.097
919.39	0.098
919.56	0.098
919.74	0.099
919.91	0.098
920.09	0.099
920.26	0.098
920.44	0.099
920.61	0.098
920.79	0.099
920.96	0.099
921.14	0.099
921.31	0.099
921.49	0.099
921.67	0.100
921.84	0.100
922.02	0.100
922.19	0.100
922.37	0.100
922.54	0.101
922.72	0.101
922.89	0.101
923.07	0.101
923.24	0.102
923.42	0.102
923.59	0.102
923.77	0.103
923.94	0.103
924.12	0.104
924.29	0.104
924.47	0.104
924.64	0.105
924.82	0.105
924.99	0.106
925.17	0.106
925.34	0.106
925.52	0.106
925.69	0.106
925.87	0.107
926.04	0.107
926.22	0.107
926.39	0.107
926.57	0.107
926.74	0.108
926.91	0.108
927.09	0.108
927.26	0.108
927.44	0.108
927.61	0.109
927.79	0.109
927.96	0.110
928.14	0.110
928.31	0.110
928.49	0.110
928.66	0.111
928.84	0.112
929.01	0.112
929.18	0.112
929.36	0.113
929.53	0.113
929.71	0.114
929.88	0.114
930.06	0.114
930.23	0.115
930.41	0.115
930.58	0.116
930.75	0.116
930.93	0.116
931.10	0.116
931.28	0.117
931.45	0.117
931.63	0.118
931.80	0.118
931.97	0.119
932.15	0.119
932.32	0.119
932.50	0.120
932.67	0.120
932.84	0.121
933.02	0.122
933.19	0.122
933.37	0.123
933.54	0.123
933.71	0.123
933.89	0.124
934.06	0.124
934.24	0.125
934.41	0.125
934.58	0.125
934.76	0.126
934.93	0.126
935.11	0.126
935.28	0.127
935.45	0.127
935.63	0.128
935.80	0.128
935.98	0.129
936.15	0.129
936.32	0.130
936.50	0.130
936.67	0.131
936.84	0.131
937.02	0.132
937.19	0.133
937.36	0.133
937.54	0.133
937.71	0.134
937.89	0.134
938.06	0.135
938.23	0.135
938.41	0.136
938.58	0.136
938.75	0.137
938.93	0.138
939.10	0.138
939.27	0.138
939.45	0.139
939.62	0.140
939.79	0.140
939.97	0.140
940.14	0.141
940.31	0.142
940.49	0.143
940.66	0.143
940.83	0.144
941.01	0.144
941.18	0.146
941.35	0.146
941.53	0.146
941.70	0.147
941.87	0.148
942.05	0.148
942.22	0.149
942.39	0.150
942.57	0.150
942.74	0.151
942.91	0.151
943.08	0.152
943.26	0.152
943.43	0.153
943.60	0.153
943.78	0.154
943.95	0.155
944.12	0.155
944.29	0.156
944.47	0.156
944.64	0.158
944.81	0.159
944.99	0.159
945.16	0.160
945.33	0.160
945.50	0.161
945.68	0.162
945.85	0.162
946.02	0.164
946.20	0.165
946.37	0.166
946.54	0.166
946.71	0.167
946.89	0.168
947.06	0.168
947.23	0.169
947.40	0.171
947.58	0.171
947.75	0.172
947.92	0.173
948.09	0.173
948.27	0.174
948.44	0.176
948.61	0.177
948.78	0.178
948.96	0.180
949.13	0.180
949.30	0.181
949.47	0.182
949.65	0.183
949.82	0.185
949.99	0.186
950.16	0.188
950.33	0.189
950.51	0.190
950.68	0.192
950.85	0.192
951.02	0.194
951.20	0.195
951.37	0.197
951.54	0.198
951.71	0.199
951.88	0.200
952.06	0.201
952.23	0.202
952.40	0.203
952.57	0.204
952.74	0.206
952.92	0.206
953.09	0.208
953.26	0.209
953.43	0.209
953.60	0.210
953.77	0.211
953.95	0.212
954.12	0.214
954.29	0.215
954.46	0.217
954.63	0.218
954.81	0.218
954.98	0.219
955.15	0.221
955.32	0.223
955.49	0.223
955.66	0.224
955.84	0.226
956.01	0.226
956.18	0.229
956.35	0.230
956.52	0.230
956.69	0.232
956.87	0.232
957.04	0.233
957.21	0.235
957.38	0.235
957.55	0.237
957.72	0.238
957.89	0.239
958.07	0.238
958.24	0.241
958.41	0.242
958.58	0.242
958.75	0.243
958.92	0.244
959.09	0.245
959.26	0.246
959.44	0.246
959.61	0.247
959.78	0.248
959.95	0.249
960.12	0.249
960.29	0.251
960.46	0.250
960.63	0.250
960.81	0.251
960.98	0.252
961.15	0.252
961.32	0.252
961.49	0.251
961.66	0.253
961.83	0.253
962.00	0.253
962.17	0.254
962.34	0.254
962.52	0.255
962.69	0.257
962.86	0.256
963.03	0.257
963.20	0.258
963.37	0.257
963.54	0.259
963.71	0.258
963.88	0.259
964.05	0.259
964.22	0.261
964.39	0.259
964.56	0.259
964.74	0.260
964.91	0.260
965.08	0.260
965.25	0.260
965.42	0.260
965.59	0.261
965.76	0.260
965.93	0.261
966.10	0.260
966.27	0.261
966.44	0.260
966.61	0.262
966.78	0.261
966.95	0.261
967.12	0.262
967.29	0.264
967.46	0.263
967.63	0.263
967.80	0.264
967.97	0.263
968.14	0.263
968.32	0.263
968.49	0.263
968.66	0.263
968.83	0.264
969.00	0.264
969.17	0.263
969.34	0.264
969.51	0.265
969.68	0.264
969.85	0.264
970.02	0.265
970.19	0.265
970.36	0.265
970.53	0.265
970.70	0.264
970.87	0.264
971.04	0.264
971.21	0.265
971.38	0.264
971.55	0.264
971.72	0.265
971.89	0.266
972.06	0.265
972.23	0.265
972.40	0.265
972.57	0.264
972.74	0.264
972.91	0.266
973.07	0.266
973.24	0.266
973.41	0.267
973.58	0.265
973.75	0.278
973.92	0.265
974.09	0.265
974.26	0.265
974.43	0.264
974.60	0.265
974.77	0.265
974.94	0.264
975.11	0.265
975.28	0.265
975.45	0.263
975.62	0.264
975.79	0.266
975.96	0.264
976.13	0.263
976.30	0.265
976.47	0.263
976.64	0.264
976.80	0.264
976.97	0.264
977.14	0.264
977.31	0.264
977.48	0.264
977.65	0.263
977.82	0.262
977.99	0.264
978.16	0.263
978.33	0.263
978.50	0.262
978.67	0.262
978.83	0.262
979.00	0.262
979.17	0.261
979.34	0.261
979.51	0.261
979.68	0.262
979.85	0.261
980.02	0.262
980.19	0.260
980.36	0.261
980.52	0.263
980.69	0.261
980.86	0.262
981.03	0.261
981.20	0.260
981.37	0.261
981.54	0.261
981.71	0.260
981.88	0.261
982.04	0.260
982.21	0.259
982.38	0.261
982.55	0.260
982.72	0.258
982.89	0.259
983.06	0.258
983.22	0.258
983.39	0.258
983.56	0.258
983.73	0.257
983.90	0.256
984.07	0.258
984.24	0.256
984.40	0.256
984.57	0.255
984.74	0.257
984.91	0.258
985.08	0.255
985.25	0.253
985.41	0.254
985.58	0.254
985.75	0.256
985.92	0.254
986.09	0.253
986.26	0.253
986.42	0.252
986.59	0.251
986.76	0.252
986.93	0.252
987.10	0.252
987.27	0.250
987.43	0.248
987.60	0.250
987.77	0.250
987.94	0.249
988.11	0.251
988.27	0.250
988.44	0.250
988.61	0.249
988.78	0.247
988.95	0.248
989.11	0.250
989.28	0.249
989.45	0.248
989.62	0.247
989.79	0.247
989.95	0.246
990.12	0.247
990.29	0.247
990.46	0.246
990.62	0.244
990.79	0.244
990.96	0.244
991.13	0.244
991.30	0.243
991.46	0.243
991.63	0.241
991.80	0.240
991.97	0.240
992.13	0.240
992.30	0.241
992.47	0.240
992.64	0.239
992.80	0.239
992.97	0.239
993.14	0.236
993.31	0.234
993.47	0.237
993.64	0.235
993.81	0.235
993.98	0.235
994.14	0.233
994.31	0.232
994.48	0.235
994.64	0.235
994.81	0.233
994.98	0.233
995.15	0.231
995.31	0.231
995.48	0.231
995.65	0.233
995.82	0.230
995.98	0.230
996.15	0.231
996.32	0.231
996.48	0.230
996.65	0.230
996.82	0.228
996.99	0.228
997.15	0.228
997.32	0.229
997.49	0.227
997.65	0.228
997.82	0.228
997.99	0.226
998.15	0.227
998.32	0.228
998.49	0.227
998.65	0.227
998.82	0.226
998.99	0.224
999.15	0.225
999.32	0.223
999.49	0.223
999.65	0.223
999.82	0.220
999.99	0.220
1000.15	0.220
1000.32	0.220
1000.49	0.221
1000.65	0.219
1000.82	0.218
1000.99	0.218
1001.15	0.218
1001.32	0.218
1001.49	0.218
1001.65	0.218
1001.82	0.221
1001.99	0.217
1002.15	0.217
1002.32	0.216
1002.49	0.217
1002.65	0.216
1002.82	0.215
1002.99	0.214
1003.15	0.216
1003.32	0.215
1003.48	0.216
1003.65	0.214
1003.82	0.213
1003.98	0.210
1004.15	0.210
1004.32	0.210
1004.48	0.211
1004.65	0.212
1004.81	0.210
1004.98	0.208
1005.15	0.209
1005.31	0.209
1005.48	0.208
1005.64	0.208
1005.81	0.211
1005.98	0.207
1006.14	0.207
1006.31	0.207
1006.47	0.206
1006.64	0.205
1006.81	0.204
1006.97	0.204
1007.14	0.203
1007.30	0.204
1007.47	0.203
1007.63	0.201
1007.80	0.200
1007.97	0.199
1008.13	0.200
1008.30	0.199
1008.46	0.199
1008.63	0.198
1008.79	0.199
1008.96	0.199
1009.13	0.201
1009.29	0.198
1009.46	0.197
1009.62	0.198
1009.79	0.196
1009.95	0.196
1010.12	0.196
1010.28	0.197
1010.45	0.196
1010.62	0.195
1010.78	0.194
1010.95	0.192
1011.11	0.193
1011.28	0.192
1011.44	0.194
1011.61	0.192
1011.77	0.191
1011.94	0.190
1012.10	0.190
1012.27	0.190
1012.43	0.189
1012.60	0.188
1012.76	0.188
1012.93	0.188
1013.10	0.186
1013.26	0.184
1013.43	0.185
1013.59	0.193
1013.76	0.186
1013.92	0.184
1014.09	0.183
1014.25	0.185
1014.42	0.186
1014.58	0.186
1014.75	0.188
1014.91	0.187
1015.08	0.189
1015.24	0.186
1015.41	0.187
1015.57	0.187
1015.73	0.186
1015.90	0.183
1016.06	0.185
1016.23	0.183
1016.39	0.183
1016.56	0.183
1016.72	0.182
1016.89	0.182
1017.05	0.183
1017.22	0.180
1017.38	0.180
1017.55	0.178
1017.71	0.180
1017.88	0.180
1018.04	0.179
1018.21	0.177
1018.37	0.176
1018.53	0.176
1018.70	0.174
1018.86	0.174
1019.03	0.177
1019.19	0.175
1019.36	0.175
1019.52	0.175
1019.69	0.176
1019.85	0.174
1020.01	0.175
1020.18	0.174
1020.34	0.174
1020.51	0.174
1020.67	0.174
1020.84	0.172
1021.00	0.173
1021.16	0.170
1021.33	0.171
1021.49	0.170
1021.66	0.170
1021.82	0.167
1021.98	0.167
1022.15	0.167
1022.31	0.167
1022.48	0.165
1022.64	0.167
1022.80	0.167
1022.97	0.165
1023.13	0.165
1023.30	0.166
1023.46	0.167
1023.62	0.165
1023.79	0.166
1023.95	0.166
1024.12	0.165
1024.28	0.164
1024.44	0.164
1024.61	0.162
1024.77	0.162
1024.93	0.161
1025.10	0.162
1025.26	0.160
1025.43	0.162
1025.59	0.157
1025.75	0.161
1025.92	0.160
1026.08	0.159
1026.24	0.158
1026.41	0.159
1026.57	0.157
1026.73	0.155
1026.90	0.157
1027.06	0.155
1027.23	0.155
1027.39	0.156
1027.55	0.155
1027.72	0.154
1027.88	0.154
1028.04	0.155
1028.21	0.155
1028.37	0.150
1028.53	0.155
1028.70	0.153
1028.86	0.152
1029.02	0.154
1029.19	0.154
1029.35	0.152
1029.51	0.153
1029.67	0.152
1029.84	0.154
1030.00	0.149
1030.16	0.150
1030.33	0.153
1030.49	0.149
1030.65	0.145
1030.82	0.161
1030.98	0.148
1031.14	0.148
1031.31	0.148
1031.47	0.146
1031.63	0.148
1031.79	0.147
1031.96	0.148
1032.12	0.149
1032.28	0.147
1032.45	0.152
1032.61	0.149
1032.77	0.148
1032.93	0.146
1033.10	0.147
1033.26	0.149
1033.42	0.147
1033.58	0.148
1033.75	0.148
1033.91	0.146
1034.07	0.149
1034.24	0.147
1034.40	0.145
1034.56	0.145
1034.72	0.146
1034.89	0.146
1035.05	0.144
1035.21	0.144
1035.37	0.142
1035.54	0.146
1035.70	0.143
1035.86	0.142
1036.02	0.144
1036.19	0.143
1036.35	0.141
1036.51	0.145
1036.67	0.143
1036.83	0.141
1037.00	0.140
1037.16	0.140
1037.32	0.140
1037.48	0.139
1037.65	0.144
1037.81	0.138
1037.97	0.138
1038.13	0.137
1038.29	0.135
1038.46	0.132
1038.62	0.137
1038.78	0.134
1038.94	0.132
1039.10	0.136
1039.27	0.132
1039.43	0.134
1039.59	0.135
1039.75	0.135
1039.91	0.134
1040.08	0.134
1040.24	0.138
1040.40	0.140
1040.56	0.139
1040.72	0.132
1040.89	0.136
1041.05	0.138
1041.21	0.135
1041.37	0.132
1041.53	0.139
1041.69	0.137
1041.86	0.135
1042.02	0.131
1042.18	0.130
1042.34	0.132
1042.50	0.136
1042.66	0.132
1042.83	0.131
1042.99	0.136
1043.15	0.132
1043.31	0.131
1043.47	0.136
1043.63	0.132
1043.79	0.133
1043.96	0.135
1044.12	0.138
1044.28	0.134
1044.44	0.138
1044.60	0.133
1044.76	0.130
1044.92	0.132
1045.09	0.134
1045.25	0.130
1045.41	0.132
1045.57	0.127
1045.73	0.128
1045.89	0.129
1046.05	0.131
1046.21	0.132
1046.38	0.134
1046.54	0.140
1046.70	0.125
1046.86	0.133
>>>>>End Processed Spectral Data<<<<<
