SpectraSuite Data File
++++++++++++++++++++++++++++++++++++
Date: Mon May 20 12:11:11 CDT 2013
User: Students
Dark Spectrum Present: Yes
Reference Spectrum Present: Yes
Number of Sampled Component Spectra: 1
Spectrometers: USB4H00887
Integration Time (usec): 60000 (USB4H00887)
Spectra Averaged: 5 (USB4H00887)
Boxcar Smoothing: 5 (USB4H00887)
Correct for Electrical Dark: No (USB4H00887)
Strobe/Lamp Enabled: No (USB4H00887)
Correct for Detector Non-linearity: No (USB4H00887)
Correct for Stray Light: No (USB4H00887)
Number of Pixels in Processed Spectrum: 3648
>>>>>Begin Processed Spectral Data<<<<<
345.83	0.344
346.05	0.344
346.26	0.344
346.48	-0.000
346.70	0.041
346.92	-0.014
347.14	0.035
347.35	0.050
347.57	0.361
347.79	-0.243
348.01	-0.148
348.23	-0.289
348.44	-0.000
348.66	0.191
348.88	-0.288
349.10	-0.138
349.32	0.072
349.53	0.017
349.75	0.057
349.97	0.038
350.19	0.048
350.41	0.036
350.62	-0.174
350.84	0.002
351.06	0.030
351.28	-0.017
351.50	-0.132
351.71	-0.066
351.93	-0.069
352.15	-0.021
352.37	-0.082
352.58	-0.000
352.80	0.011
353.02	0.033
353.24	0.067
353.46	0.280
353.67	-0.185
353.89	0.051
354.11	0.057
354.33	0.063
354.54	0.104
354.76	0.162
354.98	0.219
355.20	0.149
355.41	0.069
355.63	0.100
355.85	0.050
356.07	0.250
356.28	0.056
356.50	0.084
356.72	0.031
356.94	0.067
357.15	0.110
357.37	-0.000
357.59	0.100
357.81	0.051
358.02	0.105
358.24	0.076
358.46	0.179
358.68	0.147
358.89	0.085
359.11	-0.000
359.33	0.087
359.55	-0.553
359.76	0.129
359.98	0.142
360.20	0.161
360.42	0.150
360.63	0.168
360.85	0.117
361.07	0.855
361.29	0.116
361.50	0.395
361.72	0.139
361.94	0.778
362.15	0.241
362.37	0.137
362.59	0.147
362.81	0.235
363.02	0.430
363.24	0.885
363.46	0.325
363.68	0.357
363.89	0.187
364.11	0.236
364.33	0.288
364.54	0.173
364.76	0.200
364.98	0.177
365.20	0.181
365.41	0.116
365.63	0.154
365.85	0.115
366.06	0.470
366.28	0.508
366.50	0.384
366.71	0.131
366.93	0.173
367.15	0.156
367.37	0.145
367.58	0.183
367.80	0.193
368.02	0.454
368.23	0.151
368.45	0.148
368.67	0.158
368.88	0.131
369.10	-0.000
369.32	0.123
369.53	0.079
369.75	0.118
369.97	0.276
370.19	0.174
370.40	0.086
370.62	0.261
370.84	0.085
371.05	0.407
371.27	0.150
371.49	0.187
371.70	0.203
371.92	0.296
372.14	0.128
372.35	0.129
372.57	0.129
372.79	0.286
373.00	0.062
373.22	0.096
373.44	0.085
373.65	0.056
373.87	0.079
374.09	0.318
374.30	0.101
374.52	0.119
374.74	0.076
374.95	0.307
375.17	0.103
375.39	-0.000
375.60	0.114
375.82	0.199
376.04	0.085
376.25	0.095
376.47	0.061
376.68	0.120
376.90	0.073
377.12	0.213
377.33	0.144
377.55	0.320
377.77	0.177
377.98	0.290
378.20	0.157
378.42	0.198
378.63	0.243
378.85	-0.000
379.07	0.163
379.28	0.793
379.50	0.407
379.71	0.191
379.93	0.130
380.15	0.170
380.36	0.291
380.58	0.198
380.80	0.629
381.01	0.186
381.23	0.146
381.44	0.153
381.66	0.169
381.88	0.184
382.09	-0.085
382.31	0.133
382.53	0.151
382.74	0.919
382.96	0.209
383.17	0.172
383.39	0.220
383.61	0.304
383.82	0.214
384.04	0.268
384.25	0.361
384.47	0.348
384.69	0.351
384.90	0.294
385.12	0.602
385.33	0.367
385.55	0.272
385.77	0.440
385.98	0.199
386.20	0.275
386.41	0.232
386.63	0.237
386.85	0.203
387.06	0.240
387.28	0.371
387.49	0.277
387.71	0.196
387.93	0.173
388.14	0.558
388.36	0.231
388.57	0.219
388.79	0.247
389.01	-0.000
389.22	0.333
389.44	0.280
389.65	0.233
389.87	0.213
390.08	0.265
390.30	0.195
390.52	0.401
390.73	0.410
390.95	0.264
391.16	0.250
391.38	-0.000
391.59	0.296
391.81	0.245
392.03	0.224
392.24	0.260
392.46	0.221
392.67	0.207
392.89	0.271
393.10	0.414
393.32	0.283
393.53	0.315
393.75	0.188
393.97	0.217
394.18	0.317
394.40	0.283
394.61	0.304
394.83	0.267
395.04	0.312
395.26	0.203
395.47	0.304
395.69	0.254
395.91	0.280
396.12	0.333
396.34	0.311
396.55	0.195
396.77	0.300
396.98	1.492
397.20	0.382
397.41	0.447
397.63	0.309
397.84	0.279
398.06	0.266
398.27	0.271
398.49	0.336
398.71	0.261
398.92	0.324
399.14	0.414
399.35	0.488
399.57	0.454
399.78	0.292
400.00	0.300
400.21	0.383
400.43	0.315
400.64	0.332
400.86	0.761
401.07	0.377
401.29	0.322
401.50	0.355
401.72	0.530
401.93	0.324
402.15	0.399
402.36	0.357
402.58	0.294
402.79	0.316
403.01	0.530
403.22	0.423
403.44	0.294
403.65	0.461
403.87	0.503
404.08	0.393
404.30	0.661
404.51	0.354
404.73	0.438
404.94	0.365
405.16	0.389
405.37	0.296
405.59	0.539
405.80	0.325
406.02	0.413
406.23	0.400
406.45	0.458
406.66	0.485
406.88	0.316
407.09	0.472
407.31	0.377
407.52	0.460
407.74	0.381
407.95	0.467
408.17	0.426
408.38	0.442
408.60	0.287
408.81	0.476
409.03	0.360
409.24	0.356
409.45	0.421
409.67	0.410
409.88	0.366
410.10	0.459
410.31	0.372
410.53	0.361
410.74	0.515
410.96	0.511
411.17	0.533
411.39	0.408
411.60	0.368
411.82	0.426
412.03	0.410
412.24	0.393
412.46	0.595
412.67	0.480
412.89	0.481
413.10	0.474
413.32	0.439
413.53	0.518
413.75	0.537
413.96	0.405
414.17	0.554
414.39	0.550
414.60	0.453
414.82	0.593
415.03	0.468
415.25	0.511
415.46	0.349
415.68	0.490
415.89	0.911
416.10	0.712
416.32	0.384
416.53	0.459
416.75	0.446
416.96	0.538
417.18	0.470
417.39	0.433
417.60	0.440
417.82	0.666
418.03	0.575
418.25	0.487
418.46	0.511
418.67	0.463
418.89	0.497
419.10	0.518
419.32	0.716
419.53	0.630
419.75	0.533
419.96	0.459
420.17	0.555
420.39	0.530
420.60	0.546
420.82	0.686
421.03	0.554
421.24	0.454
421.46	0.500
421.67	0.544
421.89	0.468
422.10	0.507
422.31	0.504
422.53	0.758
422.74	0.527
422.96	0.416
423.17	0.460
423.38	0.550
423.60	0.467
423.81	0.581
424.03	0.500
424.24	0.564
424.45	0.570
424.67	0.571
424.88	0.504
425.09	0.562
425.31	0.523
425.52	0.551
425.74	0.639
425.95	0.710
426.16	0.540
426.38	0.635
426.59	0.570
426.80	0.654
427.02	0.676
427.23	0.532
427.45	0.695
427.66	0.678
427.87	0.519
428.09	0.549
428.30	0.604
428.51	0.586
428.73	0.629
428.94	0.564
429.15	0.556
429.37	0.538
429.58	0.556
429.79	0.516
430.01	0.626
430.22	0.624
430.44	0.650
430.65	0.577
430.86	0.618
431.08	0.622
431.29	0.559
431.50	0.662
431.72	0.906
431.93	0.720
432.14	0.535
432.36	0.584
432.57	0.590
432.78	0.610
433.00	0.564
433.21	0.563
433.42	0.708
433.64	0.613
433.85	0.705
434.06	0.570
434.28	0.601
434.49	0.621
434.70	0.635
434.92	0.656
435.13	0.698
435.34	0.714
435.56	0.659
435.77	0.643
435.98	0.848
436.20	0.700
436.41	0.594
436.62	0.579
436.83	0.656
437.05	0.748
437.26	0.644
437.47	0.579
437.69	0.636
437.90	0.586
438.11	0.575
438.33	0.627
438.54	0.644
438.75	0.835
438.97	0.828
439.18	0.614
439.39	0.641
439.60	0.703
439.82	0.649
440.03	0.596
440.24	0.897
440.46	0.659
440.67	0.631
440.88	0.680
441.10	0.633
441.31	0.630
441.52	0.686
441.73	0.782
441.95	0.686
442.16	0.634
442.37	1.038
442.58	0.625
442.80	0.617
443.01	0.822
443.22	0.737
443.44	0.623
443.65	0.744
443.86	0.739
444.07	0.793
444.29	0.680
444.50	0.892
444.71	0.661
444.92	0.609
445.14	0.785
445.35	0.842
445.56	0.657
445.78	0.772
445.99	0.767
446.20	0.658
446.41	0.746
446.63	0.735
446.84	0.693
447.05	0.692
447.26	0.838
447.48	0.701
447.69	0.655
447.90	0.739
448.11	0.657
448.33	0.689
448.54	0.708
448.75	0.736
448.96	0.758
449.18	0.795
449.39	0.707
449.60	0.692
449.81	0.832
450.03	0.720
450.24	0.784
450.45	0.734
450.66	0.714
450.87	0.742
451.09	0.695
451.30	0.668
451.51	0.747
451.72	0.759
451.94	0.783
452.15	0.867
452.36	0.716
452.57	0.737
452.78	0.742
453.00	0.774
453.21	0.731
453.42	0.702
453.63	0.814
453.85	0.770
454.06	0.761
454.27	0.904
454.48	0.797
454.69	0.725
454.91	0.809
455.12	0.701
455.33	0.790
455.54	0.802
455.75	0.769
455.97	0.790
456.18	0.779
456.39	0.790
456.60	0.818
456.81	0.750
457.03	0.753
457.24	0.748
457.45	0.838
457.66	0.781
457.87	0.737
458.09	0.760
458.30	0.678
458.51	0.811
458.72	0.838
458.93	0.849
459.15	0.741
459.36	0.814
459.57	0.840
459.78	0.892
459.99	0.794
460.20	0.755
460.42	0.844
460.63	0.793
460.84	0.775
461.05	0.796
461.26	0.859
461.47	0.771
461.69	0.824
461.90	0.864
462.11	0.816
462.32	0.876
462.53	0.815
462.74	0.925
462.96	0.792
463.17	0.779
463.38	0.824
463.59	0.947
463.80	0.782
464.01	0.809
464.23	0.908
464.44	0.862
464.65	0.873
464.86	0.891
465.07	0.894
465.28	0.856
465.49	0.876
465.71	0.820
465.92	0.859
466.13	0.905
466.34	0.831
466.55	0.882
466.76	0.849
466.97	0.880
467.19	0.871
467.40	0.910
467.61	0.911
467.82	0.830
468.03	0.814
468.24	0.886
468.45	0.922
468.66	0.904
468.88	0.906
469.09	0.902
469.30	0.942
469.51	0.865
469.72	0.907
469.93	0.875
470.14	0.848
470.35	0.942
470.57	0.895
470.78	0.834
470.99	0.973
471.20	0.915
471.41	0.872
471.62	0.933
471.83	0.901
472.04	0.934
472.25	0.986
472.47	0.892
472.68	0.899
472.89	0.901
473.10	0.944
473.31	0.887
473.52	0.952
473.73	0.974
473.94	0.890
474.15	0.917
474.36	0.922
474.57	0.949
474.79	0.926
475.00	0.926
475.21	0.912
475.42	1.019
475.63	0.913
475.84	0.948
476.05	0.956
476.26	0.919
476.47	0.957
476.68	1.007
476.89	0.927
477.10	0.975
477.32	0.962
477.53	1.025
477.74	0.932
477.95	0.975
478.16	0.922
478.37	0.970
478.58	0.979
478.79	0.993
479.00	0.995
479.21	0.948
479.42	0.999
479.63	1.004
479.84	0.957
480.05	0.959
480.26	0.992
480.47	1.010
480.69	1.009
480.90	0.966
481.11	0.962
481.32	1.028
481.53	0.962
481.74	1.020
481.95	0.982
482.16	1.004
482.37	1.012
482.58	0.974
482.79	0.991
483.00	1.023
483.21	0.963
483.42	0.937
483.63	1.022
483.84	1.049
484.05	1.031
484.26	1.001
484.47	1.000
484.68	0.958
484.89	0.968
485.10	1.025
485.31	0.999
485.52	1.005
485.73	1.003
485.94	1.047
486.15	0.993
486.37	1.015
486.58	0.972
486.79	0.988
487.00	1.045
487.21	1.031
487.42	1.022
487.63	1.030
487.84	1.051
488.05	1.047
488.26	1.001
488.47	1.007
488.68	1.036
488.89	1.012
489.10	1.005
489.31	1.015
489.52	1.054
489.73	1.019
489.94	1.056
490.15	1.009
490.36	1.055
490.57	1.005
490.78	0.986
490.99	1.027
491.20	1.114
491.41	1.064
491.62	1.002
491.83	1.033
492.04	1.030
492.25	1.039
492.45	1.041
492.66	1.067
492.87	1.051
493.08	1.042
493.29	1.024
493.50	1.014
493.71	1.020
493.92	1.014
494.13	1.031
494.34	1.053
494.55	1.061
494.76	1.093
494.97	1.085
495.18	1.047
495.39	1.062
495.60	1.010
495.81	1.009
496.02	1.036
496.23	1.030
496.44	1.065
496.65	1.055
496.86	1.060
497.07	1.086
497.28	1.080
497.49	1.026
497.70	1.025
497.91	1.047
498.12	1.027
498.32	1.072
498.53	1.052
498.74	1.042
498.95	1.071
499.16	1.020
499.37	1.029
499.58	1.040
499.79	1.072
500.00	1.066
500.21	1.099
500.42	1.036
500.63	1.037
500.84	1.061
501.05	1.037
501.26	1.064
501.46	1.109
501.67	1.063
501.88	1.066
502.09	1.039
502.30	1.047
502.51	1.099
502.72	1.053
502.93	1.069
503.14	1.091
503.35	1.059
503.56	1.054
503.77	1.088
503.97	1.064
504.18	1.061
504.39	1.100
504.60	1.065
504.81	1.098
505.02	1.085
505.23	1.086
505.44	1.069
505.65	1.080
505.86	1.057
506.07	1.133
506.27	1.086
506.48	1.090
506.69	1.072
506.90	1.095
507.11	1.088
507.32	1.064
507.53	1.071
507.74	1.058
507.95	1.068
508.15	1.076
508.36	1.081
508.57	1.092
508.78	1.076
508.99	1.077
509.20	1.049
509.41	1.077
509.62	1.062
509.82	1.059
510.03	1.074
510.24	1.076
510.45	1.102
510.66	1.091
510.87	1.087
511.08	1.043
511.29	1.086
511.49	1.063
511.70	1.116
511.91	1.041
512.12	1.039
512.33	1.073
512.54	1.093
512.75	1.071
512.95	1.100
513.16	1.089
513.37	1.063
513.58	1.105
513.79	1.065
514.00	1.069
514.20	1.090
514.41	1.078
514.62	1.042
514.83	1.086
515.04	1.078
515.25	1.054
515.46	1.067
515.66	1.070
515.87	1.086
516.08	1.050
516.29	1.078
516.50	1.057
516.71	1.050
516.91	1.061
517.12	1.079
517.33	1.061
517.54	1.050
517.75	1.055
517.95	1.068
518.16	1.080
518.37	1.045
518.58	1.051
518.79	1.023
519.00	1.058
519.20	1.071
519.41	1.041
519.62	1.063
519.83	1.071
520.04	1.031
520.24	1.030
520.45	1.039
520.66	1.068
520.87	1.027
521.08	1.025
521.28	1.028
521.49	1.044
521.70	1.012
521.91	1.029
522.12	1.011
522.32	1.036
522.53	1.015
522.74	1.003
522.95	1.012
523.16	1.014
523.36	1.024
523.57	1.004
523.78	0.998
523.99	1.003
524.20	0.995
524.40	1.008
524.61	1.014
524.82	0.985
525.03	0.991
525.23	0.992
525.44	0.973
525.65	0.974
525.86	0.999
526.06	0.969
526.27	0.970
526.48	0.979
526.69	0.958
526.90	0.963
527.10	1.001
527.31	0.952
527.52	0.944
527.73	0.938
527.93	0.947
528.14	0.952
528.35	0.943
528.56	0.943
528.76	0.936
528.97	0.927
529.18	0.918
529.39	0.918
529.59	0.921
529.80	0.955
530.01	0.926
530.22	0.925
530.42	0.891
530.63	0.909
530.84	0.883
531.05	0.897
531.25	0.901
531.46	0.893
531.67	0.870
531.88	0.891
532.08	0.884
532.29	0.879
532.50	0.871
532.70	0.863
532.91	0.854
533.12	0.858
533.33	0.885
533.53	0.854
533.74	0.852
533.95	0.858
534.15	0.845
534.36	0.845
534.57	0.825
534.78	0.827
534.98	0.838
535.19	0.809
535.40	0.811
535.60	0.830
535.81	0.808
536.02	0.812
536.23	0.804
536.43	0.806
536.64	0.792
536.85	0.801
537.05	0.810
537.26	0.787
537.47	0.788
537.67	0.775
537.88	0.770
538.09	0.778
538.30	0.767
538.50	0.758
538.71	0.769
538.92	0.756
539.12	0.752
539.33	0.747
539.54	0.747
539.74	0.751
539.95	0.742
540.16	0.739
540.36	0.729
540.57	0.728
540.78	0.719
540.98	0.718
541.19	0.715
541.40	0.703
541.60	0.713
541.81	0.707
542.02	0.707
542.22	0.696
542.43	0.690
542.64	0.685
542.84	0.685
543.05	0.677
543.26	0.676
543.46	0.680
543.67	0.678
543.88	0.673
544.08	0.662
544.29	0.655
544.50	0.656
544.70	0.657
544.91	0.648
545.12	0.649
545.32	0.644
545.53	0.648
545.74	0.636
545.94	0.633
546.15	0.630
546.35	0.627
546.56	0.625
546.77	0.622
546.97	0.619
547.18	0.610
547.39	0.610
547.59	0.607
547.80	0.603
548.01	0.608
548.21	0.603
548.42	0.595
548.62	0.594
548.83	0.591
549.04	0.586
549.24	0.579
549.45	0.579
549.65	0.575
549.86	0.570
550.07	0.569
550.27	0.566
550.48	0.574
550.69	0.559
550.89	0.559
551.10	0.554
551.30	0.552
551.51	0.551
551.72	0.541
551.92	0.543
552.13	0.543
552.33	0.543
552.54	0.537
552.75	0.530
552.95	0.532
553.16	0.527
553.36	0.525
553.57	0.524
553.78	0.521
553.98	0.521
554.19	0.512
554.39	0.509
554.60	0.513
554.80	0.511
555.01	0.504
555.22	0.506
555.42	0.503
555.63	0.495
555.83	0.498
556.04	0.491
556.25	0.494
556.45	0.486
556.66	0.483
556.86	0.486
557.07	0.484
557.27	0.482
557.48	0.476
557.68	0.473
557.89	0.474
558.10	0.471
558.30	0.468
558.51	0.465
558.71	0.462
558.92	0.458
559.12	0.460
559.33	0.463
559.54	0.458
559.74	0.453
559.95	0.451
560.15	0.450
560.36	0.448
560.56	0.443
560.77	0.443
560.97	0.443
561.18	0.438
561.38	0.436
561.59	0.440
561.79	0.435
562.00	0.433
562.21	0.430
562.41	0.429
562.62	0.427
562.82	0.425
563.03	0.421
563.23	0.421
563.44	0.420
563.64	0.417
563.85	0.418
564.05	0.411
564.26	0.410
564.46	0.409
564.67	0.409
564.87	0.405
565.08	0.401
565.28	0.401
565.49	0.402
565.69	0.399
565.90	0.396
566.10	0.398
566.31	0.392
566.51	0.394
566.72	0.395
566.92	0.389
567.13	0.388
567.33	0.387
567.54	0.385
567.74	0.384
567.95	0.380
568.15	0.381
568.36	0.380
568.56	0.378
568.77	0.372
568.97	0.370
569.18	0.370
569.38	0.369
569.59	0.370
569.79	0.368
570.00	0.365
570.20	0.364
570.41	0.362
570.61	0.360
570.82	0.362
571.02	0.358
571.23	0.359
571.43	0.355
571.64	0.354
571.84	0.353
572.05	0.351
572.25	0.350
572.45	0.348
572.66	0.345
572.86	0.344
573.07	0.342
573.27	0.342
573.48	0.341
573.68	0.337
573.89	0.337
574.09	0.338
574.30	0.336
574.50	0.334
574.70	0.336
574.91	0.333
575.11	0.332
575.32	0.332
575.52	0.328
575.73	0.328
575.93	0.328
576.14	0.326
576.34	0.324
576.54	0.322
576.75	0.321
576.95	0.319
577.16	0.317
577.36	0.316
577.57	0.316
577.77	0.314
577.97	0.311
578.18	0.313
578.38	0.310
578.59	0.308
578.79	0.307
579.00	0.308
579.20	0.306
579.40	0.306
579.61	0.305
579.81	0.304
580.02	0.301
580.22	0.301
580.42	0.300
580.63	0.300
580.83	0.298
581.04	0.296
581.24	0.295
581.45	0.293
581.65	0.293
581.85	0.291
582.06	0.289
582.26	0.289
582.47	0.287
582.67	0.287
582.87	0.286
583.08	0.283
583.28	0.283
583.48	0.282
583.69	0.279
583.89	0.279
584.10	0.280
584.30	0.278
584.50	0.277
584.71	0.277
584.91	0.276
585.12	0.274
585.32	0.275
585.52	0.273
585.73	0.272
585.93	0.272
586.13	0.271
586.34	0.270
586.54	0.269
586.75	0.267
586.95	0.266
587.15	0.266
587.36	0.265
587.56	0.264
587.76	0.262
587.97	0.261
588.17	0.260
588.37	0.260
588.58	0.259
588.78	0.256
588.98	0.257
589.19	0.255
589.39	0.253
589.60	0.255
589.80	0.252
590.00	0.252
590.21	0.252
590.41	0.250
590.61	0.249
590.82	0.249
591.02	0.249
591.22	0.247
591.43	0.247
591.63	0.246
591.83	0.246
592.04	0.244
592.24	0.245
592.44	0.242
592.65	0.241
592.85	0.242
593.05	0.242
593.26	0.240
593.46	0.240
593.66	0.240
593.86	0.239
594.07	0.237
594.27	0.237
594.47	0.236
594.68	0.235
594.88	0.235
595.08	0.234
595.29	0.234
595.49	0.232
595.69	0.231
595.90	0.230
596.10	0.230
596.30	0.229
596.50	0.228
596.71	0.228
596.91	0.228
597.11	0.227
597.32	0.227
597.52	0.226
597.72	0.225
597.93	0.225
598.13	0.224
598.33	0.224
598.53	0.224
598.74	0.223
598.94	0.222
599.14	0.222
599.35	0.221
599.55	0.221
599.75	0.220
599.95	0.219
600.16	0.219
600.36	0.217
600.56	0.217
600.76	0.216
600.97	0.214
601.17	0.214
601.37	0.214
601.58	0.213
601.78	0.213
601.98	0.212
602.18	0.211
602.39	0.211
602.59	0.211
602.79	0.210
602.99	0.210
603.20	0.209
603.40	0.209
603.60	0.209
603.80	0.208
604.01	0.208
604.21	0.208
604.41	0.207
604.61	0.206
604.82	0.206
605.02	0.206
605.22	0.205
605.42	0.205
605.62	0.204
605.83	0.203
606.03	0.202
606.23	0.202
606.43	0.201
606.64	0.201
606.84	0.200
607.04	0.200
607.24	0.200
607.45	0.200
607.65	0.198
607.85	0.199
608.05	0.197
608.25	0.197
608.46	0.197
608.66	0.197
608.86	0.196
609.06	0.195
609.26	0.194
609.47	0.194
609.67	0.193
609.87	0.194
610.07	0.193
610.28	0.192
610.48	0.192
610.68	0.192
610.88	0.191
611.08	0.191
611.29	0.190
611.49	0.190
611.69	0.191
611.89	0.189
612.09	0.189
612.29	0.188
612.50	0.188
612.70	0.188
612.90	0.186
613.10	0.185
613.30	0.185
613.51	0.185
613.71	0.184
613.91	0.188
614.11	0.184
614.31	0.183
614.51	0.183
614.72	0.182
614.92	0.182
615.12	0.182
615.32	0.183
615.52	0.182
615.72	0.182
615.93	0.182
616.13	0.181
616.33	0.181
616.53	0.181
616.73	0.181
616.93	0.180
617.14	0.181
617.34	0.181
617.54	0.181
617.74	0.180
617.94	0.179
618.14	0.179
618.34	0.178
618.55	0.178
618.75	0.178
618.95	0.177
619.15	0.177
619.35	0.176
619.55	0.176
619.75	0.176
619.96	0.175
620.16	0.176
620.36	0.176
620.56	0.175
620.76	0.175
620.96	0.175
621.16	0.175
621.36	0.175
621.57	0.175
621.77	0.174
621.97	0.173
622.17	0.173
622.37	0.173
622.57	0.173
622.77	0.172
622.97	0.171
623.18	0.171
623.38	0.171
623.58	0.170
623.78	0.170
623.98	0.170
624.18	0.169
624.38	0.169
624.58	0.168
624.78	0.169
624.98	0.169
625.19	0.168
625.39	0.168
625.59	0.168
625.79	0.168
625.99	0.168
626.19	0.168
626.39	0.167
626.59	0.168
626.79	0.168
626.99	0.167
627.19	0.167
627.40	0.167
627.60	0.167
627.80	0.166
628.00	0.166
628.20	0.165
628.40	0.165
628.60	0.165
628.80	0.163
629.00	0.163
629.20	0.163
629.40	0.163
629.60	0.161
629.80	0.162
630.00	0.162
630.20	0.162
630.41	0.161
630.61	0.161
630.81	0.160
631.01	0.161
631.21	0.160
631.41	0.160
631.61	0.161
631.81	0.160
632.01	0.160
632.21	0.160
632.41	0.159
632.61	0.159
632.81	0.158
633.01	0.159
633.21	0.158
633.41	0.159
633.61	0.158
633.81	0.157
634.01	0.156
634.21	0.156
634.41	0.156
634.61	0.156
634.81	0.156
635.01	0.155
635.22	0.156
635.42	0.155
635.62	0.155
635.82	0.155
636.02	0.155
636.22	0.155
636.42	0.155
636.62	0.155
636.82	0.154
637.02	0.154
637.22	0.154
637.42	0.154
637.62	0.153
637.82	0.153
638.02	0.152
638.22	0.152
638.42	0.152
638.62	0.151
638.82	0.151
639.02	0.151
639.22	0.150
639.42	0.150
639.62	0.150
639.82	0.149
640.02	0.149
640.22	0.149
640.42	0.149
640.62	0.149
640.82	0.149
641.02	0.149
641.22	0.149
641.42	0.149
641.61	0.149
641.81	0.149
642.01	0.149
642.21	0.149
642.41	0.149
642.61	0.148
642.81	0.147
643.01	0.147
643.21	0.147
643.41	0.147
643.61	0.147
643.81	0.147
644.01	0.145
644.21	0.145
644.41	0.145
644.61	0.145
644.81	0.145
645.01	0.145
645.21	0.145
645.41	0.145
645.61	0.144
645.81	0.144
646.01	0.143
646.21	0.144
646.40	0.143
646.60	0.144
646.80	0.144
647.00	0.143
647.20	0.142
647.40	0.142
647.60	0.142
647.80	0.142
648.00	0.142
648.20	0.142
648.40	0.142
648.60	0.141
648.80	0.141
649.00	0.141
649.20	0.142
649.39	0.141
649.59	0.141
649.79	0.140
649.99	0.140
650.19	0.140
650.39	0.140
650.59	0.139
650.79	0.139
650.99	0.138
651.19	0.138
651.39	0.137
651.58	0.137
651.78	0.136
651.98	0.136
652.18	0.136
652.38	0.136
652.58	0.136
652.78	0.135
652.98	0.135
653.18	0.136
653.38	0.136
653.57	0.136
653.77	0.136
653.97	0.135
654.17	0.135
654.37	0.135
654.57	0.135
654.77	0.134
654.97	0.134
655.16	0.134
655.36	0.134
655.56	0.133
655.76	0.132
655.96	0.133
656.16	0.132
656.36	0.132
656.56	0.132
656.75	0.132
656.95	0.132
657.15	0.132
657.35	0.131
657.55	0.130
657.75	0.131
657.95	0.131
658.14	0.130
658.34	0.131
658.54	0.131
658.74	0.130
658.94	0.130
659.14	0.130
659.34	0.130
659.53	0.130
659.73	0.130
659.93	0.129
660.13	0.129
660.33	0.129
660.53	0.128
660.72	0.129
660.92	0.128
661.12	0.127
661.32	0.127
661.52	0.126
661.72	0.126
661.91	0.126
662.11	0.127
662.31	0.126
662.51	0.126
662.71	0.126
662.90	0.125
663.10	0.125
663.30	0.125
663.50	0.125
663.70	0.124
663.90	0.124
664.09	0.124
664.29	0.123
664.49	0.123
664.69	0.123
664.89	0.122
665.08	0.122
665.28	0.121
665.48	0.122
665.68	0.121
665.88	0.122
666.07	0.121
666.27	0.122
666.47	0.122
666.67	0.122
666.87	0.122
667.06	0.121
667.26	0.121
667.46	0.121
667.66	0.121
667.85	0.121
668.05	0.121
668.25	0.121
668.45	0.121
668.65	0.120
668.84	0.120
669.04	0.120
669.24	0.120
669.44	0.119
669.63	0.119
669.83	0.119
670.03	0.118
670.23	0.117
670.42	0.117
670.62	0.117
670.82	0.117
671.02	0.116
671.22	0.116
671.41	0.115
671.61	0.115
671.81	0.115
672.01	0.115
672.20	0.115
672.40	0.115
672.60	0.115
672.80	0.115
672.99	0.115
673.19	0.114
673.39	0.115
673.58	0.115
673.78	0.114
673.98	0.114
674.18	0.113
674.37	0.113
674.57	0.113
674.77	0.113
674.97	0.113
675.16	0.113
675.36	0.112
675.56	0.112
675.75	0.112
675.95	0.111
676.15	0.112
676.35	0.112
676.54	0.112
676.74	0.111
676.94	0.111
677.13	0.111
677.33	0.110
677.53	0.110
677.73	0.110
677.92	0.110
678.12	0.109
678.32	0.109
678.51	0.109
678.71	0.109
678.91	0.108
679.11	0.108
679.30	0.108
679.50	0.108
679.70	0.107
679.89	0.107
680.09	0.107
680.29	0.107
680.48	0.107
680.68	0.106
680.88	0.106
681.07	0.107
681.27	0.106
681.47	0.106
681.66	0.106
681.86	0.106
682.06	0.106
682.25	0.106
682.45	0.106
682.65	0.105
682.84	0.104
683.04	0.104
683.24	0.104
683.43	0.104
683.63	0.104
683.83	0.104
684.02	0.104
684.22	0.103
684.42	0.104
684.61	0.104
684.81	0.104
685.01	0.104
685.20	0.103
685.40	0.104
685.60	0.103
685.79	0.103
685.99	0.103
686.19	0.103
686.38	0.103
686.58	0.103
686.77	0.103
686.97	0.102
687.17	0.102
687.36	0.102
687.56	0.102
687.76	0.101
687.95	0.101
688.15	0.101
688.34	0.101
688.54	0.100
688.74	0.100
688.93	0.099
689.13	0.099
689.33	0.099
689.52	0.099
689.72	0.099
689.91	0.099
690.11	0.098
690.31	0.098
690.50	0.098
690.70	0.099
690.89	0.098
691.09	0.098
691.29	0.098
691.48	0.098
691.68	0.097
691.87	0.097
692.07	0.098
692.27	0.097
692.46	0.097
692.66	0.097
692.85	0.096
693.05	0.097
693.25	0.096
693.44	0.096
693.64	0.096
693.83	0.096
694.03	0.096
694.22	0.095
694.42	0.095
694.62	0.096
694.81	0.096
695.01	0.096
695.20	0.095
695.40	0.095
695.59	0.095
695.79	0.094
695.99	0.094
696.18	0.094
696.38	0.094
696.57	0.094
696.77	0.094
696.96	0.094
697.16	0.094
697.36	0.094
697.55	0.093
697.75	0.093
697.94	0.093
698.14	0.093
698.33	0.093
698.53	0.093
698.72	0.093
698.92	0.092
699.11	0.092
699.31	0.092
699.51	0.092
699.70	0.092
699.90	0.092
700.09	0.092
700.29	0.091
700.48	0.091
700.68	0.091
700.87	0.091
701.07	0.091
701.26	0.090
701.46	0.090
701.65	0.090
701.85	0.090
702.04	0.090
702.24	0.090
702.43	0.090
702.63	0.090
702.82	0.090
703.02	0.090
703.21	0.090
703.41	0.090
703.60	0.089
703.80	0.089
703.99	0.089
704.19	0.090
704.38	0.089
704.58	0.089
704.77	0.089
704.97	0.089
705.16	0.089
705.36	0.089
705.55	0.089
705.75	0.089
705.94	0.089
706.14	0.088
706.33	0.088
706.53	0.088
706.72	0.088
706.92	0.087
707.11	0.087
707.31	0.087
707.50	0.087
707.70	0.087
707.89	0.087
708.09	0.087
708.28	0.087
708.48	0.087
708.67	0.086
708.86	0.086
709.06	0.087
709.25	0.086
709.45	0.086
709.64	0.086
709.84	0.086
710.03	0.086
710.23	0.085
710.42	0.085
710.62	0.085
710.81	0.085
711.00	0.085
711.20	0.085
711.39	0.085
711.59	0.085
711.78	0.085
711.98	0.085
712.17	0.085
712.37	0.085
712.56	0.085
712.75	0.085
712.95	0.085
713.14	0.085
713.34	0.086
713.53	0.086
713.73	0.086
713.92	0.086
714.11	0.086
714.31	0.086
714.50	0.086
714.70	0.086
714.89	0.086
715.08	0.086
715.28	0.086
715.47	0.086
715.67	0.085
715.86	0.085
716.06	0.085
716.25	0.084
716.44	0.084
716.64	0.084
716.83	0.084
717.03	0.084
717.22	0.083
717.41	0.083
717.61	0.083
717.80	0.084
717.99	0.084
718.19	0.084
718.38	0.084
718.58	0.083
718.77	0.083
718.96	0.083
719.16	0.083
719.35	0.083
719.55	0.083
719.74	0.083
719.93	0.083
720.13	0.082
720.32	0.082
720.51	0.082
720.71	0.082
720.90	0.083
721.10	0.082
721.29	0.082
721.48	0.082
721.68	0.082
721.87	0.082
722.06	0.082
722.26	0.083
722.45	0.083
722.64	0.082
722.84	0.082
723.03	0.082
723.22	0.083
723.42	0.083
723.61	0.083
723.80	0.083
724.00	0.083
724.19	0.083
724.38	0.083
724.58	0.083
724.77	0.083
724.96	0.083
725.16	0.083
725.35	0.083
725.54	0.083
725.74	0.083
725.93	0.082
726.12	0.082
726.32	0.082
726.51	0.082
726.70	0.082
726.90	0.082
727.09	0.082
727.28	0.082
727.48	0.082
727.67	0.081
727.86	0.081
728.06	0.082
728.25	0.082
728.44	0.082
728.64	0.081
728.83	0.082
729.02	0.082
729.21	0.082
729.41	0.082
729.60	0.082
729.79	0.082
729.99	0.082
730.18	0.082
730.37	0.082
730.56	0.082
730.76	0.082
730.95	0.082
731.14	0.082
731.34	0.082
731.53	0.082
731.72	0.082
731.91	0.082
732.11	0.082
732.30	0.082
732.49	0.082
732.69	0.083
732.88	0.083
733.07	0.083
733.26	0.083
733.46	0.083
733.65	0.083
733.84	0.083
734.03	0.083
734.23	0.083
734.42	0.083
734.61	0.083
734.80	0.082
735.00	0.082
735.19	0.082
735.38	0.082
735.57	0.082
735.77	0.083
735.96	0.083
736.15	0.083
736.34	0.083
736.54	0.083
736.73	0.083
736.92	0.083
737.11	0.083
737.31	0.082
737.50	0.083
737.69	0.083
737.88	0.083
738.07	0.083
738.27	0.082
738.46	0.082
738.65	0.082
738.84	0.082
739.04	0.082
739.23	0.082
739.42	0.082
739.61	0.082
739.80	0.081
740.00	0.082
740.19	0.082
740.38	0.082
740.57	0.082
740.76	0.082
740.96	0.082
741.15	0.081
741.34	0.081
741.53	0.081
741.72	0.081
741.92	0.081
742.11	0.081
742.30	0.081
742.49	0.081
742.68	0.081
742.88	0.081
743.07	0.081
743.26	0.081
743.45	0.081
743.64	0.080
743.84	0.080
744.03	0.081
744.22	0.081
744.41	0.080
744.60	0.080
744.79	0.081
744.99	0.080
745.18	0.080
745.37	0.080
745.56	0.079
745.75	0.079
745.94	0.079
746.14	0.079
746.33	0.079
746.52	0.080
746.71	0.080
746.90	0.079
747.09	0.079
747.28	0.079
747.48	0.079
747.67	0.079
747.86	0.080
748.05	0.080
748.24	0.080
748.43	0.079
748.62	0.079
748.82	0.079
749.01	0.079
749.20	0.079
749.39	0.079
749.58	0.079
749.77	0.079
749.96	0.079
750.16	0.079
750.35	0.079
750.54	0.078
750.73	0.079
750.92	0.079
751.11	0.078
751.30	0.078
751.49	0.078
751.68	0.078
751.88	0.078
752.07	0.078
752.26	0.078
752.45	0.078
752.64	0.078
752.83	0.078
753.02	0.077
753.21	0.077
753.40	0.077
753.60	0.077
753.79	0.077
753.98	0.077
754.17	0.077
754.36	0.077
754.55	0.077
754.74	0.077
754.93	0.077
755.12	0.077
755.31	0.078
755.50	0.078
755.70	0.078
755.89	0.078
756.08	0.078
756.27	0.077
756.46	0.078
756.65	0.078
756.84	0.077
757.03	0.077
757.22	0.077
757.41	0.077
757.60	0.077
757.79	0.077
757.98	0.077
758.17	0.076
758.36	0.077
758.56	0.076
758.75	0.076
758.94	0.076
759.13	0.076
759.32	0.076
759.51	0.076
759.70	0.076
759.89	0.076
760.08	0.076
760.27	0.077
760.46	0.077
760.65	0.077
760.84	0.076
761.03	0.076
761.22	0.076
761.41	0.076
761.60	0.076
761.79	0.075
761.98	0.076
762.17	0.075
762.36	0.075
762.55	0.075
762.74	0.075
762.93	0.075
763.12	0.074
763.31	0.074
763.50	0.074
763.69	0.074
763.88	0.074
764.07	0.074
764.26	0.074
764.45	0.074
764.64	0.074
764.83	0.074
765.02	0.074
765.21	0.074
765.40	0.074
765.59	0.075
765.78	0.075
765.97	0.075
766.16	0.075
766.35	0.075
766.54	0.075
766.73	0.075
766.92	0.075
767.11	0.075
767.30	0.075
767.49	0.075
767.68	0.075
767.87	0.074
768.06	0.074
768.25	0.074
768.44	0.075
768.63	0.074
768.82	0.074
769.01	0.074
769.20	0.074
769.39	0.074
769.58	0.074
769.77	0.074
769.96	0.074
770.15	0.074
770.34	0.074
770.53	0.073
770.72	0.073
770.91	0.073
771.10	0.073
771.29	0.073
771.47	0.072
771.66	0.072
771.85	0.072
772.04	0.072
772.23	0.072
772.42	0.072
772.61	0.072
772.80	0.073
772.99	0.073
773.18	0.072
773.37	0.073
773.56	0.073
773.75	0.073
773.94	0.073
774.13	0.072
774.31	0.072
774.50	0.072
774.69	0.072
774.88	0.072
775.07	0.072
775.26	0.072
775.45	0.072
775.64	0.072
775.83	0.072
776.02	0.071
776.21	0.071
776.40	0.072
776.58	0.071
776.77	0.072
776.96	0.072
777.15	0.072
777.34	0.071
777.53	0.072
777.72	0.072
777.91	0.072
778.10	0.072
778.28	0.072
778.47	0.072
778.66	0.072
778.85	0.071
779.04	0.071
779.23	0.072
779.42	0.071
779.61	0.071
779.79	0.071
779.98	0.070
780.17	0.071
780.36	0.070
780.55	0.070
780.74	0.070
780.93	0.070
781.12	0.070
781.30	0.070
781.49	0.070
781.68	0.070
781.87	0.070
782.06	0.070
782.25	0.070
782.44	0.070
782.62	0.070
782.81	0.070
783.00	0.070
783.19	0.070
783.38	0.070
783.57	0.070
783.75	0.070
783.94	0.070
784.13	0.070
784.32	0.069
784.51	0.070
784.70	0.070
784.88	0.070
785.07	0.069
785.26	0.069
785.45	0.070
785.64	0.069
785.83	0.070
786.01	0.069
786.20	0.070
786.39	0.070
786.58	0.070
786.77	0.070
786.95	0.070
787.14	0.070
787.33	0.070
787.52	0.070
787.71	0.070
787.90	0.070
788.08	0.069
788.27	0.069
788.46	0.069
788.65	0.069
788.84	0.069
789.02	0.069
789.21	0.069
789.40	0.068
789.59	0.068
789.77	0.068
789.96	0.068
790.15	0.069
790.34	0.069
790.53	0.068
790.71	0.069
790.90	0.068
791.09	0.068
791.28	0.068
791.46	0.069
791.65	0.068
791.84	0.069
792.03	0.068
792.22	0.068
792.40	0.068
792.59	0.068
792.78	0.068
792.97	0.068
793.15	0.068
793.34	0.068
793.53	0.068
793.72	0.068
793.90	0.068
794.09	0.068
794.28	0.068
794.47	0.068
794.65	0.068
794.84	0.068
795.03	0.068
795.22	0.068
795.40	0.068
795.59	0.068
795.78	0.068
795.97	0.068
796.15	0.068
796.34	0.068
796.53	0.069
796.71	0.069
796.90	0.069
797.09	0.069
797.28	0.069
797.46	0.068
797.65	0.068
797.84	0.068
798.02	0.068
798.21	0.068
798.40	0.068
798.59	0.067
798.77	0.067
798.96	0.067
799.15	0.067
799.33	0.067
799.52	0.067
799.71	0.067
799.90	0.067
800.08	0.067
800.27	0.067
800.46	0.067
800.64	0.067
800.83	0.067
801.02	0.067
801.20	0.067
801.39	0.066
801.58	0.066
801.76	0.066
801.95	0.066
802.14	0.066
802.32	0.066
802.51	0.066
802.70	0.066
802.88	0.066
803.07	0.066
803.26	0.066
803.44	0.066
803.63	0.066
803.82	0.066
804.00	0.066
804.19	0.066
804.38	0.067
804.56	0.067
804.75	0.067
804.94	0.067
805.12	0.067
805.31	0.067
805.50	0.067
805.68	0.067
805.87	0.067
806.06	0.067
806.24	0.067
806.43	0.067
806.62	0.067
806.80	0.066
806.99	0.066
807.17	0.066
807.36	0.066
807.55	0.066
807.73	0.066
807.92	0.066
808.11	0.066
808.29	0.065
808.48	0.065
808.66	0.065
808.85	0.065
809.04	0.065
809.22	0.065
809.41	0.065
809.59	0.065
809.78	0.065
809.97	0.065
810.15	0.065
810.34	0.065
810.53	0.065
810.71	0.065
810.90	0.065
811.08	0.065
811.27	0.065
811.45	0.065
811.64	0.065
811.83	0.065
812.01	0.066
812.20	0.066
812.38	0.066
812.57	0.066
812.76	0.066
812.94	0.066
813.13	0.066
813.31	0.066
813.50	0.066
813.68	0.066
813.87	0.066
814.06	0.066
814.24	0.066
814.43	0.066
814.61	0.065
814.80	0.065
814.98	0.066
815.17	0.065
815.36	0.066
815.54	0.066
815.73	0.065
815.91	0.065
816.10	0.065
816.28	0.065
816.47	0.065
816.65	0.066
816.84	0.066
817.03	0.066
817.21	0.066
817.40	0.066
817.58	0.066
817.77	0.066
817.95	0.066
818.14	0.066
818.32	0.066
818.51	0.066
818.69	0.066
818.88	0.066
819.06	0.066
819.25	0.066
819.43	0.066
819.62	0.066
819.80	0.066
819.99	0.066
820.18	0.066
820.36	0.066
820.55	0.066
820.73	0.066
820.92	0.066
821.10	0.066
821.29	0.066
821.47	0.066
821.66	0.066
821.84	0.066
822.03	0.066
822.21	0.066
822.40	0.066
822.58	0.066
822.77	0.066
822.95	0.066
823.14	0.066
823.32	0.066
823.50	0.067
823.69	0.066
823.87	0.066
824.06	0.066
824.24	0.066
824.43	0.066
824.61	0.066
824.80	0.067
824.98	0.067
825.17	0.067
825.35	0.067
825.54	0.067
825.72	0.067
825.91	0.067
826.09	0.066
826.28	0.066
826.46	0.067
826.64	0.067
826.83	0.067
827.01	0.067
827.20	0.068
827.38	0.068
827.57	0.068
827.75	0.068
827.94	0.068
828.12	0.069
828.31	0.069
828.49	0.068
828.67	0.069
828.86	0.069
829.04	0.068
829.23	0.069
829.41	0.069
829.60	0.069
829.78	0.069
829.96	0.070
830.15	0.070
830.33	0.070
830.52	0.070
830.70	0.070
830.88	0.070
831.07	0.071
831.25	0.071
831.44	0.070
831.62	0.070
831.81	0.070
831.99	0.070
832.17	0.070
832.36	0.071
832.54	0.070
832.73	0.071
832.91	0.071
833.09	0.070
833.28	0.071
833.46	0.071
833.65	0.071
833.83	0.072
834.01	0.072
834.20	0.072
834.38	0.072
834.56	0.072
834.75	0.072
834.93	0.072
835.12	0.072
835.30	0.072
835.48	0.072
835.67	0.072
835.85	0.072
836.03	0.071
836.22	0.071
836.40	0.071
836.59	0.071
836.77	0.071
836.95	0.071
837.14	0.071
837.32	0.071
837.50	0.071
837.69	0.071
837.87	0.071
838.05	0.071
838.24	0.071
838.42	0.071
838.60	0.071
838.79	0.072
838.97	0.072
839.15	0.072
839.34	0.072
839.52	0.073
839.70	0.073
839.89	0.073
840.07	0.073
840.25	0.073
840.44	0.073
840.62	0.073
840.80	0.073
840.99	0.073
841.17	0.073
841.35	0.073
841.54	0.073
841.72	0.073
841.90	0.073
842.09	0.073
842.27	0.073
842.45	0.074
842.64	0.073
842.82	0.074
843.00	0.074
843.19	0.074
843.37	0.073
843.55	0.074
843.73	0.073
843.92	0.073
844.10	0.073
844.28	0.074
844.47	0.073
844.65	0.073
844.83	0.073
845.01	0.073
845.20	0.074
845.38	0.074
845.56	0.074
845.75	0.074
845.93	0.074
846.11	0.074
846.29	0.074
846.48	0.074
846.66	0.074
846.84	0.074
847.02	0.073
847.21	0.073
847.39	0.074
847.57	0.073
847.76	0.074
847.94	0.073
848.12	0.074
848.30	0.074
848.49	0.074
848.67	0.074
848.85	0.074
849.03	0.075
849.22	0.074
849.40	0.075
849.58	0.075
849.76	0.075
849.95	0.075
850.13	0.075
850.31	0.075
850.49	0.075
850.67	0.075
850.86	0.075
851.04	0.074
851.22	0.074
851.40	0.074
851.59	0.074
851.77	0.074
851.95	0.074
852.13	0.074
852.31	0.074
852.50	0.074
852.68	0.074
852.86	0.074
853.04	0.074
853.23	0.074
853.41	0.074
853.59	0.074
853.77	0.074
853.95	0.074
854.14	0.074
854.32	0.074
854.50	0.074
854.68	0.074
854.86	0.074
855.04	0.074
855.23	0.074
855.41	0.075
855.59	0.075
855.77	0.075
855.95	0.075
856.14	0.075
856.32	0.075
856.50	0.075
856.68	0.075
856.86	0.075
857.04	0.075
857.23	0.075
857.41	0.074
857.59	0.075
857.77	0.074
857.95	0.074
858.13	0.074
858.32	0.074
858.50	0.075
858.68	0.074
858.86	0.074
859.04	0.075
859.22	0.075
859.41	0.075
859.59	0.075
859.77	0.075
859.95	0.075
860.13	0.075
860.31	0.075
860.49	0.074
860.68	0.075
860.86	0.075
861.04	0.075
861.22	0.075
861.40	0.075
861.58	0.074
861.76	0.074
861.94	0.075
862.13	0.074
862.31	0.075
862.49	0.075
862.67	0.075
862.85	0.075
863.03	0.075
863.21	0.075
863.39	0.075
863.57	0.075
863.76	0.075
863.94	0.076
864.12	0.075
864.30	0.075
864.48	0.075
864.66	0.075
864.84	0.076
865.02	0.076
865.20	0.075
865.38	0.075
865.57	0.075
865.75	0.075
865.93	0.075
866.11	0.075
866.29	0.075
866.47	0.076
866.65	0.076
866.83	0.076
867.01	0.076
867.19	0.076
867.37	0.075
867.55	0.076
867.73	0.076
867.92	0.076
868.10	0.076
868.28	0.076
868.46	0.076
868.64	0.076
868.82	0.076
869.00	0.076
869.18	0.076
869.36	0.076
869.54	0.077
869.72	0.077
869.90	0.076
870.08	0.076
870.26	0.076
870.44	0.076
870.62	0.076
870.80	0.076
870.98	0.076
871.16	0.076
871.34	0.076
871.53	0.076
871.71	0.076
871.89	0.076
872.07	0.076
872.25	0.076
872.43	0.077
872.61	0.077
872.79	0.077
872.97	0.077
873.15	0.077
873.33	0.077
873.51	0.077
873.69	0.077
873.87	0.077
874.05	0.078
874.23	0.077
874.41	0.077
874.59	0.077
874.77	0.077
874.95	0.077
875.13	0.077
875.31	0.077
875.49	0.077
875.67	0.077
875.85	0.077
876.03	0.077
876.21	0.078
876.39	0.077
876.57	0.077
876.75	0.078
876.93	0.078
877.11	0.078
877.29	0.077
877.47	0.077
877.65	0.078
877.82	0.078
878.00	0.078
878.18	0.078
878.36	0.078
878.54	0.078
878.72	0.078
878.90	0.078
879.08	0.078
879.26	0.078
879.44	0.079
879.62	0.078
879.80	0.078
879.98	0.078
880.16	0.078
880.34	0.078
880.52	0.078
880.70	0.078
880.88	0.078
881.06	0.079
881.24	0.078
881.42	0.078
881.59	0.079
881.77	0.078
881.95	0.079
882.13	0.079
882.31	0.079
882.49	0.079
882.67	0.079
882.85	0.079
883.03	0.079
883.21	0.080
883.39	0.079
883.57	0.079
883.75	0.079
883.92	0.079
884.10	0.080
884.28	0.080
884.46	0.080
884.64	0.080
884.82	0.080
885.00	0.080
885.18	0.080
885.36	0.080
885.54	0.080
885.71	0.080
885.89	0.080
886.07	0.080
886.25	0.080
886.43	0.080
886.61	0.080
886.79	0.080
886.97	0.080
887.15	0.080
887.32	0.080
887.50	0.080
887.68	0.080
887.86	0.080
888.04	0.080
888.22	0.080
888.40	0.080
888.57	0.080
888.75	0.081
888.93	0.081
889.11	0.081
889.29	0.081
889.47	0.081
889.65	0.081
889.82	0.082
890.00	0.082
890.18	0.082
890.36	0.081
890.54	0.081
890.72	0.081
890.90	0.081
891.07	0.081
891.25	0.081
891.43	0.081
891.61	0.081
891.79	0.081
891.97	0.081
892.14	0.081
892.32	0.081
892.50	0.081
892.68	0.081
892.86	0.081
893.03	0.081
893.21	0.082
893.39	0.082
893.57	0.082
893.75	0.082
893.93	0.082
894.10	0.082
894.28	0.082
894.46	0.082
894.64	0.082
894.82	0.082
894.99	0.082
895.17	0.082
895.35	0.082
895.53	0.082
895.71	0.082
895.88	0.082
896.06	0.082
896.24	0.082
896.42	0.082
896.59	0.082
896.77	0.082
896.95	0.082
897.13	0.082
897.31	0.083
897.48	0.083
897.66	0.083
897.84	0.083
898.02	0.083
898.19	0.083
898.37	0.083
898.55	0.083
898.73	0.083
898.91	0.083
899.08	0.084
899.26	0.083
899.44	0.084
899.62	0.084
899.79	0.084
899.97	0.084
900.15	0.084
900.33	0.083
900.50	0.084
900.68	0.083
900.86	0.083
901.04	0.083
901.21	0.083
901.39	0.083
901.57	0.083
901.74	0.083
901.92	0.083
902.10	0.084
902.28	0.084
902.45	0.084
902.63	0.084
902.81	0.084
902.99	0.085
903.16	0.085
903.34	0.085
903.52	0.085
903.69	0.085
903.87	0.085
904.05	0.085
904.22	0.085
904.40	0.085
904.58	0.085
904.76	0.085
904.93	0.085
905.11	0.085
905.29	0.085
905.46	0.085
905.64	0.085
905.82	0.086
905.99	0.085
906.17	0.085
906.35	0.085
906.53	0.085
906.70	0.085
906.88	0.086
907.06	0.086
907.23	0.086
907.41	0.086
907.59	0.086
907.76	0.086
907.94	0.086
908.12	0.086
908.29	0.086
908.47	0.086
908.65	0.087
908.82	0.087
909.00	0.087
909.18	0.087
909.35	0.087
909.53	0.087
909.71	0.087
909.88	0.087
910.06	0.087
910.23	0.087
910.41	0.087
910.59	0.087
910.76	0.087
910.94	0.087
911.12	0.087
911.29	0.087
911.47	0.087
911.65	0.087
911.82	0.087
912.00	0.088
912.17	0.088
912.35	0.088
912.53	0.088
912.70	0.088
912.88	0.088
913.06	0.089
913.23	0.089
913.41	0.089
913.58	0.089
913.76	0.090
913.94	0.090
914.11	0.090
914.29	0.090
914.46	0.090
914.64	0.090
914.82	0.090
914.99	0.090
915.17	0.090
915.34	0.090
915.52	0.090
915.70	0.090
915.87	0.090
916.05	0.091
916.22	0.090
916.40	0.090
916.57	0.091
916.75	0.091
916.93	0.091
917.10	0.090
917.28	0.091
917.45	0.090
917.63	0.090
917.80	0.090
917.98	0.090
918.16	0.090
918.33	0.091
918.51	0.091
918.68	0.091
918.86	0.092
919.03	0.092
919.21	0.092
919.39	0.093
919.56	0.093
919.74	0.094
919.91	0.094
920.09	0.094
920.26	0.094
920.44	0.094
920.61	0.094
920.79	0.094
920.96	0.094
921.14	0.095
921.31	0.095
921.49	0.095
921.67	0.095
921.84	0.095
922.02	0.095
922.19	0.095
922.37	0.096
922.54	0.096
922.72	0.096
922.89	0.097
923.07	0.097
923.24	0.097
923.42	0.097
923.59	0.098
923.77	0.098
923.94	0.099
924.12	0.099
924.29	0.100
924.47	0.100
924.64	0.101
924.82	0.101
924.99	0.101
925.17	0.101
925.34	0.101
925.52	0.101
925.69	0.102
925.87	0.102
926.04	0.102
926.22	0.102
926.39	0.102
926.57	0.103
926.74	0.103
926.91	0.103
927.09	0.103
927.26	0.104
927.44	0.104
927.61	0.105
927.79	0.105
927.96	0.105
928.14	0.106
928.31	0.106
928.49	0.106
928.66	0.107
928.84	0.107
929.01	0.107
929.18	0.108
929.36	0.109
929.53	0.109
929.71	0.109
929.88	0.110
930.06	0.110
930.23	0.110
930.41	0.111
930.58	0.111
930.75	0.112
930.93	0.112
931.10	0.112
931.28	0.113
931.45	0.113
931.63	0.113
931.80	0.114
931.97	0.114
932.15	0.115
932.32	0.116
932.50	0.116
932.67	0.117
932.84	0.117
933.02	0.118
933.19	0.118
933.37	0.119
933.54	0.120
933.71	0.120
933.89	0.121
934.06	0.121
934.24	0.121
934.41	0.122
934.58	0.122
934.76	0.122
934.93	0.123
935.11	0.123
935.28	0.123
935.45	0.123
935.63	0.124
935.80	0.124
935.98	0.125
936.15	0.125
936.32	0.126
936.50	0.126
936.67	0.126
936.84	0.126
937.02	0.128
937.19	0.129
937.36	0.129
937.54	0.129
937.71	0.130
937.89	0.130
938.06	0.131
938.23	0.132
938.41	0.133
938.58	0.133
938.75	0.133
938.93	0.134
939.10	0.134
939.27	0.134
939.45	0.135
939.62	0.135
939.79	0.136
939.97	0.137
940.14	0.137
940.31	0.138
940.49	0.138
940.66	0.139
940.83	0.140
941.01	0.140
941.18	0.141
941.35	0.142
941.53	0.143
941.70	0.144
941.87	0.144
942.05	0.145
942.22	0.145
942.39	0.146
942.57	0.146
942.74	0.147
942.91	0.147
943.08	0.148
943.26	0.148
943.43	0.148
943.60	0.149
943.78	0.150
943.95	0.151
944.12	0.151
944.29	0.152
944.47	0.152
944.64	0.153
944.81	0.155
944.99	0.155
945.16	0.156
945.33	0.157
945.50	0.157
945.68	0.158
945.85	0.158
946.02	0.159
946.20	0.160
946.37	0.162
946.54	0.162
946.71	0.163
946.89	0.163
947.06	0.164
947.23	0.165
947.40	0.167
947.58	0.167
947.75	0.168
947.92	0.169
948.09	0.169
948.27	0.170
948.44	0.172
948.61	0.173
948.78	0.173
948.96	0.175
949.13	0.176
949.30	0.177
949.47	0.178
949.65	0.179
949.82	0.181
949.99	0.181
950.16	0.183
950.33	0.184
950.51	0.185
950.68	0.186
950.85	0.187
951.02	0.189
951.20	0.190
951.37	0.191
951.54	0.192
951.71	0.193
951.88	0.194
952.06	0.195
952.23	0.196
952.40	0.197
952.57	0.199
952.74	0.200
952.92	0.201
953.09	0.203
953.26	0.204
953.43	0.205
953.60	0.207
953.77	0.208
953.95	0.209
954.12	0.210
954.29	0.211
954.46	0.213
954.63	0.214
954.81	0.215
954.98	0.216
955.15	0.218
955.32	0.219
955.49	0.219
955.66	0.220
955.84	0.221
956.01	0.221
956.18	0.224
956.35	0.225
956.52	0.226
956.69	0.228
956.87	0.228
957.04	0.229
957.21	0.232
957.38	0.232
957.55	0.233
957.72	0.235
957.89	0.236
958.07	0.236
958.24	0.238
958.41	0.239
958.58	0.239
958.75	0.240
958.92	0.241
959.09	0.241
959.26	0.242
959.44	0.242
959.61	0.243
959.78	0.244
959.95	0.245
960.12	0.245
960.29	0.248
960.46	0.247
960.63	0.248
960.81	0.248
960.98	0.249
961.15	0.250
961.32	0.250
961.49	0.249
961.66	0.251
961.83	0.251
962.00	0.252
962.17	0.253
962.34	0.252
962.52	0.252
962.69	0.253
962.86	0.252
963.03	0.253
963.20	0.254
963.37	0.253
963.54	0.254
963.71	0.253
963.88	0.254
964.05	0.254
964.22	0.256
964.39	0.255
964.56	0.255
964.74	0.256
964.91	0.256
965.08	0.257
965.25	0.257
965.42	0.258
965.59	0.259
965.76	0.258
965.93	0.259
966.10	0.257
966.27	0.258
966.44	0.258
966.61	0.259
966.78	0.259
966.95	0.258
967.12	0.258
967.29	0.260
967.46	0.259
967.63	0.259
967.80	0.260
967.97	0.260
968.14	0.259
968.32	0.260
968.49	0.260
968.66	0.259
968.83	0.260
969.00	0.260
969.17	0.259
969.34	0.261
969.51	0.262
969.68	0.261
969.85	0.261
970.02	0.261
970.19	0.261
970.36	0.262
970.53	0.262
970.70	0.261
970.87	0.261
971.04	0.261
971.21	0.261
971.38	0.261
971.55	0.262
971.72	0.262
971.89	0.262
972.06	0.261
972.23	0.262
972.40	0.262
972.57	0.261
972.74	0.261
972.91	0.261
973.07	0.261
973.24	0.261
973.41	0.261
973.58	0.259
973.75	0.272
973.92	0.261
974.09	0.260
974.26	0.260
974.43	0.260
974.60	0.261
974.77	0.262
974.94	0.261
975.11	0.262
975.28	0.263
975.45	0.261
975.62	0.262
975.79	0.263
975.96	0.261
976.13	0.260
976.30	0.262
976.47	0.261
976.64	0.261
976.80	0.262
976.97	0.261
977.14	0.261
977.31	0.261
977.48	0.261
977.65	0.261
977.82	0.260
977.99	0.261
978.16	0.260
978.33	0.260
978.50	0.259
978.67	0.260
978.83	0.260
979.00	0.260
979.17	0.259
979.34	0.259
979.51	0.258
979.68	0.259
979.85	0.258
980.02	0.259
980.19	0.257
980.36	0.259
980.52	0.259
980.69	0.258
980.86	0.258
981.03	0.257
981.20	0.256
981.37	0.257
981.54	0.258
981.71	0.257
981.88	0.258
982.04	0.258
982.21	0.257
982.38	0.258
982.55	0.257
982.72	0.256
982.89	0.257
983.06	0.256
983.22	0.255
983.39	0.256
983.56	0.255
983.73	0.254
983.90	0.253
984.07	0.255
984.24	0.253
984.40	0.253
984.57	0.252
984.74	0.254
984.91	0.255
985.08	0.253
985.25	0.251
985.41	0.252
985.58	0.252
985.75	0.253
985.92	0.252
986.09	0.250
986.26	0.250
986.42	0.249
986.59	0.248
986.76	0.249
986.93	0.249
987.10	0.249
987.27	0.247
987.43	0.245
987.60	0.248
987.77	0.248
987.94	0.247
988.11	0.247
988.27	0.247
988.44	0.247
988.61	0.245
988.78	0.244
988.95	0.244
989.11	0.245
989.28	0.243
989.45	0.242
989.62	0.242
989.79	0.242
989.95	0.241
990.12	0.242
990.29	0.242
990.46	0.240
990.62	0.239
990.79	0.239
990.96	0.240
991.13	0.240
991.30	0.239
991.46	0.238
991.63	0.237
991.80	0.235
991.97	0.236
992.13	0.236
992.30	0.237
992.47	0.235
992.64	0.235
992.80	0.235
992.97	0.235
993.14	0.233
993.31	0.231
993.47	0.234
993.64	0.232
993.81	0.232
993.98	0.232
994.14	0.230
994.31	0.230
994.48	0.230
994.64	0.231
994.81	0.229
994.98	0.229
995.15	0.227
995.31	0.227
995.48	0.227
995.65	0.229
995.82	0.226
995.98	0.226
996.15	0.227
996.32	0.228
996.48	0.227
996.65	0.226
996.82	0.224
996.99	0.225
997.15	0.224
997.32	0.225
997.49	0.224
997.65	0.225
997.82	0.224
997.99	0.223
998.15	0.223
998.32	0.224
998.49	0.223
998.65	0.223
998.82	0.222
998.99	0.220
999.15	0.221
999.32	0.220
999.49	0.219
999.65	0.220
999.82	0.217
999.99	0.217
1000.15	0.217
1000.32	0.218
1000.49	0.218
1000.65	0.216
1000.82	0.216
1000.99	0.216
1001.15	0.216
1001.32	0.215
1001.49	0.215
1001.65	0.214
1001.82	0.216
1001.99	0.212
1002.15	0.211
1002.32	0.212
1002.49	0.212
1002.65	0.211
1002.82	0.210
1002.99	0.209
1003.15	0.211
1003.32	0.210
1003.48	0.211
1003.65	0.211
1003.82	0.210
1003.98	0.208
1004.15	0.208
1004.32	0.208
1004.48	0.208
1004.65	0.209
1004.81	0.207
1004.98	0.206
1005.15	0.206
1005.31	0.206
1005.48	0.204
1005.64	0.204
1005.81	0.206
1005.98	0.203
1006.14	0.202
1006.31	0.202
1006.47	0.201
1006.64	0.199
1006.81	0.199
1006.97	0.199
1007.14	0.199
1007.30	0.200
1007.47	0.200
1007.63	0.198
1007.80	0.197
1007.97	0.197
1008.13	0.198
1008.30	0.197
1008.46	0.198
1008.63	0.197
1008.79	0.197
1008.96	0.197
1009.13	0.197
1009.29	0.195
1009.46	0.194
1009.62	0.194
1009.79	0.192
1009.95	0.192
1010.12	0.192
1010.28	0.191
1010.45	0.190
1010.62	0.190
1010.78	0.188
1010.95	0.188
1011.11	0.189
1011.28	0.188
1011.44	0.190
1011.61	0.188
1011.77	0.187
1011.94	0.187
1012.10	0.187
1012.27	0.187
1012.43	0.186
1012.60	0.184
1012.76	0.185
1012.93	0.184
1013.10	0.182
1013.26	0.179
1013.43	0.181
1013.59	0.188
1013.76	0.181
1013.92	0.180
1014.09	0.179
1014.25	0.181
1014.42	0.181
1014.58	0.180
1014.75	0.183
1014.91	0.182
1015.08	0.183
1015.24	0.180
1015.41	0.181
1015.57	0.181
1015.73	0.179
1015.90	0.177
1016.06	0.180
1016.23	0.178
1016.39	0.179
1016.56	0.180
1016.72	0.178
1016.89	0.179
1017.05	0.181
1017.22	0.177
1017.38	0.178
1017.55	0.177
1017.71	0.178
1017.88	0.178
1018.04	0.178
1018.21	0.175
1018.37	0.174
1018.53	0.173
1018.70	0.172
1018.86	0.170
1019.03	0.172
1019.19	0.170
1019.36	0.170
1019.52	0.171
1019.69	0.172
1019.85	0.171
1020.01	0.172
1020.18	0.170
1020.34	0.170
1020.51	0.170
1020.67	0.171
1020.84	0.170
1021.00	0.170
1021.16	0.167
1021.33	0.168
1021.49	0.166
1021.66	0.167
1021.82	0.165
1021.98	0.166
1022.15	0.165
1022.31	0.165
1022.48	0.164
1022.64	0.165
1022.80	0.164
1022.97	0.163
1023.13	0.163
1023.30	0.163
1023.46	0.164
1023.62	0.162
1023.79	0.163
1023.95	0.164
1024.12	0.163
1024.28	0.162
1024.44	0.162
1024.61	0.161
1024.77	0.160
1024.93	0.160
1025.10	0.161
1025.26	0.158
1025.43	0.158
1025.59	0.154
1025.75	0.157
1025.92	0.156
1026.08	0.155
1026.24	0.155
1026.41	0.156
1026.57	0.154
1026.73	0.152
1026.90	0.154
1027.06	0.153
1027.23	0.154
1027.39	0.154
1027.55	0.155
1027.72	0.154
1027.88	0.153
1028.04	0.153
1028.21	0.153
1028.37	0.147
1028.53	0.152
1028.70	0.150
1028.86	0.148
1029.02	0.148
1029.19	0.149
1029.35	0.147
1029.51	0.147
1029.67	0.145
1029.84	0.147
1030.00	0.143
1030.16	0.144
1030.33	0.147
1030.49	0.145
1030.65	0.142
1030.82	0.157
1030.98	0.144
1031.14	0.143
1031.31	0.144
1031.47	0.141
1031.63	0.142
1031.79	0.141
1031.96	0.143
1032.12	0.143
1032.28	0.141
1032.45	0.145
1032.61	0.144
1032.77	0.143
1032.93	0.142
1033.10	0.142
1033.26	0.145
1033.42	0.143
1033.58	0.144
1033.75	0.144
1033.91	0.143
1034.07	0.146
1034.24	0.144
1034.40	0.142
1034.56	0.142
1034.72	0.142
1034.89	0.142
1035.05	0.140
1035.21	0.140
1035.37	0.138
1035.54	0.142
1035.70	0.139
1035.86	0.138
1036.02	0.140
1036.19	0.138
1036.35	0.137
1036.51	0.140
1036.67	0.138
1036.83	0.137
1037.00	0.138
1037.16	0.138
1037.32	0.137
1037.48	0.137
1037.65	0.140
1037.81	0.136
1037.97	0.135
1038.13	0.134
1038.29	0.132
1038.46	0.129
1038.62	0.133
1038.78	0.131
1038.94	0.128
1039.10	0.132
1039.27	0.130
1039.43	0.131
1039.59	0.131
1039.75	0.131
1039.91	0.130
1040.08	0.130
1040.24	0.132
1040.40	0.134
1040.56	0.133
1040.72	0.127
1040.89	0.129
1041.05	0.129
1041.21	0.128
1041.37	0.127
1041.53	0.133
1041.69	0.130
1041.86	0.129
1042.02	0.127
1042.18	0.127
1042.34	0.129
1042.50	0.134
1042.66	0.131
1042.83	0.130
1042.99	0.132
1043.15	0.127
1043.31	0.128
1043.47	0.132
1043.63	0.130
1043.79	0.129
1043.96	0.129
1044.12	0.133
1044.28	0.128
1044.44	0.130
1044.60	0.125
1044.76	0.123
1044.92	0.126
1045.09	0.127
1045.25	0.124
1045.41	0.125
1045.57	0.120
1045.73	0.121
1045.89	0.122
1046.05	0.125
1046.21	0.135
1046.38	0.120
1046.54	0.128
1046.70	0.130
1046.86	0.128
>>>>>End Processed Spectral Data<<<<<
