SpectraSuite Data File
++++++++++++++++++++++++++++++++++++
Date: Mon May 20 12:12:12 CDT 2013
User: Students
Dark Spectrum Present: Yes
Reference Spectrum Present: Yes
Number of Sampled Component Spectra: 1
Spectrometers: USB4H00887
Integration Time (usec): 60000 (USB4H00887)
Spectra Averaged: 5 (USB4H00887)
Boxcar Smoothing: 5 (USB4H00887)
Correct for Electrical Dark: No (USB4H00887)
Strobe/Lamp Enabled: No (USB4H00887)
Correct for Detector Non-linearity: No (USB4H00887)
Correct for Stray Light: No (USB4H00887)
Number of Pixels in Processed Spectrum: 3648
>>>>>Begin Processed Spectral Data<<<<<
345.83	-0.222
346.05	-0.222
346.26	-0.222
346.48	-0.000
346.70	0.615
346.92	0.152
347.14	0.093
347.35	0.079
347.57	0.616
347.79	-0.313
348.01	-0.214
348.23	-0.292
348.44	-0.000
348.66	0.266
348.88	-0.340
349.10	-0.120
349.32	0.087
349.53	-0.012
349.75	-0.006
349.97	0.004
350.19	0.071
350.41	0.091
350.62	-0.175
350.84	0.010
351.06	0.026
351.28	0.023
351.50	-0.039
351.71	0.094
351.93	0.042
352.15	0.008
352.37	0.111
352.58	0.029
352.80	0.035
353.02	0.069
353.24	0.115
353.46	1.504
353.67	-0.274
353.89	0.113
354.11	0.088
354.33	0.113
354.54	0.195
354.76	0.330
354.98	0.708
355.20	0.420
355.41	0.116
355.63	0.193
355.85	0.077
356.07	0.660
356.28	0.064
356.50	0.135
356.72	0.050
356.94	0.143
357.15	0.229
357.37	-0.000
357.59	0.111
357.81	0.067
358.02	0.157
358.24	0.118
358.46	0.249
358.68	0.256
358.89	0.135
359.11	-0.000
359.33	0.111
359.55	-0.654
359.76	0.170
359.98	0.208
360.20	0.225
360.42	0.157
360.63	0.199
360.85	0.144
361.07	1.166
361.29	0.119
361.50	0.454
361.72	0.130
361.94	0.519
362.15	0.203
362.37	0.114
362.59	0.114
362.81	0.190
363.02	0.323
363.24	0.532
363.46	0.258
363.68	0.325
363.89	0.184
364.11	0.260
364.33	0.339
364.54	0.196
364.76	0.228
364.98	0.267
365.20	0.284
365.41	0.155
365.63	0.188
365.85	0.137
366.06	0.473
366.28	0.468
366.50	0.322
366.71	0.118
366.93	0.162
367.15	0.146
367.37	0.133
367.58	0.173
367.80	0.207
368.02	0.645
368.23	0.181
368.45	0.180
368.67	0.156
368.88	0.165
369.10	-0.000
369.32	0.145
369.53	0.083
369.75	0.140
369.97	0.352
370.19	0.199
370.40	0.082
370.62	0.220
370.84	0.079
371.05	0.376
371.27	0.091
371.49	0.141
371.70	0.159
371.92	0.246
372.14	0.082
372.35	0.093
372.57	0.092
372.79	0.237
373.00	0.065
373.22	0.088
373.44	0.085
373.65	0.075
373.87	0.092
374.09	0.352
374.30	0.102
374.52	0.141
374.74	0.106
374.95	0.488
375.17	0.120
375.39	-0.000
375.60	0.156
375.82	0.300
376.04	0.124
376.25	0.113
376.47	0.063
376.68	0.131
376.90	0.083
377.12	0.130
377.33	0.092
377.55	0.244
377.77	0.118
377.98	0.167
378.20	0.102
378.42	0.134
378.63	0.207
378.85	-0.000
379.07	0.146
379.28	0.457
379.50	0.325
379.71	0.173
379.93	0.112
380.15	0.162
380.36	0.232
380.58	0.144
380.80	0.320
381.01	0.116
381.23	0.099
381.44	0.120
381.66	0.145
381.88	0.170
382.09	-0.076
382.31	0.119
382.53	0.122
382.74	0.627
382.96	0.188
383.17	0.164
383.39	0.205
383.61	0.260
383.82	0.181
384.04	0.214
384.25	0.267
384.47	0.271
384.69	0.262
384.90	0.243
385.12	0.551
385.33	0.335
385.55	0.234
385.77	0.356
385.98	0.175
386.20	0.243
386.41	0.224
386.63	0.242
386.85	0.191
387.06	0.226
387.28	0.351
387.49	0.218
387.71	0.164
387.93	0.158
388.14	0.471
388.36	0.193
388.57	0.168
388.79	0.173
389.01	0.921
389.22	0.233
389.44	0.208
389.65	0.173
389.87	0.173
390.08	0.208
390.30	0.158
390.52	0.298
390.73	0.317
390.95	0.225
391.16	0.226
391.38	-0.000
391.59	0.260
391.81	0.217
392.03	0.196
392.24	0.227
392.46	0.187
392.67	0.170
392.89	0.243
393.10	0.382
393.32	0.248
393.53	0.289
393.75	0.191
393.97	0.217
394.18	0.303
394.40	0.273
394.61	0.292
394.83	0.261
395.04	0.311
395.26	0.202
395.47	0.293
395.69	0.258
395.91	0.279
396.12	0.321
396.34	0.315
396.55	0.197
396.77	0.299
396.98	1.129
397.20	0.345
397.41	0.361
397.63	0.259
397.84	0.244
398.06	0.236
398.27	0.233
398.49	0.291
398.71	0.211
398.92	0.262
399.14	0.325
399.35	0.417
399.57	0.401
399.78	0.285
400.00	0.283
400.21	0.358
400.43	0.285
400.64	0.303
400.86	0.687
401.07	0.380
401.29	0.331
401.50	0.357
401.72	0.535
401.93	0.325
402.15	0.409
402.36	0.376
402.58	0.294
402.79	0.331
403.01	0.572
403.22	0.421
403.44	0.288
403.65	0.458
403.87	0.487
404.08	0.372
404.30	0.652
404.51	0.342
404.73	0.406
404.94	0.354
405.16	0.355
405.37	0.274
405.59	0.499
405.80	0.299
406.02	0.363
406.23	0.374
406.45	0.406
406.66	0.441
406.88	0.279
407.09	0.416
407.31	0.328
407.52	0.405
407.74	0.340
407.95	0.405
408.17	0.386
408.38	0.422
408.60	0.284
408.81	0.492
409.03	0.352
409.24	0.368
409.45	0.435
409.67	0.432
409.88	0.381
410.10	0.486
410.31	0.405
410.53	0.385
410.74	0.534
410.96	0.530
411.17	0.544
411.39	0.421
411.60	0.380
411.82	0.433
412.03	0.420
412.24	0.396
412.46	0.562
412.67	0.457
412.89	0.446
413.10	0.440
413.32	0.400
413.53	0.465
413.75	0.468
413.96	0.365
414.17	0.493
414.39	0.496
414.60	0.417
414.82	0.570
415.03	0.437
415.25	0.485
415.46	0.337
415.68	0.471
415.89	0.900
416.10	0.709
416.32	0.372
416.53	0.437
416.75	0.415
416.96	0.495
417.18	0.423
417.39	0.394
417.60	0.399
417.82	0.572
418.03	0.499
418.25	0.421
418.46	0.439
418.67	0.407
418.89	0.432
419.10	0.440
419.32	0.588
419.53	0.527
419.75	0.460
419.96	0.403
420.17	0.498
420.39	0.461
420.60	0.472
420.82	0.570
421.03	0.459
421.24	0.394
421.46	0.441
421.67	0.473
421.89	0.416
422.10	0.450
422.31	0.448
422.53	0.626
422.74	0.473
422.96	0.378
423.17	0.427
423.38	0.520
423.60	0.440
423.81	0.546
424.03	0.471
424.24	0.528
424.45	0.522
424.67	0.516
424.88	0.456
425.09	0.499
425.31	0.470
425.52	0.489
425.74	0.560
425.95	0.595
426.16	0.462
426.38	0.534
426.59	0.478
426.80	0.547
427.02	0.586
427.23	0.464
427.45	0.599
427.66	0.584
427.87	0.463
428.09	0.497
428.30	0.560
428.51	0.546
428.73	0.598
428.94	0.540
429.15	0.519
429.37	0.491
429.58	0.516
429.79	0.474
430.01	0.561
430.22	0.553
430.44	0.556
430.65	0.504
430.86	0.544
431.08	0.531
431.29	0.485
431.50	0.580
431.72	0.756
431.93	0.616
432.14	0.474
432.36	0.518
432.57	0.523
432.78	0.537
433.00	0.497
433.21	0.492
433.42	0.611
433.64	0.537
433.85	0.598
434.06	0.497
434.28	0.531
434.49	0.546
434.70	0.557
434.92	0.577
435.13	0.616
435.34	0.621
435.56	0.583
435.77	0.580
435.98	0.741
436.20	0.632
436.41	0.538
436.62	0.529
436.83	0.598
437.05	0.669
437.26	0.591
437.47	0.527
437.69	0.575
437.90	0.532
438.11	0.517
438.33	0.563
438.54	0.576
438.75	0.727
438.97	0.699
439.18	0.534
439.39	0.559
439.60	0.603
439.82	0.577
440.03	0.537
440.24	0.753
440.46	0.587
440.67	0.569
440.88	0.604
441.10	0.571
441.31	0.570
441.52	0.621
441.73	0.685
441.95	0.607
442.16	0.557
442.37	0.835
442.58	0.555
442.80	0.541
443.01	0.694
443.22	0.644
443.44	0.553
443.65	0.661
443.86	0.650
444.07	0.699
444.29	0.609
444.50	0.782
444.71	0.593
444.92	0.557
445.14	0.703
445.35	0.738
445.56	0.586
445.78	0.681
445.99	0.668
446.20	0.582
446.41	0.649
446.63	0.654
446.84	0.616
447.05	0.621
447.26	0.734
447.48	0.628
447.69	0.593
447.90	0.667
448.11	0.597
448.33	0.623
448.54	0.641
448.75	0.671
448.96	0.677
449.18	0.705
449.39	0.634
449.60	0.620
449.81	0.730
450.03	0.646
450.24	0.696
450.45	0.659
450.66	0.646
450.87	0.671
451.09	0.634
451.30	0.615
451.51	0.678
451.72	0.688
451.94	0.702
452.15	0.764
452.36	0.646
452.57	0.661
452.78	0.665
453.00	0.691
453.21	0.657
453.42	0.637
453.63	0.720
453.85	0.694
454.06	0.698
454.27	0.818
454.48	0.735
454.69	0.662
454.91	0.723
455.12	0.635
455.33	0.701
455.54	0.714
455.75	0.682
455.97	0.706
456.18	0.694
456.39	0.690
456.60	0.704
456.81	0.653
457.03	0.664
457.24	0.664
457.45	0.733
457.66	0.699
457.87	0.662
458.09	0.680
458.30	0.606
458.51	0.706
458.72	0.731
458.93	0.740
459.15	0.660
459.36	0.715
459.57	0.742
459.78	0.780
459.99	0.704
460.20	0.677
460.42	0.747
460.63	0.712
460.84	0.698
461.05	0.717
461.26	0.771
461.47	0.699
461.69	0.741
461.90	0.769
462.11	0.732
462.32	0.779
462.53	0.725
462.74	0.810
462.96	0.711
463.17	0.702
463.38	0.736
463.59	0.826
463.80	0.700
464.01	0.726
464.23	0.800
464.44	0.766
464.65	0.773
464.86	0.789
465.07	0.787
465.28	0.755
465.49	0.774
465.71	0.732
465.92	0.766
466.13	0.801
466.34	0.743
466.55	0.785
466.76	0.755
466.97	0.775
467.19	0.771
467.40	0.807
467.61	0.815
467.82	0.748
468.03	0.734
468.24	0.793
468.45	0.824
468.66	0.811
468.88	0.819
469.09	0.820
469.30	0.860
469.51	0.791
469.72	0.824
469.93	0.797
470.14	0.778
470.35	0.854
470.57	0.815
470.78	0.763
470.99	0.867
471.20	0.817
471.41	0.786
471.62	0.829
471.83	0.804
472.04	0.832
472.25	0.862
472.47	0.793
472.68	0.799
472.89	0.802
473.10	0.839
473.31	0.800
473.52	0.850
473.73	0.868
473.94	0.805
474.15	0.830
474.36	0.829
474.57	0.855
474.79	0.833
475.00	0.833
475.21	0.821
475.42	0.898
475.63	0.818
475.84	0.842
476.05	0.846
476.26	0.819
476.47	0.844
476.68	0.883
476.89	0.821
477.10	0.862
477.32	0.851
477.53	0.894
477.74	0.831
477.95	0.863
478.16	0.821
478.37	0.856
478.58	0.859
478.79	0.869
479.00	0.869
479.21	0.836
479.42	0.870
479.63	0.877
479.84	0.844
480.05	0.841
480.26	0.865
480.47	0.882
480.69	0.880
480.90	0.852
481.11	0.854
481.32	0.903
481.53	0.854
481.74	0.897
481.95	0.863
482.16	0.879
482.37	0.888
482.58	0.858
482.79	0.874
483.00	0.902
483.21	0.858
483.42	0.836
483.63	0.899
483.84	0.920
484.05	0.912
484.26	0.892
484.47	0.892
484.68	0.859
484.89	0.865
485.10	0.902
485.31	0.882
485.52	0.888
485.73	0.888
485.94	0.920
486.15	0.878
486.37	0.890
486.58	0.863
486.79	0.873
487.00	0.916
487.21	0.908
487.42	0.906
487.63	0.912
487.84	0.927
488.05	0.923
488.26	0.890
488.47	0.894
488.68	0.920
488.89	0.900
489.10	0.894
489.31	0.899
489.52	0.928
489.73	0.900
489.94	0.928
490.15	0.892
490.36	0.927
490.57	0.888
490.78	0.877
490.99	0.909
491.20	0.971
491.41	0.936
491.62	0.892
491.83	0.917
492.04	0.912
492.25	0.919
492.45	0.919
492.66	0.939
492.87	0.931
493.08	0.918
493.29	0.904
493.50	0.894
493.71	0.901
493.92	0.899
494.13	0.911
494.34	0.931
494.55	0.936
494.76	0.961
494.97	0.954
495.18	0.926
495.39	0.942
495.60	0.902
495.81	0.905
496.02	0.920
496.23	0.911
496.44	0.937
496.65	0.930
496.86	0.937
497.07	0.957
497.28	0.953
497.49	0.911
497.70	0.911
497.91	0.928
498.12	0.914
498.32	0.947
498.53	0.938
498.74	0.929
498.95	0.950
499.16	0.912
499.37	0.913
499.58	0.922
499.79	0.947
500.00	0.943
500.21	0.967
500.42	0.923
500.63	0.924
500.84	0.941
501.05	0.924
501.26	0.942
501.46	0.972
501.67	0.943
501.88	0.945
502.09	0.925
502.30	0.933
502.51	0.971
502.72	0.934
502.93	0.946
503.14	0.963
503.35	0.939
503.56	0.937
503.77	0.961
503.97	0.942
504.18	0.942
504.39	0.971
504.60	0.943
504.81	0.967
505.02	0.959
505.23	0.960
505.44	0.945
505.65	0.952
505.86	0.937
506.07	0.991
506.27	0.959
506.48	0.962
506.69	0.947
506.90	0.966
507.11	0.962
507.32	0.940
507.53	0.948
507.74	0.942
507.95	0.952
508.15	0.958
508.36	0.962
508.57	0.969
508.78	0.957
508.99	0.957
509.20	0.936
509.41	0.954
509.62	0.946
509.82	0.944
510.03	0.952
510.24	0.953
510.45	0.971
510.66	0.965
510.87	0.962
511.08	0.929
511.29	0.961
511.49	0.944
511.70	0.984
511.91	0.931
512.12	0.928
512.33	0.955
512.54	0.968
512.75	0.953
512.95	0.971
513.16	0.964
513.37	0.947
513.58	0.981
513.79	0.948
514.00	0.951
514.20	0.965
514.41	0.957
514.62	0.929
514.83	0.960
515.04	0.952
515.25	0.937
515.46	0.946
515.66	0.946
515.87	0.953
516.08	0.929
516.29	0.950
516.50	0.935
516.71	0.930
516.91	0.938
517.12	0.951
517.33	0.940
517.54	0.927
517.75	0.930
517.95	0.942
518.16	0.953
518.37	0.927
518.58	0.931
518.79	0.909
519.00	0.933
519.20	0.940
519.41	0.920
519.62	0.934
519.83	0.944
520.04	0.916
520.24	0.913
520.45	0.920
520.66	0.938
520.87	0.907
521.08	0.907
521.28	0.911
521.49	0.925
521.70	0.900
521.91	0.914
522.12	0.899
522.32	0.916
522.53	0.898
522.74	0.890
522.95	0.897
523.16	0.900
523.36	0.908
523.57	0.893
523.78	0.887
523.99	0.892
524.20	0.886
524.40	0.894
524.61	0.900
524.82	0.880
525.03	0.883
525.23	0.883
525.44	0.870
525.65	0.868
525.86	0.886
526.06	0.863
526.27	0.862
526.48	0.869
526.69	0.854
526.90	0.858
527.10	0.888
527.31	0.852
527.52	0.848
527.73	0.840
527.93	0.848
528.14	0.852
528.35	0.843
528.56	0.844
528.76	0.839
528.97	0.833
529.18	0.824
529.39	0.822
529.59	0.822
529.80	0.847
530.01	0.827
530.22	0.826
530.42	0.801
530.63	0.815
530.84	0.796
531.05	0.806
531.25	0.806
531.46	0.799
531.67	0.783
531.88	0.800
532.08	0.793
532.29	0.787
532.50	0.780
532.70	0.774
532.91	0.764
533.12	0.766
533.33	0.787
533.53	0.763
533.74	0.764
533.95	0.769
534.15	0.759
534.36	0.760
534.57	0.746
534.78	0.748
534.98	0.756
535.19	0.733
535.40	0.735
535.60	0.750
535.81	0.732
536.02	0.734
536.23	0.725
536.43	0.726
536.64	0.714
536.85	0.721
537.05	0.728
537.26	0.709
537.47	0.710
537.67	0.701
537.88	0.696
538.09	0.703
538.30	0.693
538.50	0.685
538.71	0.696
538.92	0.685
539.12	0.682
539.33	0.678
539.54	0.679
539.74	0.682
539.95	0.673
540.16	0.670
540.36	0.663
540.57	0.662
540.78	0.656
540.98	0.655
541.19	0.653
541.40	0.642
541.60	0.650
541.81	0.645
542.02	0.645
542.22	0.637
542.43	0.634
542.64	0.629
542.84	0.630
543.05	0.623
543.26	0.623
543.46	0.626
543.67	0.625
543.88	0.620
544.08	0.612
544.29	0.607
544.50	0.606
544.70	0.607
544.91	0.599
545.12	0.600
545.32	0.596
545.53	0.600
545.74	0.588
545.94	0.586
546.15	0.584
546.35	0.581
546.56	0.579
546.77	0.577
546.97	0.574
547.18	0.567
547.39	0.568
547.59	0.566
547.80	0.562
548.01	0.567
548.21	0.562
548.42	0.555
548.62	0.555
548.83	0.552
549.04	0.548
549.24	0.542
549.45	0.541
549.65	0.537
549.86	0.533
550.07	0.532
550.27	0.530
550.48	0.537
550.69	0.524
550.89	0.524
551.10	0.522
551.30	0.520
551.51	0.520
551.72	0.511
551.92	0.513
552.13	0.512
552.33	0.513
552.54	0.508
552.75	0.501
552.95	0.502
553.16	0.498
553.36	0.495
553.57	0.494
553.78	0.492
553.98	0.493
554.19	0.485
554.39	0.482
554.60	0.484
554.80	0.484
555.01	0.478
555.22	0.479
555.42	0.477
555.63	0.471
555.83	0.474
556.04	0.469
556.25	0.470
556.45	0.462
556.66	0.460
556.86	0.463
557.07	0.461
557.27	0.460
557.48	0.455
557.68	0.453
557.89	0.454
558.10	0.451
558.30	0.448
558.51	0.446
558.71	0.444
558.92	0.440
559.12	0.442
559.33	0.445
559.54	0.441
559.74	0.436
559.95	0.434
560.15	0.433
560.36	0.431
560.56	0.425
560.77	0.425
560.97	0.425
561.18	0.420
561.38	0.419
561.59	0.421
561.79	0.417
562.00	0.415
562.21	0.412
562.41	0.411
562.62	0.410
562.82	0.409
563.03	0.406
563.23	0.405
563.44	0.405
563.64	0.402
563.85	0.404
564.05	0.398
564.26	0.398
564.46	0.397
564.67	0.398
564.87	0.394
565.08	0.391
565.28	0.392
565.49	0.392
565.69	0.389
565.90	0.386
566.10	0.388
566.31	0.381
566.51	0.384
566.72	0.384
566.92	0.378
567.13	0.378
567.33	0.376
567.54	0.375
567.74	0.374
567.95	0.370
568.15	0.371
568.36	0.371
568.56	0.370
568.77	0.366
568.97	0.365
569.18	0.365
569.38	0.363
569.59	0.364
569.79	0.362
570.00	0.360
570.20	0.359
570.41	0.358
570.61	0.357
570.82	0.358
571.02	0.354
571.23	0.355
571.43	0.351
571.64	0.350
571.84	0.349
572.05	0.348
572.25	0.347
572.45	0.344
572.66	0.341
572.86	0.340
573.07	0.339
573.27	0.339
573.48	0.338
573.68	0.334
573.89	0.334
574.09	0.334
574.30	0.332
574.50	0.331
574.70	0.331
574.91	0.329
575.11	0.329
575.32	0.328
575.52	0.325
575.73	0.324
575.93	0.324
576.14	0.323
576.34	0.321
576.54	0.320
576.75	0.318
576.95	0.317
577.16	0.316
577.36	0.315
577.57	0.315
577.77	0.313
577.97	0.310
578.18	0.312
578.38	0.309
578.59	0.308
578.79	0.306
579.00	0.307
579.20	0.305
579.40	0.304
579.61	0.304
579.81	0.303
580.02	0.300
580.22	0.300
580.42	0.299
580.63	0.299
580.83	0.298
581.04	0.296
581.24	0.296
581.45	0.295
581.65	0.295
581.85	0.293
582.06	0.291
582.26	0.292
582.47	0.290
582.67	0.289
582.87	0.289
583.08	0.287
583.28	0.287
583.48	0.285
583.69	0.282
583.89	0.283
584.10	0.284
584.30	0.281
584.50	0.280
584.71	0.279
584.91	0.279
585.12	0.277
585.32	0.278
585.52	0.275
585.73	0.275
585.93	0.275
586.13	0.274
586.34	0.273
586.54	0.272
586.75	0.271
586.95	0.270
587.15	0.270
587.36	0.269
587.56	0.268
587.76	0.267
587.97	0.266
588.17	0.265
588.37	0.265
588.58	0.265
588.78	0.263
588.98	0.264
589.19	0.262
589.39	0.261
589.60	0.263
589.80	0.260
590.00	0.259
590.21	0.259
590.41	0.257
590.61	0.257
590.82	0.256
591.02	0.255
591.22	0.254
591.43	0.254
591.63	0.252
591.83	0.252
592.04	0.250
592.24	0.251
592.44	0.249
592.65	0.247
592.85	0.248
593.05	0.248
593.26	0.246
593.46	0.246
593.66	0.246
593.86	0.245
594.07	0.243
594.27	0.243
594.47	0.242
594.68	0.241
594.88	0.242
595.08	0.241
595.29	0.241
595.49	0.239
595.69	0.239
595.90	0.238
596.10	0.238
596.30	0.237
596.50	0.236
596.71	0.236
596.91	0.235
597.11	0.235
597.32	0.234
597.52	0.233
597.72	0.232
597.93	0.232
598.13	0.230
598.33	0.231
598.53	0.230
598.74	0.229
598.94	0.229
599.14	0.228
599.35	0.228
599.55	0.229
599.75	0.228
599.95	0.227
600.16	0.227
600.36	0.225
600.56	0.225
600.76	0.224
600.97	0.223
601.17	0.222
601.37	0.222
601.58	0.221
601.78	0.221
601.98	0.220
602.18	0.219
602.39	0.219
602.59	0.219
602.79	0.218
602.99	0.218
603.20	0.217
603.40	0.218
603.60	0.217
603.80	0.217
604.01	0.216
604.21	0.215
604.41	0.215
604.61	0.213
604.82	0.213
605.02	0.213
605.22	0.212
605.42	0.212
605.62	0.212
605.83	0.211
606.03	0.210
606.23	0.211
606.43	0.210
606.64	0.210
606.84	0.209
607.04	0.209
607.24	0.209
607.45	0.209
607.65	0.207
607.85	0.208
608.05	0.207
608.25	0.207
608.46	0.207
608.66	0.207
608.86	0.206
609.06	0.205
609.26	0.204
609.47	0.204
609.67	0.203
609.87	0.204
610.07	0.203
610.28	0.201
610.48	0.201
610.68	0.201
610.88	0.200
611.08	0.200
611.29	0.199
611.49	0.199
611.69	0.200
611.89	0.198
612.09	0.197
612.29	0.197
612.50	0.197
612.70	0.197
612.90	0.196
613.10	0.196
613.30	0.195
613.51	0.195
613.71	0.195
613.91	0.199
614.11	0.194
614.31	0.194
614.51	0.194
614.72	0.193
614.92	0.193
615.12	0.193
615.32	0.194
615.52	0.193
615.72	0.193
615.93	0.193
616.13	0.192
616.33	0.192
616.53	0.191
616.73	0.191
616.93	0.190
617.14	0.191
617.34	0.190
617.54	0.190
617.74	0.190
617.94	0.189
618.14	0.188
618.34	0.187
618.55	0.187
618.75	0.188
618.95	0.188
619.15	0.187
619.35	0.186
619.55	0.185
619.75	0.186
619.96	0.185
620.16	0.185
620.36	0.185
620.56	0.185
620.76	0.185
620.96	0.184
621.16	0.184
621.36	0.184
621.57	0.184
621.77	0.184
621.97	0.183
622.17	0.182
622.37	0.182
622.57	0.182
622.77	0.181
622.97	0.180
623.18	0.180
623.38	0.181
623.58	0.180
623.78	0.179
623.98	0.179
624.18	0.179
624.38	0.179
624.58	0.179
624.78	0.179
624.98	0.179
625.19	0.179
625.39	0.179
625.59	0.178
625.79	0.178
625.99	0.177
626.19	0.177
626.39	0.177
626.59	0.176
626.79	0.176
626.99	0.176
627.19	0.175
627.40	0.175
627.60	0.175
627.80	0.175
628.00	0.175
628.20	0.174
628.40	0.173
628.60	0.173
628.80	0.172
629.00	0.172
629.20	0.172
629.40	0.172
629.60	0.171
629.80	0.172
630.00	0.172
630.20	0.171
630.41	0.171
630.61	0.171
630.81	0.170
631.01	0.171
631.21	0.170
631.41	0.170
631.61	0.171
631.81	0.170
632.01	0.170
632.21	0.170
632.41	0.168
632.61	0.168
632.81	0.169
633.01	0.169
633.21	0.169
633.41	0.169
633.61	0.168
633.81	0.167
634.01	0.167
634.21	0.167
634.41	0.166
634.61	0.167
634.81	0.166
635.01	0.166
635.22	0.166
635.42	0.166
635.62	0.166
635.82	0.166
636.02	0.165
636.22	0.165
636.42	0.164
636.62	0.165
636.82	0.164
637.02	0.164
637.22	0.164
637.42	0.164
637.62	0.162
637.82	0.163
638.02	0.162
638.22	0.162
638.42	0.162
638.62	0.161
638.82	0.161
639.02	0.161
639.22	0.161
639.42	0.160
639.62	0.160
639.82	0.160
640.02	0.160
640.22	0.160
640.42	0.159
640.62	0.159
640.82	0.160
641.02	0.159
641.22	0.160
641.42	0.159
641.61	0.159
641.81	0.159
642.01	0.158
642.21	0.158
642.41	0.158
642.61	0.158
642.81	0.157
643.01	0.157
643.21	0.157
643.41	0.156
643.61	0.156
643.81	0.156
644.01	0.154
644.21	0.154
644.41	0.154
644.61	0.154
644.81	0.154
645.01	0.154
645.21	0.154
645.41	0.154
645.61	0.154
645.81	0.153
646.01	0.153
646.21	0.153
646.40	0.153
646.60	0.153
646.80	0.154
647.00	0.153
647.20	0.152
647.40	0.152
647.60	0.151
647.80	0.151
648.00	0.151
648.20	0.151
648.40	0.151
648.60	0.150
648.80	0.150
649.00	0.150
649.20	0.151
649.39	0.150
649.59	0.149
649.79	0.150
649.99	0.150
650.19	0.149
650.39	0.149
650.59	0.149
650.79	0.148
650.99	0.148
651.19	0.147
651.39	0.147
651.58	0.147
651.78	0.146
651.98	0.146
652.18	0.146
652.38	0.146
652.58	0.146
652.78	0.145
652.98	0.145
653.18	0.145
653.38	0.145
653.57	0.145
653.77	0.145
653.97	0.145
654.17	0.145
654.37	0.144
654.57	0.144
654.77	0.144
654.97	0.144
655.16	0.144
655.36	0.143
655.56	0.143
655.76	0.142
655.96	0.143
656.16	0.142
656.36	0.142
656.56	0.141
656.75	0.141
656.95	0.141
657.15	0.141
657.35	0.140
657.55	0.140
657.75	0.140
657.95	0.140
658.14	0.139
658.34	0.140
658.54	0.139
658.74	0.139
658.94	0.139
659.14	0.139
659.34	0.138
659.53	0.138
659.73	0.138
659.93	0.138
660.13	0.138
660.33	0.137
660.53	0.137
660.72	0.137
660.92	0.137
661.12	0.136
661.32	0.136
661.52	0.136
661.72	0.136
661.91	0.135
662.11	0.135
662.31	0.135
662.51	0.135
662.71	0.134
662.90	0.134
663.10	0.134
663.30	0.134
663.50	0.134
663.70	0.134
663.90	0.133
664.09	0.133
664.29	0.133
664.49	0.132
664.69	0.132
664.89	0.132
665.08	0.132
665.28	0.131
665.48	0.131
665.68	0.130
665.88	0.130
666.07	0.130
666.27	0.130
666.47	0.130
666.67	0.131
666.87	0.131
667.06	0.130
667.26	0.130
667.46	0.130
667.66	0.130
667.85	0.130
668.05	0.130
668.25	0.130
668.45	0.129
668.65	0.129
668.84	0.129
669.04	0.128
669.24	0.128
669.44	0.127
669.63	0.127
669.83	0.127
670.03	0.125
670.23	0.125
670.42	0.125
670.62	0.124
670.82	0.124
671.02	0.124
671.22	0.123
671.41	0.123
671.61	0.124
671.81	0.124
672.01	0.124
672.20	0.124
672.40	0.123
672.60	0.123
672.80	0.123
672.99	0.123
673.19	0.123
673.39	0.123
673.58	0.122
673.78	0.122
673.98	0.121
674.18	0.121
674.37	0.121
674.57	0.121
674.77	0.121
674.97	0.121
675.16	0.121
675.36	0.120
675.56	0.120
675.75	0.120
675.95	0.119
676.15	0.119
676.35	0.119
676.54	0.119
676.74	0.118
676.94	0.118
677.13	0.118
677.33	0.117
677.53	0.118
677.73	0.118
677.92	0.117
678.12	0.117
678.32	0.117
678.51	0.117
678.71	0.117
678.91	0.117
679.11	0.116
679.30	0.117
679.50	0.116
679.70	0.116
679.89	0.116
680.09	0.116
680.29	0.115
680.48	0.115
680.68	0.115
680.88	0.115
681.07	0.115
681.27	0.115
681.47	0.114
681.66	0.114
681.86	0.114
682.06	0.114
682.25	0.113
682.45	0.113
682.65	0.112
682.84	0.112
683.04	0.111
683.24	0.111
683.43	0.112
683.63	0.111
683.83	0.111
684.02	0.111
684.22	0.111
684.42	0.111
684.61	0.111
684.81	0.111
685.01	0.111
685.20	0.110
685.40	0.110
685.60	0.110
685.79	0.110
685.99	0.110
686.19	0.110
686.38	0.109
686.58	0.110
686.77	0.110
686.97	0.109
687.17	0.109
687.36	0.109
687.56	0.109
687.76	0.108
687.95	0.108
688.15	0.108
688.34	0.108
688.54	0.107
688.74	0.107
688.93	0.107
689.13	0.107
689.33	0.107
689.52	0.106
689.72	0.107
689.91	0.106
690.11	0.106
690.31	0.105
690.50	0.106
690.70	0.106
690.89	0.105
691.09	0.105
691.29	0.105
691.48	0.105
691.68	0.104
691.87	0.105
692.07	0.105
692.27	0.104
692.46	0.105
692.66	0.104
692.85	0.104
693.05	0.104
693.25	0.104
693.44	0.104
693.64	0.103
693.83	0.103
694.03	0.103
694.22	0.102
694.42	0.102
694.62	0.102
694.81	0.102
695.01	0.102
695.20	0.101
695.40	0.101
695.59	0.101
695.79	0.101
695.99	0.101
696.18	0.101
696.38	0.101
696.57	0.101
696.77	0.101
696.96	0.102
697.16	0.101
697.36	0.101
697.55	0.101
697.75	0.101
697.94	0.100
698.14	0.100
698.33	0.100
698.53	0.100
698.72	0.100
698.92	0.099
699.11	0.099
699.31	0.099
699.51	0.099
699.70	0.098
699.90	0.098
700.09	0.098
700.29	0.097
700.48	0.098
700.68	0.097
700.87	0.097
701.07	0.097
701.26	0.096
701.46	0.096
701.65	0.096
701.85	0.096
702.04	0.096
702.24	0.096
702.43	0.096
702.63	0.096
702.82	0.096
703.02	0.096
703.21	0.096
703.41	0.096
703.60	0.096
703.80	0.096
703.99	0.096
704.19	0.095
704.38	0.095
704.58	0.095
704.77	0.095
704.97	0.094
705.16	0.095
705.36	0.095
705.55	0.095
705.75	0.095
705.94	0.095
706.14	0.094
706.33	0.095
706.53	0.095
706.72	0.095
706.92	0.094
707.11	0.094
707.31	0.094
707.50	0.093
707.70	0.094
707.89	0.094
708.09	0.093
708.28	0.093
708.48	0.093
708.67	0.093
708.86	0.093
709.06	0.093
709.25	0.093
709.45	0.092
709.64	0.092
709.84	0.092
710.03	0.091
710.23	0.091
710.42	0.091
710.62	0.091
710.81	0.091
711.00	0.091
711.20	0.091
711.39	0.090
711.59	0.090
711.78	0.091
711.98	0.091
712.17	0.091
712.37	0.091
712.56	0.092
712.75	0.092
712.95	0.091
713.14	0.091
713.34	0.092
713.53	0.092
713.73	0.092
713.92	0.092
714.11	0.092
714.31	0.091
714.50	0.091
714.70	0.091
714.89	0.091
715.08	0.091
715.28	0.091
715.47	0.091
715.67	0.091
715.86	0.091
716.06	0.091
716.25	0.090
716.44	0.090
716.64	0.090
716.83	0.090
717.03	0.090
717.22	0.089
717.41	0.089
717.61	0.089
717.80	0.089
717.99	0.089
718.19	0.089
718.38	0.089
718.58	0.088
718.77	0.088
718.96	0.088
719.16	0.088
719.35	0.089
719.55	0.089
719.74	0.088
719.93	0.088
720.13	0.088
720.32	0.088
720.51	0.088
720.71	0.088
720.90	0.088
721.10	0.088
721.29	0.087
721.48	0.087
721.68	0.087
721.87	0.087
722.06	0.087
722.26	0.087
722.45	0.087
722.64	0.087
722.84	0.087
723.03	0.087
723.22	0.088
723.42	0.088
723.61	0.088
723.80	0.088
724.00	0.088
724.19	0.088
724.38	0.088
724.58	0.088
724.77	0.088
724.96	0.087
725.16	0.087
725.35	0.087
725.54	0.087
725.74	0.087
725.93	0.087
726.12	0.087
726.32	0.087
726.51	0.087
726.70	0.087
726.90	0.087
727.09	0.087
727.28	0.087
727.48	0.087
727.67	0.087
727.86	0.086
728.06	0.086
728.25	0.087
728.44	0.087
728.64	0.087
728.83	0.087
729.02	0.087
729.21	0.087
729.41	0.087
729.60	0.087
729.79	0.087
729.99	0.087
730.18	0.087
730.37	0.087
730.56	0.087
730.76	0.086
730.95	0.087
731.14	0.086
731.34	0.086
731.53	0.087
731.72	0.086
731.91	0.087
732.11	0.087
732.30	0.087
732.49	0.087
732.69	0.087
732.88	0.087
733.07	0.087
733.26	0.087
733.46	0.087
733.65	0.087
733.84	0.087
734.03	0.087
734.23	0.087
734.42	0.087
734.61	0.087
734.80	0.087
735.00	0.087
735.19	0.087
735.38	0.087
735.57	0.087
735.77	0.086
735.96	0.086
736.15	0.086
736.34	0.086
736.54	0.086
736.73	0.086
736.92	0.086
737.11	0.087
737.31	0.086
737.50	0.087
737.69	0.087
737.88	0.087
738.07	0.087
738.27	0.087
738.46	0.087
738.65	0.087
738.84	0.087
739.04	0.087
739.23	0.087
739.42	0.087
739.61	0.087
739.80	0.086
740.00	0.086
740.19	0.086
740.38	0.086
740.57	0.086
740.76	0.085
740.96	0.086
741.15	0.086
741.34	0.085
741.53	0.085
741.72	0.085
741.92	0.085
742.11	0.085
742.30	0.085
742.49	0.085
742.68	0.085
742.88	0.086
743.07	0.085
743.26	0.085
743.45	0.085
743.64	0.085
743.84	0.085
744.03	0.085
744.22	0.085
744.41	0.084
744.60	0.084
744.79	0.084
744.99	0.084
745.18	0.084
745.37	0.084
745.56	0.083
745.75	0.083
745.94	0.083
746.14	0.083
746.33	0.084
746.52	0.084
746.71	0.084
746.90	0.084
747.09	0.085
747.28	0.084
747.48	0.084
747.67	0.084
747.86	0.084
748.05	0.084
748.24	0.084
748.43	0.084
748.62	0.083
748.82	0.083
749.01	0.083
749.20	0.083
749.39	0.083
749.58	0.083
749.77	0.083
749.96	0.082
750.16	0.082
750.35	0.082
750.54	0.082
750.73	0.082
750.92	0.082
751.11	0.082
751.30	0.082
751.49	0.082
751.68	0.082
751.88	0.082
752.07	0.082
752.26	0.082
752.45	0.082
752.64	0.082
752.83	0.082
753.02	0.082
753.21	0.082
753.40	0.081
753.60	0.082
753.79	0.082
753.98	0.082
754.17	0.081
754.36	0.081
754.55	0.081
754.74	0.081
754.93	0.081
755.12	0.081
755.31	0.081
755.50	0.081
755.70	0.081
755.89	0.080
756.08	0.081
756.27	0.080
756.46	0.081
756.65	0.080
756.84	0.080
757.03	0.080
757.22	0.079
757.41	0.079
757.60	0.079
757.79	0.079
757.98	0.079
758.17	0.079
758.36	0.080
758.56	0.079
758.75	0.079
758.94	0.079
759.13	0.079
759.32	0.079
759.51	0.079
759.70	0.079
759.89	0.079
760.08	0.079
760.27	0.079
760.46	0.079
760.65	0.079
760.84	0.079
761.03	0.079
761.22	0.079
761.41	0.079
761.60	0.079
761.79	0.079
761.98	0.079
762.17	0.079
762.36	0.079
762.55	0.079
762.74	0.079
762.93	0.079
763.12	0.079
763.31	0.078
763.50	0.078
763.69	0.078
763.88	0.078
764.07	0.078
764.26	0.078
764.45	0.078
764.64	0.078
764.83	0.078
765.02	0.078
765.21	0.078
765.40	0.078
765.59	0.078
765.78	0.078
765.97	0.078
766.16	0.078
766.35	0.078
766.54	0.078
766.73	0.078
766.92	0.078
767.11	0.078
767.30	0.078
767.49	0.078
767.68	0.077
767.87	0.077
768.06	0.077
768.25	0.077
768.44	0.077
768.63	0.077
768.82	0.077
769.01	0.076
769.20	0.076
769.39	0.077
769.58	0.077
769.77	0.077
769.96	0.077
770.15	0.077
770.34	0.077
770.53	0.077
770.72	0.077
770.91	0.076
771.10	0.076
771.29	0.076
771.47	0.076
771.66	0.075
771.85	0.075
772.04	0.076
772.23	0.075
772.42	0.075
772.61	0.076
772.80	0.076
772.99	0.076
773.18	0.076
773.37	0.077
773.56	0.076
773.75	0.077
773.94	0.077
774.13	0.076
774.31	0.076
774.50	0.077
774.69	0.076
774.88	0.076
775.07	0.076
775.26	0.076
775.45	0.075
775.64	0.076
775.83	0.075
776.02	0.075
776.21	0.075
776.40	0.075
776.58	0.075
776.77	0.075
776.96	0.075
777.15	0.075
777.34	0.075
777.53	0.075
777.72	0.075
777.91	0.075
778.10	0.075
778.28	0.075
778.47	0.075
778.66	0.075
778.85	0.075
779.04	0.075
779.23	0.075
779.42	0.075
779.61	0.074
779.79	0.074
779.98	0.074
780.17	0.074
780.36	0.074
780.55	0.073
780.74	0.073
780.93	0.073
781.12	0.074
781.30	0.074
781.49	0.074
781.68	0.074
781.87	0.074
782.06	0.074
782.25	0.074
782.44	0.074
782.62	0.074
782.81	0.075
783.00	0.074
783.19	0.074
783.38	0.074
783.57	0.074
783.75	0.074
783.94	0.074
784.13	0.073
784.32	0.073
784.51	0.073
784.70	0.073
784.88	0.073
785.07	0.073
785.26	0.073
785.45	0.073
785.64	0.072
785.83	0.073
786.01	0.072
786.20	0.073
786.39	0.073
786.58	0.073
786.77	0.072
786.95	0.072
787.14	0.072
787.33	0.073
787.52	0.072
787.71	0.072
787.90	0.072
788.08	0.072
788.27	0.072
788.46	0.072
788.65	0.072
788.84	0.072
789.02	0.072
789.21	0.073
789.40	0.072
789.59	0.072
789.77	0.073
789.96	0.072
790.15	0.073
790.34	0.073
790.53	0.073
790.71	0.072
790.90	0.072
791.09	0.072
791.28	0.072
791.46	0.073
791.65	0.072
791.84	0.072
792.03	0.072
792.22	0.071
792.40	0.071
792.59	0.071
792.78	0.071
792.97	0.072
793.15	0.072
793.34	0.071
793.53	0.071
793.72	0.071
793.90	0.071
794.09	0.071
794.28	0.071
794.47	0.071
794.65	0.071
794.84	0.071
795.03	0.071
795.22	0.071
795.40	0.071
795.59	0.070
795.78	0.071
795.97	0.071
796.15	0.071
796.34	0.071
796.53	0.071
796.71	0.072
796.90	0.071
797.09	0.072
797.28	0.071
797.46	0.071
797.65	0.071
797.84	0.071
798.02	0.071
798.21	0.070
798.40	0.070
798.59	0.070
798.77	0.070
798.96	0.070
799.15	0.069
799.33	0.070
799.52	0.069
799.71	0.070
799.90	0.070
800.08	0.070
800.27	0.070
800.46	0.070
800.64	0.070
800.83	0.070
801.02	0.070
801.20	0.070
801.39	0.070
801.58	0.070
801.76	0.070
801.95	0.070
802.14	0.070
802.32	0.070
802.51	0.070
802.70	0.069
802.88	0.069
803.07	0.069
803.26	0.069
803.44	0.068
803.63	0.068
803.82	0.068
804.00	0.068
804.19	0.068
804.38	0.068
804.56	0.068
804.75	0.069
804.94	0.069
805.12	0.069
805.31	0.069
805.50	0.069
805.68	0.069
805.87	0.069
806.06	0.069
806.24	0.069
806.43	0.069
806.62	0.069
806.80	0.069
806.99	0.069
807.17	0.069
807.36	0.069
807.55	0.070
807.73	0.069
807.92	0.070
808.11	0.070
808.29	0.069
808.48	0.069
808.66	0.069
808.85	0.069
809.04	0.069
809.22	0.068
809.41	0.069
809.59	0.068
809.78	0.068
809.97	0.068
810.15	0.068
810.34	0.068
810.53	0.068
810.71	0.068
810.90	0.068
811.08	0.068
811.27	0.068
811.45	0.068
811.64	0.068
811.83	0.068
812.01	0.068
812.20	0.068
812.38	0.068
812.57	0.069
812.76	0.069
812.94	0.069
813.13	0.069
813.31	0.069
813.50	0.069
813.68	0.069
813.87	0.068
814.06	0.068
814.24	0.068
814.43	0.068
814.61	0.068
814.80	0.067
814.98	0.068
815.17	0.068
815.36	0.067
815.54	0.068
815.73	0.067
815.91	0.068
816.10	0.068
816.28	0.068
816.47	0.067
816.65	0.068
816.84	0.068
817.03	0.068
817.21	0.068
817.40	0.068
817.58	0.068
817.77	0.069
817.95	0.069
818.14	0.069
818.32	0.068
818.51	0.069
818.69	0.069
818.88	0.069
819.06	0.069
819.25	0.069
819.43	0.069
819.62	0.069
819.80	0.068
819.99	0.069
820.18	0.068
820.36	0.068
820.55	0.069
820.73	0.068
820.92	0.068
821.10	0.068
821.29	0.068
821.47	0.068
821.66	0.068
821.84	0.068
822.03	0.068
822.21	0.068
822.40	0.068
822.58	0.068
822.77	0.068
822.95	0.069
823.14	0.069
823.32	0.069
823.50	0.069
823.69	0.069
823.87	0.069
824.06	0.070
824.24	0.070
824.43	0.070
824.61	0.070
824.80	0.070
824.98	0.070
825.17	0.071
825.35	0.071
825.54	0.071
825.72	0.070
825.91	0.070
826.09	0.070
826.28	0.070
826.46	0.071
826.64	0.070
826.83	0.071
827.01	0.070
827.20	0.070
827.38	0.070
827.57	0.071
827.75	0.070
827.94	0.071
828.12	0.071
828.31	0.071
828.49	0.071
828.67	0.071
828.86	0.071
829.04	0.071
829.23	0.071
829.41	0.071
829.60	0.071
829.78	0.072
829.96	0.072
830.15	0.073
830.33	0.073
830.52	0.073
830.70	0.073
830.88	0.073
831.07	0.073
831.25	0.073
831.44	0.073
831.62	0.073
831.81	0.073
831.99	0.073
832.17	0.073
832.36	0.073
832.54	0.073
832.73	0.073
832.91	0.073
833.09	0.073
833.28	0.073
833.46	0.074
833.65	0.074
833.83	0.074
834.01	0.074
834.20	0.074
834.38	0.074
834.56	0.074
834.75	0.074
834.93	0.074
835.12	0.074
835.30	0.074
835.48	0.074
835.67	0.074
835.85	0.074
836.03	0.074
836.22	0.074
836.40	0.075
836.59	0.075
836.77	0.074
836.95	0.075
837.14	0.075
837.32	0.075
837.50	0.075
837.69	0.075
837.87	0.075
838.05	0.075
838.24	0.075
838.42	0.075
838.60	0.075
838.79	0.076
838.97	0.075
839.15	0.075
839.34	0.075
839.52	0.075
839.70	0.075
839.89	0.075
840.07	0.075
840.25	0.076
840.44	0.075
840.62	0.075
840.80	0.075
840.99	0.075
841.17	0.075
841.35	0.075
841.54	0.076
841.72	0.076
841.90	0.076
842.09	0.076
842.27	0.076
842.45	0.076
842.64	0.076
842.82	0.076
843.00	0.076
843.19	0.076
843.37	0.076
843.55	0.076
843.73	0.076
843.92	0.075
844.10	0.075
844.28	0.076
844.47	0.076
844.65	0.076
844.83	0.076
845.01	0.076
845.20	0.076
845.38	0.077
845.56	0.077
845.75	0.076
845.93	0.077
846.11	0.076
846.29	0.076
846.48	0.076
846.66	0.076
846.84	0.076
847.02	0.076
847.21	0.075
847.39	0.075
847.57	0.075
847.76	0.076
847.94	0.076
848.12	0.076
848.30	0.076
848.49	0.077
848.67	0.077
848.85	0.077
849.03	0.077
849.22	0.077
849.40	0.077
849.58	0.077
849.76	0.077
849.95	0.077
850.13	0.077
850.31	0.077
850.49	0.077
850.67	0.078
850.86	0.077
851.04	0.077
851.22	0.077
851.40	0.077
851.59	0.077
851.77	0.077
851.95	0.077
852.13	0.077
852.31	0.077
852.50	0.077
852.68	0.077
852.86	0.077
853.04	0.077
853.23	0.077
853.41	0.077
853.59	0.076
853.77	0.077
853.95	0.077
854.14	0.077
854.32	0.077
854.50	0.077
854.68	0.077
854.86	0.077
855.04	0.077
855.23	0.077
855.41	0.077
855.59	0.077
855.77	0.078
855.95	0.078
856.14	0.078
856.32	0.078
856.50	0.078
856.68	0.078
856.86	0.078
857.04	0.078
857.23	0.078
857.41	0.077
857.59	0.078
857.77	0.077
857.95	0.077
858.13	0.077
858.32	0.077
858.50	0.077
858.68	0.077
858.86	0.077
859.04	0.077
859.22	0.077
859.41	0.077
859.59	0.077
859.77	0.077
859.95	0.077
860.13	0.077
860.31	0.077
860.49	0.077
860.68	0.077
860.86	0.078
861.04	0.078
861.22	0.078
861.40	0.078
861.58	0.078
861.76	0.078
861.94	0.078
862.13	0.078
862.31	0.078
862.49	0.078
862.67	0.078
862.85	0.078
863.03	0.078
863.21	0.078
863.39	0.078
863.57	0.078
863.76	0.078
863.94	0.078
864.12	0.078
864.30	0.078
864.48	0.078
864.66	0.078
864.84	0.078
865.02	0.078
865.20	0.079
865.38	0.079
865.57	0.079
865.75	0.079
865.93	0.079
866.11	0.079
866.29	0.079
866.47	0.080
866.65	0.079
866.83	0.079
867.01	0.079
867.19	0.079
867.37	0.078
867.55	0.078
867.73	0.079
867.92	0.078
868.10	0.079
868.28	0.078
868.46	0.078
868.64	0.078
868.82	0.079
869.00	0.079
869.18	0.079
869.36	0.079
869.54	0.079
869.72	0.079
869.90	0.079
870.08	0.079
870.26	0.079
870.44	0.079
870.62	0.079
870.80	0.079
870.98	0.079
871.16	0.079
871.34	0.079
871.53	0.079
871.71	0.079
871.89	0.079
872.07	0.079
872.25	0.079
872.43	0.079
872.61	0.079
872.79	0.080
872.97	0.080
873.15	0.080
873.33	0.080
873.51	0.080
873.69	0.080
873.87	0.080
874.05	0.080
874.23	0.080
874.41	0.080
874.59	0.081
874.77	0.080
874.95	0.080
875.13	0.080
875.31	0.080
875.49	0.080
875.67	0.080
875.85	0.080
876.03	0.080
876.21	0.080
876.39	0.080
876.57	0.080
876.75	0.081
876.93	0.080
877.11	0.080
877.29	0.080
877.47	0.080
877.65	0.080
877.82	0.080
878.00	0.080
878.18	0.081
878.36	0.081
878.54	0.081
878.72	0.081
878.90	0.081
879.08	0.082
879.26	0.082
879.44	0.082
879.62	0.082
879.80	0.082
879.98	0.082
880.16	0.082
880.34	0.082
880.52	0.082
880.70	0.082
880.88	0.082
881.06	0.082
881.24	0.082
881.42	0.082
881.59	0.081
881.77	0.081
881.95	0.081
882.13	0.081
882.31	0.081
882.49	0.081
882.67	0.082
882.85	0.081
883.03	0.081
883.21	0.082
883.39	0.081
883.57	0.082
883.75	0.082
883.92	0.082
884.10	0.082
884.28	0.082
884.46	0.082
884.64	0.082
884.82	0.082
885.00	0.082
885.18	0.082
885.36	0.082
885.54	0.082
885.71	0.082
885.89	0.083
886.07	0.083
886.25	0.083
886.43	0.083
886.61	0.083
886.79	0.083
886.97	0.083
887.15	0.083
887.32	0.083
887.50	0.083
887.68	0.083
887.86	0.083
888.04	0.083
888.22	0.083
888.40	0.083
888.57	0.083
888.75	0.083
888.93	0.083
889.11	0.083
889.29	0.084
889.47	0.084
889.65	0.084
889.82	0.084
890.00	0.084
890.18	0.084
890.36	0.084
890.54	0.084
890.72	0.084
890.90	0.084
891.07	0.084
891.25	0.084
891.43	0.083
891.61	0.083
891.79	0.083
891.97	0.083
892.14	0.083
892.32	0.083
892.50	0.083
892.68	0.083
892.86	0.083
893.03	0.083
893.21	0.084
893.39	0.084
893.57	0.084
893.75	0.084
893.93	0.085
894.10	0.085
894.28	0.085
894.46	0.085
894.64	0.085
894.82	0.085
894.99	0.085
895.17	0.085
895.35	0.085
895.53	0.085
895.71	0.085
895.88	0.085
896.06	0.085
896.24	0.085
896.42	0.085
896.59	0.085
896.77	0.085
896.95	0.085
897.13	0.085
897.31	0.086
897.48	0.085
897.66	0.086
897.84	0.085
898.02	0.085
898.19	0.085
898.37	0.086
898.55	0.086
898.73	0.086
898.91	0.086
899.08	0.086
899.26	0.086
899.44	0.086
899.62	0.086
899.79	0.086
899.97	0.086
900.15	0.086
900.33	0.086
900.50	0.086
900.68	0.085
900.86	0.086
901.04	0.086
901.21	0.086
901.39	0.086
901.57	0.086
901.74	0.086
901.92	0.086
902.10	0.087
902.28	0.086
902.45	0.087
902.63	0.087
902.81	0.087
902.99	0.087
903.16	0.087
903.34	0.087
903.52	0.087
903.69	0.087
903.87	0.087
904.05	0.087
904.22	0.088
904.40	0.088
904.58	0.087
904.76	0.088
904.93	0.087
905.11	0.088
905.29	0.088
905.46	0.088
905.64	0.088
905.82	0.088
905.99	0.087
906.17	0.088
906.35	0.088
906.53	0.088
906.70	0.088
906.88	0.088
907.06	0.088
907.23	0.088
907.41	0.088
907.59	0.088
907.76	0.088
907.94	0.088
908.12	0.088
908.29	0.088
908.47	0.088
908.65	0.089
908.82	0.089
909.00	0.089
909.18	0.089
909.35	0.089
909.53	0.089
909.71	0.089
909.88	0.089
910.06	0.089
910.23	0.090
910.41	0.090
910.59	0.090
910.76	0.089
910.94	0.089
911.12	0.089
911.29	0.090
911.47	0.090
911.65	0.090
911.82	0.090
912.00	0.091
912.17	0.090
912.35	0.091
912.53	0.091
912.70	0.091
912.88	0.091
913.06	0.091
913.23	0.091
913.41	0.091
913.58	0.092
913.76	0.091
913.94	0.091
914.11	0.092
914.29	0.092
914.46	0.092
914.64	0.092
914.82	0.092
914.99	0.092
915.17	0.092
915.34	0.092
915.52	0.092
915.70	0.093
915.87	0.093
916.05	0.093
916.22	0.093
916.40	0.093
916.57	0.093
916.75	0.093
916.93	0.094
917.10	0.093
917.28	0.094
917.45	0.093
917.63	0.093
917.80	0.094
917.98	0.094
918.16	0.094
918.33	0.095
918.51	0.095
918.68	0.094
918.86	0.095
919.03	0.095
919.21	0.095
919.39	0.095
919.56	0.096
919.74	0.096
919.91	0.096
920.09	0.096
920.26	0.096
920.44	0.096
920.61	0.096
920.79	0.097
920.96	0.096
921.14	0.097
921.31	0.097
921.49	0.097
921.67	0.098
921.84	0.098
922.02	0.098
922.19	0.098
922.37	0.099
922.54	0.099
922.72	0.099
922.89	0.100
923.07	0.100
923.24	0.100
923.42	0.100
923.59	0.101
923.77	0.101
923.94	0.101
924.12	0.101
924.29	0.101
924.47	0.101
924.64	0.102
924.82	0.101
924.99	0.102
925.17	0.103
925.34	0.103
925.52	0.103
925.69	0.104
925.87	0.104
926.04	0.104
926.22	0.105
926.39	0.105
926.57	0.105
926.74	0.105
926.91	0.106
927.09	0.106
927.26	0.106
927.44	0.106
927.61	0.107
927.79	0.107
927.96	0.108
928.14	0.108
928.31	0.108
928.49	0.109
928.66	0.109
928.84	0.110
929.01	0.111
929.18	0.111
929.36	0.112
929.53	0.112
929.71	0.112
929.88	0.113
930.06	0.113
930.23	0.114
930.41	0.114
930.58	0.114
930.75	0.114
930.93	0.115
931.10	0.115
931.28	0.116
931.45	0.116
931.63	0.116
931.80	0.116
931.97	0.117
932.15	0.117
932.32	0.118
932.50	0.118
932.67	0.118
932.84	0.119
933.02	0.119
933.19	0.120
933.37	0.121
933.54	0.121
933.71	0.122
933.89	0.123
934.06	0.123
934.24	0.124
934.41	0.124
934.58	0.125
934.76	0.125
934.93	0.126
935.11	0.126
935.28	0.126
935.45	0.126
935.63	0.126
935.80	0.126
935.98	0.127
936.15	0.127
936.32	0.128
936.50	0.129
936.67	0.129
936.84	0.129
937.02	0.131
937.19	0.131
937.36	0.132
937.54	0.132
937.71	0.133
937.89	0.134
938.06	0.134
938.23	0.134
938.41	0.135
938.58	0.135
938.75	0.135
938.93	0.136
939.10	0.137
939.27	0.137
939.45	0.138
939.62	0.138
939.79	0.139
939.97	0.139
940.14	0.140
940.31	0.141
940.49	0.141
940.66	0.142
940.83	0.143
941.01	0.144
941.18	0.145
941.35	0.145
941.53	0.146
941.70	0.146
941.87	0.147
942.05	0.147
942.22	0.148
942.39	0.149
942.57	0.149
942.74	0.150
942.91	0.150
943.08	0.150
943.26	0.151
943.43	0.151
943.60	0.152
943.78	0.153
943.95	0.154
944.12	0.154
944.29	0.155
944.47	0.156
944.64	0.156
944.81	0.158
944.99	0.158
945.16	0.159
945.33	0.160
945.50	0.161
945.68	0.162
945.85	0.162
946.02	0.164
946.20	0.164
946.37	0.165
946.54	0.166
946.71	0.167
946.89	0.167
947.06	0.168
947.23	0.168
947.40	0.169
947.58	0.169
947.75	0.170
947.92	0.171
948.09	0.171
948.27	0.173
948.44	0.174
948.61	0.175
948.78	0.176
948.96	0.178
949.13	0.178
949.30	0.180
949.47	0.180
949.65	0.182
949.82	0.184
949.99	0.184
950.16	0.186
950.33	0.187
950.51	0.188
950.68	0.189
950.85	0.190
951.02	0.192
951.20	0.192
951.37	0.194
951.54	0.194
951.71	0.196
951.88	0.197
952.06	0.198
952.23	0.198
952.40	0.200
952.57	0.202
952.74	0.203
952.92	0.204
953.09	0.206
953.26	0.207
953.43	0.208
953.60	0.209
953.77	0.210
953.95	0.211
954.12	0.213
954.29	0.214
954.46	0.216
954.63	0.217
954.81	0.218
954.98	0.218
955.15	0.220
955.32	0.222
955.49	0.222
955.66	0.223
955.84	0.225
956.01	0.225
956.18	0.227
956.35	0.229
956.52	0.229
956.69	0.231
956.87	0.231
957.04	0.232
957.21	0.234
957.38	0.234
957.55	0.236
957.72	0.237
957.89	0.238
958.07	0.237
958.24	0.240
958.41	0.241
958.58	0.240
958.75	0.242
958.92	0.243
959.09	0.243
959.26	0.244
959.44	0.245
959.61	0.246
959.78	0.247
959.95	0.248
960.12	0.248
960.29	0.251
960.46	0.250
960.63	0.250
960.81	0.250
960.98	0.251
961.15	0.251
961.32	0.252
961.49	0.252
961.66	0.253
961.83	0.253
962.00	0.252
962.17	0.253
962.34	0.253
962.52	0.254
962.69	0.255
962.86	0.254
963.03	0.255
963.20	0.255
963.37	0.254
963.54	0.255
963.71	0.255
963.88	0.255
964.05	0.256
964.22	0.258
964.39	0.256
964.56	0.256
964.74	0.257
964.91	0.257
965.08	0.257
965.25	0.258
965.42	0.258
965.59	0.259
965.76	0.259
965.93	0.260
966.10	0.258
966.27	0.259
966.44	0.259
966.61	0.261
966.78	0.260
966.95	0.260
967.12	0.261
967.29	0.263
967.46	0.262
967.63	0.261
967.80	0.262
967.97	0.262
968.14	0.262
968.32	0.263
968.49	0.262
968.66	0.262
968.83	0.263
969.00	0.263
969.17	0.263
969.34	0.264
969.51	0.265
969.68	0.264
969.85	0.265
970.02	0.266
970.19	0.265
970.36	0.266
970.53	0.266
970.70	0.264
970.87	0.265
971.04	0.264
971.21	0.265
971.38	0.264
971.55	0.265
971.72	0.264
971.89	0.265
972.06	0.264
972.23	0.265
972.40	0.264
972.57	0.264
972.74	0.264
972.91	0.265
973.07	0.265
973.24	0.265
973.41	0.265
973.58	0.263
973.75	0.275
973.92	0.263
974.09	0.263
974.26	0.263
974.43	0.262
974.60	0.264
974.77	0.264
974.94	0.263
975.11	0.264
975.28	0.264
975.45	0.263
975.62	0.265
975.79	0.266
975.96	0.264
976.13	0.263
976.30	0.265
976.47	0.263
976.64	0.263
976.80	0.263
976.97	0.263
977.14	0.263
977.31	0.263
977.48	0.263
977.65	0.262
977.82	0.262
977.99	0.263
978.16	0.262
978.33	0.263
978.50	0.262
978.67	0.262
978.83	0.262
979.00	0.262
979.17	0.261
979.34	0.261
979.51	0.261
979.68	0.262
979.85	0.260
980.02	0.261
980.19	0.259
980.36	0.261
980.52	0.262
980.69	0.260
980.86	0.261
981.03	0.261
981.20	0.259
981.37	0.260
981.54	0.260
981.71	0.259
981.88	0.259
982.04	0.258
982.21	0.257
982.38	0.258
982.55	0.257
982.72	0.256
982.89	0.257
983.06	0.255
983.22	0.254
983.39	0.255
983.56	0.255
983.73	0.255
983.90	0.254
984.07	0.256
984.24	0.255
984.40	0.255
984.57	0.254
984.74	0.255
984.91	0.257
985.08	0.255
985.25	0.253
985.41	0.254
985.58	0.253
985.75	0.255
985.92	0.253
986.09	0.252
986.26	0.252
986.42	0.251
986.59	0.250
986.76	0.251
986.93	0.251
987.10	0.250
987.27	0.248
987.43	0.246
987.60	0.248
987.77	0.248
987.94	0.247
988.11	0.249
988.27	0.249
988.44	0.249
988.61	0.248
988.78	0.246
988.95	0.247
989.11	0.249
989.28	0.248
989.45	0.247
989.62	0.247
989.79	0.247
989.95	0.245
990.12	0.246
990.29	0.245
990.46	0.244
990.62	0.242
990.79	0.243
990.96	0.243
991.13	0.242
991.30	0.241
991.46	0.240
991.63	0.239
991.80	0.238
991.97	0.238
992.13	0.239
992.30	0.239
992.47	0.238
992.64	0.237
992.80	0.238
992.97	0.238
993.14	0.235
993.31	0.233
993.47	0.236
993.64	0.234
993.81	0.233
993.98	0.234
994.14	0.232
994.31	0.231
994.48	0.233
994.64	0.233
994.81	0.232
994.98	0.232
995.15	0.230
995.31	0.230
995.48	0.230
995.65	0.232
995.82	0.229
995.98	0.229
996.15	0.230
996.32	0.232
996.48	0.230
996.65	0.229
996.82	0.227
996.99	0.228
997.15	0.228
997.32	0.229
997.49	0.228
997.65	0.229
997.82	0.228
997.99	0.226
998.15	0.226
998.32	0.227
998.49	0.226
998.65	0.226
998.82	0.225
998.99	0.223
999.15	0.223
999.32	0.222
999.49	0.222
999.65	0.222
999.82	0.220
999.99	0.220
1000.15	0.220
1000.32	0.220
1000.49	0.220
1000.65	0.218
1000.82	0.217
1000.99	0.218
1001.15	0.218
1001.32	0.217
1001.49	0.217
1001.65	0.217
1001.82	0.219
1001.99	0.216
1002.15	0.215
1002.32	0.215
1002.49	0.217
1002.65	0.215
1002.82	0.214
1002.99	0.213
1003.15	0.215
1003.32	0.213
1003.48	0.214
1003.65	0.214
1003.82	0.212
1003.98	0.209
1004.15	0.209
1004.32	0.209
1004.48	0.209
1004.65	0.210
1004.81	0.207
1004.98	0.206
1005.15	0.207
1005.31	0.206
1005.48	0.204
1005.64	0.204
1005.81	0.207
1005.98	0.204
1006.14	0.203
1006.31	0.204
1006.47	0.202
1006.64	0.202
1006.81	0.201
1006.97	0.201
1007.14	0.201
1007.30	0.202
1007.47	0.201
1007.63	0.199
1007.80	0.198
1007.97	0.198
1008.13	0.199
1008.30	0.199
1008.46	0.199
1008.63	0.198
1008.79	0.198
1008.96	0.198
1009.13	0.199
1009.29	0.197
1009.46	0.197
1009.62	0.196
1009.79	0.194
1009.95	0.194
1010.12	0.195
1010.28	0.194
1010.45	0.193
1010.62	0.192
1010.78	0.191
1010.95	0.189
1011.11	0.190
1011.28	0.189
1011.44	0.191
1011.61	0.189
1011.77	0.188
1011.94	0.188
1012.10	0.188
1012.27	0.188
1012.43	0.188
1012.60	0.186
1012.76	0.187
1012.93	0.187
1013.10	0.185
1013.26	0.183
1013.43	0.184
1013.59	0.191
1013.76	0.184
1013.92	0.183
1014.09	0.181
1014.25	0.182
1014.42	0.182
1014.58	0.182
1014.75	0.184
1014.91	0.182
1015.08	0.184
1015.24	0.181
1015.41	0.183
1015.57	0.183
1015.73	0.182
1015.90	0.180
1016.06	0.183
1016.23	0.181
1016.39	0.182
1016.56	0.183
1016.72	0.181
1016.89	0.182
1017.05	0.183
1017.22	0.180
1017.38	0.180
1017.55	0.178
1017.71	0.179
1017.88	0.178
1018.04	0.179
1018.21	0.176
1018.37	0.176
1018.53	0.176
1018.70	0.174
1018.86	0.173
1019.03	0.174
1019.19	0.172
1019.36	0.172
1019.52	0.174
1019.69	0.174
1019.85	0.173
1020.01	0.174
1020.18	0.172
1020.34	0.172
1020.51	0.171
1020.67	0.173
1020.84	0.171
1021.00	0.172
1021.16	0.169
1021.33	0.170
1021.49	0.168
1021.66	0.169
1021.82	0.166
1021.98	0.167
1022.15	0.165
1022.31	0.166
1022.48	0.164
1022.64	0.166
1022.80	0.164
1022.97	0.162
1023.13	0.161
1023.30	0.162
1023.46	0.162
1023.62	0.159
1023.79	0.160
1023.95	0.162
1024.12	0.160
1024.28	0.159
1024.44	0.160
1024.61	0.159
1024.77	0.159
1024.93	0.160
1025.10	0.162
1025.26	0.160
1025.43	0.162
1025.59	0.158
1025.75	0.161
1025.92	0.160
1026.08	0.160
1026.24	0.159
1026.41	0.160
1026.57	0.158
1026.73	0.155
1026.90	0.156
1027.06	0.154
1027.23	0.155
1027.39	0.155
1027.55	0.155
1027.72	0.154
1027.88	0.153
1028.04	0.154
1028.21	0.153
1028.37	0.148
1028.53	0.153
1028.70	0.151
1028.86	0.150
1029.02	0.150
1029.19	0.151
1029.35	0.149
1029.51	0.149
1029.67	0.148
1029.84	0.150
1030.00	0.145
1030.16	0.146
1030.33	0.149
1030.49	0.147
1030.65	0.144
1030.82	0.159
1030.98	0.145
1031.14	0.145
1031.31	0.146
1031.47	0.143
1031.63	0.145
1031.79	0.144
1031.96	0.144
1032.12	0.146
1032.28	0.143
1032.45	0.147
1032.61	0.146
1032.77	0.146
1032.93	0.142
1033.10	0.143
1033.26	0.146
1033.42	0.145
1033.58	0.146
1033.75	0.148
1033.91	0.146
1034.07	0.149
1034.24	0.148
1034.40	0.146
1034.56	0.145
1034.72	0.146
1034.89	0.146
1035.05	0.143
1035.21	0.143
1035.37	0.141
1035.54	0.144
1035.70	0.142
1035.86	0.141
1036.02	0.142
1036.19	0.139
1036.35	0.137
1036.51	0.141
1036.67	0.139
1036.83	0.139
1037.00	0.138
1037.16	0.139
1037.32	0.138
1037.48	0.137
1037.65	0.141
1037.81	0.137
1037.97	0.137
1038.13	0.137
1038.29	0.136
1038.46	0.133
1038.62	0.137
1038.78	0.135
1038.94	0.131
1039.10	0.135
1039.27	0.129
1039.43	0.131
1039.59	0.130
1039.75	0.130
1039.91	0.129
1040.08	0.130
1040.24	0.133
1040.40	0.134
1040.56	0.133
1040.72	0.128
1040.89	0.131
1041.05	0.136
1041.21	0.135
1041.37	0.132
1041.53	0.139
1041.69	0.136
1041.86	0.135
1042.02	0.131
1042.18	0.131
1042.34	0.133
1042.50	0.137
1042.66	0.134
1042.83	0.132
1042.99	0.133
1043.15	0.130
1043.31	0.131
1043.47	0.135
1043.63	0.133
1043.79	0.132
1043.96	0.132
1044.12	0.136
1044.28	0.132
1044.44	0.134
1044.60	0.127
1044.76	0.127
1044.92	0.129
1045.09	0.130
1045.25	0.127
1045.41	0.126
1045.57	0.122
1045.73	0.123
1045.89	0.124
1046.05	0.125
1046.21	0.121
1046.38	0.133
1046.54	0.138
1046.70	0.124
1046.86	0.124
>>>>>End Processed Spectral Data<<<<<
