SpectraSuite Data File
++++++++++++++++++++++++++++++++++++
Date: Mon May 20 12:13:14 CDT 2013
User: Students
Dark Spectrum Present: Yes
Reference Spectrum Present: Yes
Number of Sampled Component Spectra: 1
Spectrometers: USB4H00887
Integration Time (usec): 60000 (USB4H00887)
Spectra Averaged: 5 (USB4H00887)
Boxcar Smoothing: 5 (USB4H00887)
Correct for Electrical Dark: No (USB4H00887)
Strobe/Lamp Enabled: No (USB4H00887)
Correct for Detector Non-linearity: No (USB4H00887)
Correct for Stray Light: No (USB4H00887)
Number of Pixels in Processed Spectrum: 3648
>>>>>Begin Processed Spectral Data<<<<<
345.83	-0.138
346.05	-0.138
346.26	-0.138
346.48	-0.000
346.70	0.263
346.92	0.077
347.14	0.049
347.35	0.056
347.57	0.293
347.79	-0.233
348.01	-0.172
348.23	-0.307
348.44	-0.000
348.66	0.173
348.88	-0.234
349.10	-0.038
349.32	-0.010
349.53	0.034
349.75	0.116
349.97	0.113
350.19	0.184
350.41	0.205
350.62	-0.400
350.84	0.050
351.06	0.047
351.28	0.038
351.50	0.021
351.71	0.079
351.93	0.013
352.15	0.001
352.37	-0.026
352.58	0.013
352.80	0.014
353.02	0.042
353.24	0.088
353.46	0.975
353.67	-0.248
353.89	0.080
354.11	0.066
354.33	0.087
354.54	0.134
354.76	0.239
354.98	0.303
355.20	0.285
355.41	0.123
355.63	0.165
355.85	0.064
356.07	0.542
356.28	0.066
356.50	0.114
356.72	0.046
356.94	0.121
357.15	0.163
357.37	-0.000
357.59	0.101
357.81	0.028
358.02	0.102
358.24	0.075
358.46	0.217
358.68	0.229
358.89	0.118
359.11	-0.000
359.33	0.100
359.55	-0.609
359.76	0.136
359.98	0.148
360.20	0.167
360.42	0.115
360.63	0.115
360.85	0.053
361.07	0.245
361.29	0.053
361.50	0.151
361.72	0.081
361.94	0.287
362.15	0.105
362.37	0.061
362.59	0.070
362.81	0.110
363.02	0.186
363.24	0.284
363.46	0.167
363.68	0.227
363.89	0.132
364.11	0.158
364.33	0.153
364.54	0.127
364.76	0.161
364.98	0.160
365.20	0.188
365.41	0.132
365.63	0.155
365.85	0.105
366.06	0.299
366.28	0.308
366.50	0.209
366.71	0.111
366.93	0.135
367.15	0.119
367.37	0.102
367.58	0.139
367.80	0.170
368.02	0.465
368.23	0.147
368.45	0.139
368.67	0.146
368.88	0.153
369.10	-0.000
369.32	0.153
369.53	0.101
369.75	0.179
369.97	0.488
370.19	0.235
370.40	0.099
370.62	0.297
370.84	0.107
371.05	0.569
371.27	0.128
371.49	0.164
371.70	0.201
371.92	0.290
372.14	0.130
372.35	0.144
372.57	0.157
372.79	0.342
373.00	0.085
373.22	0.151
373.44	0.152
373.65	0.121
373.87	0.149
374.09	0.538
374.30	0.113
374.52	0.116
374.74	0.083
374.95	0.277
375.17	0.106
375.39	-0.000
375.60	0.096
375.82	0.143
376.04	0.055
376.25	0.069
376.47	0.045
376.68	0.114
376.90	0.078
377.12	0.139
377.33	0.102
377.55	0.262
377.77	0.153
377.98	0.263
378.20	0.149
378.42	0.190
378.63	0.242
378.85	-0.000
379.07	0.162
379.28	0.609
379.50	0.311
379.71	0.166
379.93	0.113
380.15	0.159
380.36	0.218
380.58	0.164
380.80	0.447
381.01	0.127
381.23	0.100
381.44	0.111
381.66	0.136
381.88	0.198
382.09	-0.085
382.31	0.123
382.53	0.116
382.74	0.725
382.96	0.189
383.17	0.148
383.39	0.212
383.61	0.273
383.82	0.184
384.04	0.219
384.25	0.247
384.47	0.236
384.69	0.229
384.90	0.218
385.12	0.405
385.33	0.263
385.55	0.206
385.77	0.296
385.98	0.157
386.20	0.213
386.41	0.174
386.63	0.200
386.85	0.169
387.06	0.222
387.28	0.340
387.49	0.221
387.71	0.151
387.93	0.137
388.14	0.375
388.36	0.179
388.57	0.175
388.79	0.204
389.01	1.263
389.22	0.274
389.44	0.236
389.65	0.198
389.87	0.200
390.08	0.256
390.30	0.192
390.52	0.382
390.73	0.379
390.95	0.250
391.16	0.245
391.38	-0.000
391.59	0.263
391.81	0.218
392.03	0.202
392.24	0.229
392.46	0.185
392.67	0.165
392.89	0.231
393.10	0.342
393.32	0.229
393.53	0.253
393.75	0.154
393.97	0.178
394.18	0.225
394.40	0.207
394.61	0.222
394.83	0.198
395.04	0.241
395.26	0.168
395.47	0.247
395.69	0.207
395.91	0.216
396.12	0.272
396.34	0.275
396.55	0.185
396.77	0.270
396.98	0.789
397.20	0.316
397.41	0.364
397.63	0.254
397.84	0.233
398.06	0.225
398.27	0.244
398.49	0.283
398.71	0.211
398.92	0.259
399.14	0.332
399.35	0.419
399.57	0.387
399.78	0.255
400.00	0.250
400.21	0.301
400.43	0.255
400.64	0.252
400.86	0.522
401.07	0.293
401.29	0.257
401.50	0.271
401.72	0.372
401.93	0.245
402.15	0.290
402.36	0.269
402.58	0.223
402.79	0.237
403.01	0.389
403.22	0.306
403.44	0.214
403.65	0.313
403.87	0.338
404.08	0.269
404.30	0.395
404.51	0.247
404.73	0.284
404.94	0.261
405.16	0.269
405.37	0.214
405.59	0.363
405.80	0.248
406.02	0.303
406.23	0.305
406.45	0.352
406.66	0.368
406.88	0.240
407.09	0.369
407.31	0.300
407.52	0.348
407.74	0.287
407.95	0.327
408.17	0.310
408.38	0.322
408.60	0.217
408.81	0.348
409.03	0.285
409.24	0.289
409.45	0.317
409.67	0.301
409.88	0.286
410.10	0.344
410.31	0.297
410.53	0.280
410.74	0.387
410.96	0.390
411.17	0.401
411.39	0.314
411.60	0.292
411.82	0.337
412.03	0.320
412.24	0.300
412.46	0.428
412.67	0.359
412.89	0.361
413.10	0.366
413.32	0.330
413.53	0.366
413.75	0.360
413.96	0.281
414.17	0.354
414.39	0.369
414.60	0.318
414.82	0.387
415.03	0.311
415.25	0.332
415.46	0.233
415.68	0.309
415.89	0.492
416.10	0.447
416.32	0.274
416.53	0.320
416.75	0.299
416.96	0.346
417.18	0.305
417.39	0.293
417.60	0.288
417.82	0.396
418.03	0.359
418.25	0.303
418.46	0.312
418.67	0.295
418.89	0.313
419.10	0.322
419.32	0.400
419.53	0.389
419.75	0.344
419.96	0.316
420.17	0.372
420.39	0.351
420.60	0.370
420.82	0.439
421.03	0.359
421.24	0.305
421.46	0.338
421.67	0.371
421.89	0.328
422.10	0.346
422.31	0.348
422.53	0.462
422.74	0.367
422.96	0.304
423.17	0.336
423.38	0.406
423.60	0.359
423.81	0.427
424.03	0.370
424.24	0.395
424.45	0.393
424.67	0.388
424.88	0.353
425.09	0.377
425.31	0.353
425.52	0.369
425.74	0.406
425.95	0.426
426.16	0.352
426.38	0.408
426.59	0.382
426.80	0.424
427.02	0.438
427.23	0.358
427.45	0.442
427.66	0.433
427.87	0.357
428.09	0.382
428.30	0.423
428.51	0.407
428.73	0.437
428.94	0.402
429.15	0.403
429.37	0.390
429.58	0.410
429.79	0.385
430.01	0.444
430.22	0.436
430.44	0.438
430.65	0.404
430.86	0.434
431.08	0.420
431.29	0.392
431.50	0.449
431.72	0.552
431.93	0.470
432.14	0.377
432.36	0.406
432.57	0.414
432.78	0.420
433.00	0.387
433.21	0.387
433.42	0.466
433.64	0.416
433.85	0.454
434.06	0.387
434.28	0.407
434.49	0.412
434.70	0.423
434.92	0.425
435.13	0.459
435.34	0.465
435.56	0.441
435.77	0.439
435.98	0.532
436.20	0.464
436.41	0.410
436.62	0.401
436.83	0.446
437.05	0.489
437.26	0.447
437.47	0.408
437.69	0.438
437.90	0.410
438.11	0.402
438.33	0.431
438.54	0.445
438.75	0.541
438.97	0.537
439.18	0.430
439.39	0.443
439.60	0.467
439.82	0.444
440.03	0.415
440.24	0.550
440.46	0.444
440.67	0.430
440.88	0.452
441.10	0.426
441.31	0.430
441.52	0.461
441.73	0.507
441.95	0.465
442.16	0.432
442.37	0.603
442.58	0.431
442.80	0.423
443.01	0.514
443.22	0.480
443.44	0.424
443.65	0.480
443.86	0.477
444.07	0.494
444.29	0.446
444.50	0.534
444.71	0.435
444.92	0.411
445.14	0.494
445.35	0.518
445.56	0.435
445.78	0.493
445.99	0.488
446.20	0.434
446.41	0.480
446.63	0.477
446.84	0.458
447.05	0.460
447.26	0.529
447.48	0.470
447.69	0.448
447.90	0.498
448.11	0.453
448.33	0.472
448.54	0.489
448.75	0.505
448.96	0.510
449.18	0.531
449.39	0.484
449.60	0.477
449.81	0.544
450.03	0.495
450.24	0.521
450.45	0.502
450.66	0.491
450.87	0.503
451.09	0.475
451.30	0.466
451.51	0.504
451.72	0.512
451.94	0.519
452.15	0.553
452.36	0.487
452.57	0.495
452.78	0.495
453.00	0.509
453.21	0.488
453.42	0.476
453.63	0.527
453.85	0.512
454.06	0.508
454.27	0.570
454.48	0.526
454.69	0.490
454.91	0.531
455.12	0.479
455.33	0.531
455.54	0.539
455.75	0.527
455.97	0.540
456.18	0.534
456.39	0.534
456.60	0.545
456.81	0.514
457.03	0.521
457.24	0.515
457.45	0.560
457.66	0.528
457.87	0.505
458.09	0.516
458.30	0.470
458.51	0.532
458.72	0.546
458.93	0.551
459.15	0.504
459.36	0.532
459.57	0.547
459.78	0.570
459.99	0.527
460.20	0.513
460.42	0.549
460.63	0.530
460.84	0.520
461.05	0.532
461.26	0.561
461.47	0.524
461.69	0.549
461.90	0.567
462.11	0.546
462.32	0.573
462.53	0.541
462.74	0.590
462.96	0.534
463.17	0.530
463.38	0.552
463.59	0.607
463.80	0.533
464.01	0.549
464.23	0.590
464.44	0.573
464.65	0.579
464.86	0.592
465.07	0.593
465.28	0.576
465.49	0.589
465.71	0.563
465.92	0.581
466.13	0.603
466.34	0.571
466.55	0.597
466.76	0.576
466.97	0.587
467.19	0.579
467.40	0.599
467.61	0.600
467.82	0.561
468.03	0.555
468.24	0.590
468.45	0.606
468.66	0.601
468.88	0.604
469.09	0.606
469.30	0.627
469.51	0.596
469.72	0.614
469.93	0.602
470.14	0.591
470.35	0.633
470.57	0.609
470.78	0.578
470.99	0.635
471.20	0.609
471.41	0.593
471.62	0.620
471.83	0.606
472.04	0.620
472.25	0.640
472.47	0.602
472.68	0.606
472.89	0.610
473.10	0.631
473.31	0.609
473.52	0.637
473.73	0.644
473.94	0.606
474.15	0.620
474.36	0.620
474.57	0.633
474.79	0.620
475.00	0.621
475.21	0.615
475.42	0.658
475.63	0.615
475.84	0.631
476.05	0.633
476.26	0.619
476.47	0.632
476.68	0.655
476.89	0.622
477.10	0.647
477.32	0.642
477.53	0.666
477.74	0.628
477.95	0.648
478.16	0.624
478.37	0.644
478.58	0.645
478.79	0.653
479.00	0.653
479.21	0.634
479.42	0.653
479.63	0.657
479.84	0.639
480.05	0.638
480.26	0.650
480.47	0.658
480.69	0.661
480.90	0.646
481.11	0.645
481.32	0.671
481.53	0.646
481.74	0.668
481.95	0.651
482.16	0.659
482.37	0.666
482.58	0.651
482.79	0.659
483.00	0.673
483.21	0.649
483.42	0.636
483.63	0.673
483.84	0.684
484.05	0.679
484.26	0.668
484.47	0.669
484.68	0.651
484.89	0.656
485.10	0.676
485.31	0.667
485.52	0.671
485.73	0.672
485.94	0.688
486.15	0.666
486.37	0.675
486.58	0.658
486.79	0.662
487.00	0.684
487.21	0.681
487.42	0.683
487.63	0.683
487.84	0.690
488.05	0.688
488.26	0.669
488.47	0.671
488.68	0.686
488.89	0.677
489.10	0.674
489.31	0.679
489.52	0.692
489.73	0.675
489.94	0.691
490.15	0.674
490.36	0.692
490.57	0.672
490.78	0.665
490.99	0.681
491.20	0.714
491.41	0.698
491.62	0.673
491.83	0.687
492.04	0.686
492.25	0.689
492.45	0.688
492.66	0.700
492.87	0.694
493.08	0.690
493.29	0.683
493.50	0.677
493.71	0.679
493.92	0.678
494.13	0.686
494.34	0.696
494.55	0.700
494.76	0.714
494.97	0.709
495.18	0.694
495.39	0.702
495.60	0.681
495.81	0.683
496.02	0.694
496.23	0.690
496.44	0.703
496.65	0.699
496.86	0.701
497.07	0.712
497.28	0.713
497.49	0.692
497.70	0.693
497.91	0.703
498.12	0.695
498.32	0.712
498.53	0.705
498.74	0.702
498.95	0.713
499.16	0.692
499.37	0.693
499.58	0.697
499.79	0.710
500.00	0.707
500.21	0.720
500.42	0.697
500.63	0.698
500.84	0.706
501.05	0.696
501.26	0.706
501.46	0.723
501.67	0.707
501.88	0.707
502.09	0.697
502.30	0.701
502.51	0.720
502.72	0.700
502.93	0.707
503.14	0.716
503.35	0.705
503.56	0.705
503.77	0.719
503.97	0.709
504.18	0.709
504.39	0.724
504.60	0.711
504.81	0.722
505.02	0.718
505.23	0.719
505.44	0.712
505.65	0.714
505.86	0.706
506.07	0.733
506.27	0.717
506.48	0.719
506.69	0.711
506.90	0.721
507.11	0.720
507.32	0.709
507.53	0.714
507.74	0.712
507.95	0.718
508.15	0.721
508.36	0.722
508.57	0.727
508.78	0.720
508.99	0.721
509.20	0.709
509.41	0.720
509.62	0.715
509.82	0.713
510.03	0.715
510.24	0.716
510.45	0.726
510.66	0.724
510.87	0.721
511.08	0.704
511.29	0.723
511.49	0.714
511.70	0.733
511.91	0.704
512.12	0.703
512.33	0.718
512.54	0.724
512.75	0.717
512.95	0.728
513.16	0.724
513.37	0.715
513.58	0.731
513.79	0.715
514.00	0.719
514.20	0.728
514.41	0.723
514.62	0.707
514.83	0.726
515.04	0.719
515.25	0.711
515.46	0.716
515.66	0.716
515.87	0.720
516.08	0.707
516.29	0.716
516.50	0.708
516.71	0.706
516.91	0.710
517.12	0.717
517.33	0.712
517.54	0.705
517.75	0.706
517.95	0.712
518.16	0.717
518.37	0.702
518.58	0.704
518.79	0.693
519.00	0.706
519.20	0.709
519.41	0.697
519.62	0.704
519.83	0.709
520.04	0.692
520.24	0.690
520.45	0.695
520.66	0.704
520.87	0.688
521.08	0.687
521.28	0.689
521.49	0.697
521.70	0.684
521.91	0.690
522.12	0.681
522.32	0.691
522.53	0.683
522.74	0.677
522.95	0.683
523.16	0.683
523.36	0.686
523.57	0.676
523.78	0.673
523.99	0.675
524.20	0.671
524.40	0.677
524.61	0.681
524.82	0.669
525.03	0.670
525.23	0.669
525.44	0.662
525.65	0.661
525.86	0.672
526.06	0.659
526.27	0.659
526.48	0.663
526.69	0.653
526.90	0.654
527.10	0.669
527.31	0.649
527.52	0.646
527.73	0.643
527.93	0.647
528.14	0.650
528.35	0.645
528.56	0.645
528.76	0.642
528.97	0.639
529.18	0.635
529.39	0.634
529.59	0.636
529.80	0.651
530.01	0.637
530.22	0.636
530.42	0.620
530.63	0.629
530.84	0.618
531.05	0.624
531.25	0.625
531.46	0.621
531.67	0.610
531.88	0.618
532.08	0.614
532.29	0.611
532.50	0.608
532.70	0.605
532.91	0.600
533.12	0.601
533.33	0.613
533.53	0.598
533.74	0.598
533.95	0.602
534.15	0.596
534.36	0.597
534.57	0.588
534.78	0.590
534.98	0.594
535.19	0.578
535.40	0.578
535.60	0.588
535.81	0.577
536.02	0.578
536.23	0.574
536.43	0.574
536.64	0.568
536.85	0.572
537.05	0.575
537.26	0.563
537.47	0.565
537.67	0.559
537.88	0.556
538.09	0.560
538.30	0.553
538.50	0.549
538.71	0.555
538.92	0.547
539.12	0.545
539.33	0.543
539.54	0.543
539.74	0.546
539.95	0.540
540.16	0.539
540.36	0.535
540.57	0.536
540.78	0.532
540.98	0.531
541.19	0.530
541.40	0.524
541.60	0.530
541.81	0.526
542.02	0.527
542.22	0.521
542.43	0.518
542.64	0.516
542.84	0.515
543.05	0.510
543.26	0.510
543.46	0.512
543.67	0.512
543.88	0.510
544.08	0.503
544.29	0.500
544.50	0.501
544.70	0.502
544.91	0.497
545.12	0.498
545.32	0.495
545.53	0.499
545.74	0.491
545.94	0.490
546.15	0.488
546.35	0.487
546.56	0.485
546.77	0.483
546.97	0.482
547.18	0.476
547.39	0.478
547.59	0.477
547.80	0.474
548.01	0.477
548.21	0.474
548.42	0.469
548.62	0.469
548.83	0.468
549.04	0.465
549.24	0.460
549.45	0.460
549.65	0.458
549.86	0.455
550.07	0.455
550.27	0.453
550.48	0.458
550.69	0.449
550.89	0.449
551.10	0.446
551.30	0.446
551.51	0.446
551.72	0.439
551.92	0.440
552.13	0.441
552.33	0.442
552.54	0.439
552.75	0.434
552.95	0.436
553.16	0.433
553.36	0.431
553.57	0.430
553.78	0.429
553.98	0.430
554.19	0.424
554.39	0.422
554.60	0.423
554.80	0.423
555.01	0.418
555.22	0.419
555.42	0.417
555.63	0.413
555.83	0.416
556.04	0.412
556.25	0.413
556.45	0.407
556.66	0.405
556.86	0.408
557.07	0.407
557.27	0.406
557.48	0.403
557.68	0.402
557.89	0.403
558.10	0.400
558.30	0.399
558.51	0.398
558.71	0.396
558.92	0.393
559.12	0.395
559.33	0.398
559.54	0.394
559.74	0.391
559.95	0.389
560.15	0.389
560.36	0.387
560.56	0.383
560.77	0.383
560.97	0.384
561.18	0.380
561.38	0.380
561.59	0.382
561.79	0.379
562.00	0.378
562.21	0.376
562.41	0.375
562.62	0.374
562.82	0.373
563.03	0.370
563.23	0.370
563.44	0.370
563.64	0.368
563.85	0.369
564.05	0.364
564.26	0.364
564.46	0.363
564.67	0.364
564.87	0.361
565.08	0.359
565.28	0.360
565.49	0.361
565.69	0.359
565.90	0.356
566.10	0.359
566.31	0.354
566.51	0.356
566.72	0.357
566.92	0.352
567.13	0.352
567.33	0.351
567.54	0.350
567.74	0.349
567.95	0.346
568.15	0.348
568.36	0.348
568.56	0.346
568.77	0.342
568.97	0.341
569.18	0.341
569.38	0.340
569.59	0.340
569.79	0.338
570.00	0.337
570.20	0.336
570.41	0.334
570.61	0.333
570.82	0.335
571.02	0.331
571.23	0.333
571.43	0.329
571.64	0.329
571.84	0.329
572.05	0.328
572.25	0.327
572.45	0.326
572.66	0.323
572.86	0.323
573.07	0.321
573.27	0.322
573.48	0.321
573.68	0.318
573.89	0.318
574.09	0.319
574.30	0.318
574.50	0.316
574.70	0.317
574.91	0.315
575.11	0.316
575.32	0.315
575.52	0.312
575.73	0.312
575.93	0.312
576.14	0.311
576.34	0.309
576.54	0.308
576.75	0.307
576.95	0.305
577.16	0.305
577.36	0.304
577.57	0.304
577.77	0.302
577.97	0.300
578.18	0.302
578.38	0.300
578.59	0.298
578.79	0.298
579.00	0.299
579.20	0.298
579.40	0.297
579.61	0.296
579.81	0.295
580.02	0.293
580.22	0.293
580.42	0.292
580.63	0.292
580.83	0.292
581.04	0.290
581.24	0.289
581.45	0.289
581.65	0.289
581.85	0.289
582.06	0.287
582.26	0.288
582.47	0.287
582.67	0.287
582.87	0.285
583.08	0.284
583.28	0.284
583.48	0.283
583.69	0.280
583.89	0.280
584.10	0.281
584.30	0.279
584.50	0.277
584.71	0.277
584.91	0.277
585.12	0.276
585.32	0.277
585.52	0.275
585.73	0.274
585.93	0.274
586.13	0.273
586.34	0.273
586.54	0.272
586.75	0.271
586.95	0.270
587.15	0.270
587.36	0.270
587.56	0.269
587.76	0.268
587.97	0.267
588.17	0.267
588.37	0.267
588.58	0.267
588.78	0.264
588.98	0.265
589.19	0.264
589.39	0.262
589.60	0.264
589.80	0.261
590.00	0.261
590.21	0.261
590.41	0.260
590.61	0.260
590.82	0.260
591.02	0.259
591.22	0.258
591.43	0.259
591.63	0.257
591.83	0.257
592.04	0.256
592.24	0.257
592.44	0.254
592.65	0.253
592.85	0.254
593.05	0.254
593.26	0.252
593.46	0.252
593.66	0.252
593.86	0.251
594.07	0.249
594.27	0.249
594.47	0.249
594.68	0.248
594.88	0.249
595.08	0.248
595.29	0.249
595.49	0.247
595.69	0.246
595.90	0.245
596.10	0.246
596.30	0.245
596.50	0.244
596.71	0.243
596.91	0.243
597.11	0.242
597.32	0.242
597.52	0.241
597.72	0.240
597.93	0.240
598.13	0.238
598.33	0.238
598.53	0.238
598.74	0.237
598.94	0.237
599.14	0.236
599.35	0.237
599.55	0.236
599.75	0.235
599.95	0.235
600.16	0.235
600.36	0.234
600.56	0.235
600.76	0.234
600.97	0.232
601.17	0.233
601.37	0.233
601.58	0.232
601.78	0.232
601.98	0.232
602.18	0.230
602.39	0.231
602.59	0.231
602.79	0.230
602.99	0.230
603.20	0.229
603.40	0.229
603.60	0.228
603.80	0.227
604.01	0.227
604.21	0.226
604.41	0.226
604.61	0.225
604.82	0.225
605.02	0.225
605.22	0.224
605.42	0.224
605.62	0.224
605.83	0.223
606.03	0.223
606.23	0.223
606.43	0.223
606.64	0.222
606.84	0.222
607.04	0.221
607.24	0.221
607.45	0.222
607.65	0.220
607.85	0.221
608.05	0.220
608.25	0.219
608.46	0.219
608.66	0.219
608.86	0.219
609.06	0.218
609.26	0.217
609.47	0.218
609.67	0.216
609.87	0.218
610.07	0.217
610.28	0.215
610.48	0.216
610.68	0.216
610.88	0.215
611.08	0.216
611.29	0.214
611.49	0.214
611.69	0.215
611.89	0.213
612.09	0.213
612.29	0.212
612.50	0.212
612.70	0.212
612.90	0.210
613.10	0.210
613.30	0.209
613.51	0.210
613.71	0.209
613.91	0.214
614.11	0.208
614.31	0.208
614.51	0.208
614.72	0.207
614.92	0.207
615.12	0.207
615.32	0.207
615.52	0.207
615.72	0.207
615.93	0.206
616.13	0.206
616.33	0.206
616.53	0.206
616.73	0.206
616.93	0.204
617.14	0.205
617.34	0.205
617.54	0.205
617.74	0.205
617.94	0.204
618.14	0.203
618.34	0.202
618.55	0.202
618.75	0.203
618.95	0.203
619.15	0.203
619.35	0.201
619.55	0.201
619.75	0.201
619.96	0.201
620.16	0.201
620.36	0.201
620.56	0.201
620.76	0.201
620.96	0.200
621.16	0.200
621.36	0.200
621.57	0.200
621.77	0.200
621.97	0.199
622.17	0.199
622.37	0.199
622.57	0.199
622.77	0.198
622.97	0.197
623.18	0.197
623.38	0.197
623.58	0.196
623.78	0.196
623.98	0.196
624.18	0.194
624.38	0.194
624.58	0.194
624.78	0.194
624.98	0.194
625.19	0.194
625.39	0.194
625.59	0.193
625.79	0.194
625.99	0.193
626.19	0.193
626.39	0.192
626.59	0.192
626.79	0.192
626.99	0.192
627.19	0.192
627.40	0.192
627.60	0.191
627.80	0.192
628.00	0.192
628.20	0.191
628.40	0.191
628.60	0.191
628.80	0.190
629.00	0.190
629.20	0.190
629.40	0.190
629.60	0.188
629.80	0.189
630.00	0.188
630.20	0.188
630.41	0.187
630.61	0.187
630.81	0.187
631.01	0.188
631.21	0.187
631.41	0.186
631.61	0.187
631.81	0.186
632.01	0.186
632.21	0.186
632.41	0.185
632.61	0.185
632.81	0.185
633.01	0.185
633.21	0.185
633.41	0.186
633.61	0.184
633.81	0.184
634.01	0.183
634.21	0.183
634.41	0.183
634.61	0.183
634.81	0.182
635.01	0.182
635.22	0.182
635.42	0.182
635.62	0.182
635.82	0.182
636.02	0.181
636.22	0.181
636.42	0.180
636.62	0.181
636.82	0.180
637.02	0.180
637.22	0.180
637.42	0.180
637.62	0.179
637.82	0.179
638.02	0.178
638.22	0.178
638.42	0.177
638.62	0.177
638.82	0.177
639.02	0.177
639.22	0.176
639.42	0.176
639.62	0.176
639.82	0.175
640.02	0.176
640.22	0.176
640.42	0.176
640.62	0.175
640.82	0.175
641.02	0.175
641.22	0.175
641.42	0.174
641.61	0.174
641.81	0.174
642.01	0.174
642.21	0.174
642.41	0.174
642.61	0.173
642.81	0.173
643.01	0.172
643.21	0.172
643.41	0.172
643.61	0.172
643.81	0.171
644.01	0.170
644.21	0.170
644.41	0.170
644.61	0.170
644.81	0.170
645.01	0.170
645.21	0.170
645.41	0.170
645.61	0.170
645.81	0.169
646.01	0.169
646.21	0.170
646.40	0.169
646.60	0.169
646.80	0.169
647.00	0.169
647.20	0.168
647.40	0.168
647.60	0.167
647.80	0.167
648.00	0.167
648.20	0.167
648.40	0.166
648.60	0.166
648.80	0.165
649.00	0.166
649.20	0.166
649.39	0.166
649.59	0.165
649.79	0.165
649.99	0.165
650.19	0.164
650.39	0.164
650.59	0.164
650.79	0.163
650.99	0.163
651.19	0.163
651.39	0.163
651.58	0.162
651.78	0.162
651.98	0.162
652.18	0.161
652.38	0.161
652.58	0.162
652.78	0.161
652.98	0.161
653.18	0.161
653.38	0.161
653.57	0.160
653.77	0.160
653.97	0.160
654.17	0.160
654.37	0.159
654.57	0.159
654.77	0.159
654.97	0.159
655.16	0.158
655.36	0.158
655.56	0.158
655.76	0.157
655.96	0.158
656.16	0.156
656.36	0.156
656.56	0.156
656.75	0.156
656.95	0.155
657.15	0.155
657.35	0.155
657.55	0.154
657.75	0.155
657.95	0.155
658.14	0.154
658.34	0.154
658.54	0.154
658.74	0.154
658.94	0.153
659.14	0.153
659.34	0.153
659.53	0.152
659.73	0.152
659.93	0.151
660.13	0.151
660.33	0.151
660.53	0.151
660.72	0.152
660.92	0.151
661.12	0.151
661.32	0.151
661.52	0.150
661.72	0.150
661.91	0.150
662.11	0.150
662.31	0.149
662.51	0.149
662.71	0.149
662.90	0.147
663.10	0.147
663.30	0.147
663.50	0.147
663.70	0.147
663.90	0.146
664.09	0.146
664.29	0.146
664.49	0.146
664.69	0.145
664.89	0.145
665.08	0.145
665.28	0.145
665.48	0.145
665.68	0.144
665.88	0.144
666.07	0.143
666.27	0.143
666.47	0.143
666.67	0.143
666.87	0.143
667.06	0.142
667.26	0.142
667.46	0.142
667.66	0.142
667.85	0.142
668.05	0.142
668.25	0.142
668.45	0.142
668.65	0.142
668.84	0.141
669.04	0.141
669.24	0.141
669.44	0.140
669.63	0.140
669.83	0.140
670.03	0.139
670.23	0.139
670.42	0.138
670.62	0.138
670.82	0.138
671.02	0.138
671.22	0.136
671.41	0.136
671.61	0.137
671.81	0.137
672.01	0.137
672.20	0.137
672.40	0.136
672.60	0.136
672.80	0.136
672.99	0.136
673.19	0.136
673.39	0.136
673.58	0.135
673.78	0.135
673.98	0.135
674.18	0.134
674.37	0.134
674.57	0.133
674.77	0.133
674.97	0.133
675.16	0.133
675.36	0.132
675.56	0.132
675.75	0.132
675.95	0.131
676.15	0.131
676.35	0.131
676.54	0.131
676.74	0.131
676.94	0.131
677.13	0.131
677.33	0.130
677.53	0.131
677.73	0.131
677.92	0.130
678.12	0.131
678.32	0.130
678.51	0.130
678.71	0.130
678.91	0.129
679.11	0.128
679.30	0.128
679.50	0.128
679.70	0.127
679.89	0.127
680.09	0.127
680.29	0.127
680.48	0.127
680.68	0.126
680.88	0.126
681.07	0.127
681.27	0.126
681.47	0.126
681.66	0.126
681.86	0.126
682.06	0.125
682.25	0.125
682.45	0.125
682.65	0.124
682.84	0.123
683.04	0.123
683.24	0.123
683.43	0.123
683.63	0.123
683.83	0.123
684.02	0.123
684.22	0.123
684.42	0.122
684.61	0.122
684.81	0.122
685.01	0.122
685.20	0.121
685.40	0.122
685.60	0.121
685.79	0.121
685.99	0.121
686.19	0.120
686.38	0.120
686.58	0.121
686.77	0.121
686.97	0.121
687.17	0.121
687.36	0.121
687.56	0.120
687.76	0.120
687.95	0.120
688.15	0.120
688.34	0.120
688.54	0.119
688.74	0.119
688.93	0.118
689.13	0.118
689.33	0.119
689.52	0.117
689.72	0.118
689.91	0.117
690.11	0.117
690.31	0.116
690.50	0.116
690.70	0.117
690.89	0.116
691.09	0.115
691.29	0.115
691.48	0.115
691.68	0.115
691.87	0.115
692.07	0.115
692.27	0.115
692.46	0.115
692.66	0.115
692.85	0.114
693.05	0.114
693.25	0.114
693.44	0.114
693.64	0.114
693.83	0.114
694.03	0.113
694.22	0.112
694.42	0.112
694.62	0.112
694.81	0.112
695.01	0.112
695.20	0.112
695.40	0.112
695.59	0.112
695.79	0.111
695.99	0.112
696.18	0.112
696.38	0.112
696.57	0.112
696.77	0.111
696.96	0.112
697.16	0.111
697.36	0.111
697.55	0.111
697.75	0.111
697.94	0.110
698.14	0.110
698.33	0.110
698.53	0.109
698.72	0.109
698.92	0.109
699.11	0.109
699.31	0.108
699.51	0.109
699.70	0.108
699.90	0.108
700.09	0.108
700.29	0.108
700.48	0.108
700.68	0.107
700.87	0.107
701.07	0.107
701.26	0.106
701.46	0.106
701.65	0.106
701.85	0.106
702.04	0.106
702.24	0.106
702.43	0.106
702.63	0.106
702.82	0.106
703.02	0.106
703.21	0.106
703.41	0.106
703.60	0.106
703.80	0.105
703.99	0.105
704.19	0.105
704.38	0.104
704.58	0.104
704.77	0.104
704.97	0.104
705.16	0.104
705.36	0.104
705.55	0.104
705.75	0.104
705.94	0.104
706.14	0.104
706.33	0.104
706.53	0.104
706.72	0.104
706.92	0.103
707.11	0.103
707.31	0.103
707.50	0.103
707.70	0.103
707.89	0.103
708.09	0.102
708.28	0.102
708.48	0.102
708.67	0.102
708.86	0.102
709.06	0.102
709.25	0.102
709.45	0.102
709.64	0.101
709.84	0.101
710.03	0.101
710.23	0.101
710.42	0.101
710.62	0.101
710.81	0.100
711.00	0.100
711.20	0.100
711.39	0.100
711.59	0.100
711.78	0.100
711.98	0.099
712.17	0.099
712.37	0.099
712.56	0.099
712.75	0.099
712.95	0.099
713.14	0.100
713.34	0.100
713.53	0.100
713.73	0.100
713.92	0.100
714.11	0.100
714.31	0.100
714.50	0.100
714.70	0.100
714.89	0.099
715.08	0.099
715.28	0.099
715.47	0.098
715.67	0.098
715.86	0.098
716.06	0.099
716.25	0.098
716.44	0.098
716.64	0.097
716.83	0.097
717.03	0.097
717.22	0.097
717.41	0.096
717.61	0.097
717.80	0.097
717.99	0.097
718.19	0.097
718.38	0.097
718.58	0.097
718.77	0.097
718.96	0.096
719.16	0.096
719.35	0.096
719.55	0.096
719.74	0.095
719.93	0.095
720.13	0.095
720.32	0.094
720.51	0.094
720.71	0.094
720.90	0.094
721.10	0.094
721.29	0.094
721.48	0.093
721.68	0.094
721.87	0.094
722.06	0.093
722.26	0.094
722.45	0.094
722.64	0.094
722.84	0.094
723.03	0.094
723.22	0.095
723.42	0.095
723.61	0.094
723.80	0.095
724.00	0.095
724.19	0.095
724.38	0.094
724.58	0.094
724.77	0.094
724.96	0.094
725.16	0.094
725.35	0.094
725.54	0.094
725.74	0.094
725.93	0.094
726.12	0.094
726.32	0.094
726.51	0.095
726.70	0.094
726.90	0.094
727.09	0.094
727.28	0.094
727.48	0.094
727.67	0.093
727.86	0.093
728.06	0.094
728.25	0.093
728.44	0.093
728.64	0.093
728.83	0.093
729.02	0.093
729.21	0.093
729.41	0.093
729.60	0.093
729.79	0.093
729.99	0.092
730.18	0.093
730.37	0.093
730.56	0.093
730.76	0.093
730.95	0.093
731.14	0.093
731.34	0.093
731.53	0.093
731.72	0.093
731.91	0.093
732.11	0.093
732.30	0.093
732.49	0.093
732.69	0.093
732.88	0.093
733.07	0.093
733.26	0.093
733.46	0.093
733.65	0.093
733.84	0.093
734.03	0.094
734.23	0.093
734.42	0.093
734.61	0.093
734.80	0.093
735.00	0.093
735.19	0.093
735.38	0.093
735.57	0.093
735.77	0.093
735.96	0.093
736.15	0.093
736.34	0.093
736.54	0.093
736.73	0.093
736.92	0.093
737.11	0.092
737.31	0.092
737.50	0.093
737.69	0.093
737.88	0.092
738.07	0.092
738.27	0.092
738.46	0.092
738.65	0.092
738.84	0.092
739.04	0.092
739.23	0.092
739.42	0.092
739.61	0.092
739.80	0.092
740.00	0.092
740.19	0.092
740.38	0.092
740.57	0.092
740.76	0.092
740.96	0.092
741.15	0.091
741.34	0.091
741.53	0.092
741.72	0.092
741.92	0.091
742.11	0.091
742.30	0.091
742.49	0.091
742.68	0.091
742.88	0.091
743.07	0.091
743.26	0.091
743.45	0.091
743.64	0.090
743.84	0.090
744.03	0.090
744.22	0.090
744.41	0.090
744.60	0.089
744.79	0.090
744.99	0.089
745.18	0.089
745.37	0.089
745.56	0.089
745.75	0.089
745.94	0.089
746.14	0.089
746.33	0.089
746.52	0.090
746.71	0.089
746.90	0.089
747.09	0.089
747.28	0.089
747.48	0.089
747.67	0.089
747.86	0.088
748.05	0.088
748.24	0.088
748.43	0.088
748.62	0.088
748.82	0.088
749.01	0.088
749.20	0.087
749.39	0.087
749.58	0.088
749.77	0.087
749.96	0.087
750.16	0.088
750.35	0.088
750.54	0.088
750.73	0.088
750.92	0.088
751.11	0.087
751.30	0.088
751.49	0.087
751.68	0.087
751.88	0.087
752.07	0.087
752.26	0.087
752.45	0.087
752.64	0.087
752.83	0.087
753.02	0.087
753.21	0.087
753.40	0.086
753.60	0.087
753.79	0.086
753.98	0.086
754.17	0.086
754.36	0.086
754.55	0.086
754.74	0.086
754.93	0.086
755.12	0.085
755.31	0.086
755.50	0.086
755.70	0.085
755.89	0.085
756.08	0.085
756.27	0.085
756.46	0.086
756.65	0.085
756.84	0.085
757.03	0.085
757.22	0.085
757.41	0.084
757.60	0.084
757.79	0.084
757.98	0.085
758.17	0.085
758.36	0.085
758.56	0.084
758.75	0.084
758.94	0.084
759.13	0.084
759.32	0.084
759.51	0.084
759.70	0.085
759.89	0.084
760.08	0.084
760.27	0.084
760.46	0.084
760.65	0.084
760.84	0.083
761.03	0.083
761.22	0.083
761.41	0.083
761.60	0.083
761.79	0.082
761.98	0.082
762.17	0.082
762.36	0.082
762.55	0.082
762.74	0.082
762.93	0.082
763.12	0.082
763.31	0.082
763.50	0.083
763.69	0.083
763.88	0.083
764.07	0.083
764.26	0.083
764.45	0.083
764.64	0.084
764.83	0.083
765.02	0.083
765.21	0.083
765.40	0.083
765.59	0.083
765.78	0.083
765.97	0.083
766.16	0.082
766.35	0.082
766.54	0.082
766.73	0.082
766.92	0.082
767.11	0.081
767.30	0.082
767.49	0.081
767.68	0.081
767.87	0.081
768.06	0.081
768.25	0.082
768.44	0.082
768.63	0.081
768.82	0.082
769.01	0.081
769.20	0.081
769.39	0.081
769.58	0.081
769.77	0.081
769.96	0.081
770.15	0.081
770.34	0.081
770.53	0.080
770.72	0.080
770.91	0.080
771.10	0.080
771.29	0.080
771.47	0.080
771.66	0.080
771.85	0.080
772.04	0.080
772.23	0.081
772.42	0.080
772.61	0.081
772.80	0.081
772.99	0.081
773.18	0.080
773.37	0.081
773.56	0.080
773.75	0.080
773.94	0.080
774.13	0.080
774.31	0.080
774.50	0.080
774.69	0.080
774.88	0.079
775.07	0.080
775.26	0.079
775.45	0.079
775.64	0.079
775.83	0.079
776.02	0.079
776.21	0.079
776.40	0.079
776.58	0.079
776.77	0.079
776.96	0.079
777.15	0.080
777.34	0.079
777.53	0.080
777.72	0.079
777.91	0.080
778.10	0.079
778.28	0.079
778.47	0.079
778.66	0.079
778.85	0.078
779.04	0.078
779.23	0.078
779.42	0.078
779.61	0.078
779.79	0.078
779.98	0.078
780.17	0.078
780.36	0.077
780.55	0.077
780.74	0.077
780.93	0.077
781.12	0.077
781.30	0.077
781.49	0.077
781.68	0.077
781.87	0.077
782.06	0.077
782.25	0.077
782.44	0.077
782.62	0.078
782.81	0.078
783.00	0.078
783.19	0.078
783.38	0.077
783.57	0.077
783.75	0.077
783.94	0.077
784.13	0.077
784.32	0.076
784.51	0.076
784.70	0.076
784.88	0.076
785.07	0.076
785.26	0.076
785.45	0.076
785.64	0.076
785.83	0.076
786.01	0.076
786.20	0.076
786.39	0.076
786.58	0.076
786.77	0.075
786.95	0.076
787.14	0.076
787.33	0.075
787.52	0.075
787.71	0.075
787.90	0.075
788.08	0.075
788.27	0.075
788.46	0.075
788.65	0.075
788.84	0.076
789.02	0.075
789.21	0.075
789.40	0.075
789.59	0.075
789.77	0.075
789.96	0.075
790.15	0.075
790.34	0.075
790.53	0.075
790.71	0.075
790.90	0.075
791.09	0.074
791.28	0.075
791.46	0.075
791.65	0.075
791.84	0.075
792.03	0.075
792.22	0.075
792.40	0.075
792.59	0.075
792.78	0.075
792.97	0.075
793.15	0.075
793.34	0.075
793.53	0.074
793.72	0.074
793.90	0.074
794.09	0.074
794.28	0.074
794.47	0.074
794.65	0.074
794.84	0.074
795.03	0.074
795.22	0.074
795.40	0.073
795.59	0.073
795.78	0.074
795.97	0.074
796.15	0.074
796.34	0.074
796.53	0.074
796.71	0.074
796.90	0.074
797.09	0.075
797.28	0.074
797.46	0.075
797.65	0.074
797.84	0.074
798.02	0.074
798.21	0.073
798.40	0.073
798.59	0.073
798.77	0.073
798.96	0.073
799.15	0.073
799.33	0.073
799.52	0.073
799.71	0.073
799.90	0.073
800.08	0.073
800.27	0.073
800.46	0.073
800.64	0.073
800.83	0.073
801.02	0.072
801.20	0.072
801.39	0.072
801.58	0.072
801.76	0.072
801.95	0.072
802.14	0.072
802.32	0.072
802.51	0.072
802.70	0.071
802.88	0.071
803.07	0.072
803.26	0.071
803.44	0.071
803.63	0.072
803.82	0.072
804.00	0.072
804.19	0.072
804.38	0.072
804.56	0.072
804.75	0.072
804.94	0.072
805.12	0.073
805.31	0.073
805.50	0.073
805.68	0.073
805.87	0.073
806.06	0.073
806.24	0.073
806.43	0.072
806.62	0.073
806.80	0.072
806.99	0.072
807.17	0.072
807.36	0.072
807.55	0.072
807.73	0.072
807.92	0.072
808.11	0.072
808.29	0.072
808.48	0.071
808.66	0.072
808.85	0.071
809.04	0.071
809.22	0.071
809.41	0.072
809.59	0.071
809.78	0.071
809.97	0.071
810.15	0.071
810.34	0.071
810.53	0.071
810.71	0.071
810.90	0.071
811.08	0.071
811.27	0.071
811.45	0.071
811.64	0.071
811.83	0.071
812.01	0.071
812.20	0.071
812.38	0.071
812.57	0.071
812.76	0.071
812.94	0.071
813.13	0.071
813.31	0.071
813.50	0.071
813.68	0.071
813.87	0.070
814.06	0.071
814.24	0.070
814.43	0.071
814.61	0.070
814.80	0.070
814.98	0.071
815.17	0.070
815.36	0.070
815.54	0.070
815.73	0.070
815.91	0.070
816.10	0.070
816.28	0.071
816.47	0.070
816.65	0.071
816.84	0.071
817.03	0.071
817.21	0.071
817.40	0.071
817.58	0.071
817.77	0.071
817.95	0.071
818.14	0.071
818.32	0.071
818.51	0.071
818.69	0.071
818.88	0.071
819.06	0.071
819.25	0.071
819.43	0.071
819.62	0.071
819.80	0.071
819.99	0.071
820.18	0.071
820.36	0.071
820.55	0.071
820.73	0.071
820.92	0.071
821.10	0.071
821.29	0.071
821.47	0.071
821.66	0.071
821.84	0.071
822.03	0.071
822.21	0.071
822.40	0.071
822.58	0.071
822.77	0.071
822.95	0.071
823.14	0.071
823.32	0.071
823.50	0.072
823.69	0.072
823.87	0.072
824.06	0.072
824.24	0.072
824.43	0.072
824.61	0.072
824.80	0.073
824.98	0.073
825.17	0.073
825.35	0.073
825.54	0.073
825.72	0.073
825.91	0.073
826.09	0.073
826.28	0.073
826.46	0.073
826.64	0.073
826.83	0.073
827.01	0.073
827.20	0.074
827.38	0.074
827.57	0.074
827.75	0.074
827.94	0.074
828.12	0.074
828.31	0.074
828.49	0.074
828.67	0.074
828.86	0.074
829.04	0.074
829.23	0.074
829.41	0.074
829.60	0.074
829.78	0.074
829.96	0.075
830.15	0.075
830.33	0.075
830.52	0.075
830.70	0.075
830.88	0.075
831.07	0.075
831.25	0.075
831.44	0.075
831.62	0.075
831.81	0.075
831.99	0.075
832.17	0.075
832.36	0.075
832.54	0.076
832.73	0.076
832.91	0.076
833.09	0.075
833.28	0.075
833.46	0.076
833.65	0.076
833.83	0.076
834.01	0.076
834.20	0.076
834.38	0.076
834.56	0.076
834.75	0.076
834.93	0.076
835.12	0.077
835.30	0.077
835.48	0.077
835.67	0.076
835.85	0.077
836.03	0.077
836.22	0.077
836.40	0.077
836.59	0.077
836.77	0.077
836.95	0.078
837.14	0.077
837.32	0.077
837.50	0.077
837.69	0.077
837.87	0.077
838.05	0.077
838.24	0.077
838.42	0.077
838.60	0.077
838.79	0.079
838.97	0.078
839.15	0.079
839.34	0.079
839.52	0.079
839.70	0.079
839.89	0.079
840.07	0.079
840.25	0.079
840.44	0.078
840.62	0.078
840.80	0.078
840.99	0.078
841.17	0.078
841.35	0.078
841.54	0.078
841.72	0.078
841.90	0.078
842.09	0.078
842.27	0.078
842.45	0.078
842.64	0.079
842.82	0.078
843.00	0.078
843.19	0.078
843.37	0.078
843.55	0.078
843.73	0.077
843.92	0.077
844.10	0.078
844.28	0.078
844.47	0.078
844.65	0.078
844.83	0.078
845.01	0.078
845.20	0.078
845.38	0.078
845.56	0.078
845.75	0.078
845.93	0.078
846.11	0.078
846.29	0.078
846.48	0.078
846.66	0.079
846.84	0.078
847.02	0.078
847.21	0.078
847.39	0.078
847.57	0.078
847.76	0.079
847.94	0.079
848.12	0.079
848.30	0.079
848.49	0.079
848.67	0.079
848.85	0.079
849.03	0.079
849.22	0.079
849.40	0.079
849.58	0.080
849.76	0.080
849.95	0.079
850.13	0.080
850.31	0.080
850.49	0.080
850.67	0.080
850.86	0.080
851.04	0.080
851.22	0.080
851.40	0.080
851.59	0.079
851.77	0.079
851.95	0.079
852.13	0.079
852.31	0.079
852.50	0.080
852.68	0.080
852.86	0.079
853.04	0.080
853.23	0.079
853.41	0.079
853.59	0.080
853.77	0.080
853.95	0.080
854.14	0.080
854.32	0.080
854.50	0.080
854.68	0.079
854.86	0.079
855.04	0.080
855.23	0.079
855.41	0.080
855.59	0.079
855.77	0.079
855.95	0.079
856.14	0.079
856.32	0.079
856.50	0.080
856.68	0.080
856.86	0.080
857.04	0.079
857.23	0.080
857.41	0.080
857.59	0.080
857.77	0.080
857.95	0.080
858.13	0.079
858.32	0.079
858.50	0.080
858.68	0.079
858.86	0.079
859.04	0.080
859.22	0.079
859.41	0.080
859.59	0.080
859.77	0.080
859.95	0.080
860.13	0.080
860.31	0.080
860.49	0.080
860.68	0.080
860.86	0.080
861.04	0.079
861.22	0.079
861.40	0.079
861.58	0.079
861.76	0.079
861.94	0.079
862.13	0.079
862.31	0.079
862.49	0.079
862.67	0.080
862.85	0.080
863.03	0.080
863.21	0.080
863.39	0.081
863.57	0.080
863.76	0.081
863.94	0.081
864.12	0.081
864.30	0.081
864.48	0.081
864.66	0.081
864.84	0.081
865.02	0.081
865.20	0.081
865.38	0.081
865.57	0.081
865.75	0.082
865.93	0.082
866.11	0.081
866.29	0.081
866.47	0.081
866.65	0.081
866.83	0.081
867.01	0.081
867.19	0.081
867.37	0.081
867.55	0.081
867.73	0.082
867.92	0.081
868.10	0.082
868.28	0.082
868.46	0.082
868.64	0.082
868.82	0.082
869.00	0.082
869.18	0.082
869.36	0.082
869.54	0.082
869.72	0.082
869.90	0.082
870.08	0.081
870.26	0.081
870.44	0.082
870.62	0.082
870.80	0.082
870.98	0.082
871.16	0.082
871.34	0.081
871.53	0.081
871.71	0.081
871.89	0.081
872.07	0.082
872.25	0.081
872.43	0.081
872.61	0.081
872.79	0.082
872.97	0.082
873.15	0.082
873.33	0.083
873.51	0.083
873.69	0.083
873.87	0.083
874.05	0.083
874.23	0.083
874.41	0.083
874.59	0.083
874.77	0.082
874.95	0.082
875.13	0.083
875.31	0.082
875.49	0.083
875.67	0.082
875.85	0.082
876.03	0.082
876.21	0.083
876.39	0.083
876.57	0.083
876.75	0.083
876.93	0.083
877.11	0.083
877.29	0.082
877.47	0.082
877.65	0.083
877.82	0.084
878.00	0.084
878.18	0.084
878.36	0.084
878.54	0.084
878.72	0.084
878.90	0.084
879.08	0.084
879.26	0.084
879.44	0.084
879.62	0.084
879.80	0.084
879.98	0.084
880.16	0.084
880.34	0.083
880.52	0.084
880.70	0.084
880.88	0.083
881.06	0.083
881.24	0.083
881.42	0.083
881.59	0.083
881.77	0.083
881.95	0.083
882.13	0.083
882.31	0.084
882.49	0.083
882.67	0.084
882.85	0.084
883.03	0.084
883.21	0.084
883.39	0.084
883.57	0.084
883.75	0.085
883.92	0.084
884.10	0.085
884.28	0.085
884.46	0.085
884.64	0.085
884.82	0.085
885.00	0.084
885.18	0.085
885.36	0.085
885.54	0.085
885.71	0.085
885.89	0.085
886.07	0.085
886.25	0.085
886.43	0.085
886.61	0.084
886.79	0.085
886.97	0.085
887.15	0.085
887.32	0.084
887.50	0.085
887.68	0.084
887.86	0.085
888.04	0.085
888.22	0.085
888.40	0.085
888.57	0.086
888.75	0.085
888.93	0.086
889.11	0.085
889.29	0.086
889.47	0.086
889.65	0.086
889.82	0.086
890.00	0.086
890.18	0.086
890.36	0.086
890.54	0.086
890.72	0.086
890.90	0.086
891.07	0.086
891.25	0.086
891.43	0.086
891.61	0.086
891.79	0.086
891.97	0.086
892.14	0.086
892.32	0.086
892.50	0.086
892.68	0.086
892.86	0.086
893.03	0.086
893.21	0.087
893.39	0.087
893.57	0.087
893.75	0.087
893.93	0.087
894.10	0.087
894.28	0.087
894.46	0.087
894.64	0.087
894.82	0.087
894.99	0.087
895.17	0.087
895.35	0.087
895.53	0.087
895.71	0.087
895.88	0.087
896.06	0.087
896.24	0.088
896.42	0.087
896.59	0.088
896.77	0.088
896.95	0.088
897.13	0.088
897.31	0.088
897.48	0.088
897.66	0.089
897.84	0.088
898.02	0.088
898.19	0.088
898.37	0.088
898.55	0.088
898.73	0.088
898.91	0.088
899.08	0.088
899.26	0.088
899.44	0.088
899.62	0.088
899.79	0.088
899.97	0.088
900.15	0.088
900.33	0.088
900.50	0.088
900.68	0.088
900.86	0.088
901.04	0.088
901.21	0.089
901.39	0.089
901.57	0.089
901.74	0.089
901.92	0.089
902.10	0.089
902.28	0.089
902.45	0.089
902.63	0.089
902.81	0.089
902.99	0.089
903.16	0.089
903.34	0.089
903.52	0.089
903.69	0.089
903.87	0.089
904.05	0.089
904.22	0.090
904.40	0.090
904.58	0.090
904.76	0.090
904.93	0.090
905.11	0.090
905.29	0.090
905.46	0.090
905.64	0.090
905.82	0.090
905.99	0.090
906.17	0.090
906.35	0.090
906.53	0.090
906.70	0.090
906.88	0.090
907.06	0.090
907.23	0.090
907.41	0.090
907.59	0.090
907.76	0.090
907.94	0.091
908.12	0.091
908.29	0.091
908.47	0.091
908.65	0.091
908.82	0.091
909.00	0.091
909.18	0.092
909.35	0.092
909.53	0.092
909.71	0.092
909.88	0.092
910.06	0.092
910.23	0.092
910.41	0.092
910.59	0.092
910.76	0.092
910.94	0.092
911.12	0.091
911.29	0.092
911.47	0.092
911.65	0.092
911.82	0.092
912.00	0.092
912.17	0.092
912.35	0.093
912.53	0.093
912.70	0.093
912.88	0.094
913.06	0.094
913.23	0.094
913.41	0.094
913.58	0.095
913.76	0.095
913.94	0.095
914.11	0.095
914.29	0.095
914.46	0.095
914.64	0.095
914.82	0.095
914.99	0.095
915.17	0.095
915.34	0.095
915.52	0.095
915.70	0.095
915.87	0.095
916.05	0.096
916.22	0.095
916.40	0.095
916.57	0.096
916.75	0.096
916.93	0.096
917.10	0.096
917.28	0.096
917.45	0.096
917.63	0.096
917.80	0.096
917.98	0.096
918.16	0.096
918.33	0.097
918.51	0.097
918.68	0.097
918.86	0.098
919.03	0.098
919.21	0.098
919.39	0.099
919.56	0.099
919.74	0.099
919.91	0.099
920.09	0.099
920.26	0.099
920.44	0.099
920.61	0.099
920.79	0.099
920.96	0.099
921.14	0.099
921.31	0.099
921.49	0.099
921.67	0.100
921.84	0.100
922.02	0.101
922.19	0.101
922.37	0.102
922.54	0.102
922.72	0.102
922.89	0.102
923.07	0.103
923.24	0.103
923.42	0.103
923.59	0.103
923.77	0.103
923.94	0.103
924.12	0.104
924.29	0.104
924.47	0.104
924.64	0.105
924.82	0.105
924.99	0.105
925.17	0.105
925.34	0.105
925.52	0.106
925.69	0.106
925.87	0.107
926.04	0.107
926.22	0.107
926.39	0.107
926.57	0.108
926.74	0.108
926.91	0.109
927.09	0.109
927.26	0.109
927.44	0.109
927.61	0.109
927.79	0.109
927.96	0.110
928.14	0.111
928.31	0.111
928.49	0.111
928.66	0.112
928.84	0.113
929.01	0.113
929.18	0.114
929.36	0.114
929.53	0.115
929.71	0.115
929.88	0.115
930.06	0.115
930.23	0.116
930.41	0.116
930.58	0.117
930.75	0.117
930.93	0.118
931.10	0.117
931.28	0.118
931.45	0.118
931.63	0.119
931.80	0.119
931.97	0.119
932.15	0.120
932.32	0.120
932.50	0.120
932.67	0.121
932.84	0.121
933.02	0.122
933.19	0.122
933.37	0.122
933.54	0.123
933.71	0.124
933.89	0.125
934.06	0.124
934.24	0.125
934.41	0.126
934.58	0.127
934.76	0.127
934.93	0.128
935.11	0.128
935.28	0.128
935.45	0.128
935.63	0.129
935.80	0.129
935.98	0.130
936.15	0.130
936.32	0.130
936.50	0.131
936.67	0.131
936.84	0.131
937.02	0.132
937.19	0.133
937.36	0.133
937.54	0.134
937.71	0.135
937.89	0.135
938.06	0.135
938.23	0.136
938.41	0.137
938.58	0.137
938.75	0.138
938.93	0.139
939.10	0.139
939.27	0.139
939.45	0.140
939.62	0.140
939.79	0.142
939.97	0.142
940.14	0.143
940.31	0.143
940.49	0.144
940.66	0.144
940.83	0.144
941.01	0.145
941.18	0.146
941.35	0.146
941.53	0.147
941.70	0.148
941.87	0.148
942.05	0.149
942.22	0.149
942.39	0.151
942.57	0.151
942.74	0.152
942.91	0.152
943.08	0.152
943.26	0.153
943.43	0.153
943.60	0.154
943.78	0.155
943.95	0.156
944.12	0.156
944.29	0.157
944.47	0.158
944.64	0.159
944.81	0.160
944.99	0.161
945.16	0.162
945.33	0.162
945.50	0.163
945.68	0.164
945.85	0.164
946.02	0.166
946.20	0.167
946.37	0.168
946.54	0.168
946.71	0.169
946.89	0.169
947.06	0.170
947.23	0.171
947.40	0.172
947.58	0.172
947.75	0.174
947.92	0.174
948.09	0.174
948.27	0.176
948.44	0.177
948.61	0.178
948.78	0.179
948.96	0.181
949.13	0.181
949.30	0.182
949.47	0.183
949.65	0.185
949.82	0.187
949.99	0.187
950.16	0.189
950.33	0.189
950.51	0.191
950.68	0.192
950.85	0.193
951.02	0.194
951.20	0.195
951.37	0.196
951.54	0.197
951.71	0.198
951.88	0.199
952.06	0.200
952.23	0.201
952.40	0.202
952.57	0.203
952.74	0.205
952.92	0.206
953.09	0.208
953.26	0.209
953.43	0.210
953.60	0.211
953.77	0.212
953.95	0.213
954.12	0.215
954.29	0.216
954.46	0.218
954.63	0.219
954.81	0.219
954.98	0.220
955.15	0.222
955.32	0.224
955.49	0.224
955.66	0.226
955.84	0.227
956.01	0.227
956.18	0.230
956.35	0.231
956.52	0.231
956.69	0.233
956.87	0.234
957.04	0.235
957.21	0.237
957.38	0.237
957.55	0.238
957.72	0.239
957.89	0.240
958.07	0.240
958.24	0.242
958.41	0.243
958.58	0.243
958.75	0.244
958.92	0.245
959.09	0.245
959.26	0.246
959.44	0.246
959.61	0.248
959.78	0.248
959.95	0.250
960.12	0.250
960.29	0.253
960.46	0.252
960.63	0.253
960.81	0.253
960.98	0.254
961.15	0.255
961.32	0.255
961.49	0.254
961.66	0.256
961.83	0.256
962.00	0.256
962.17	0.257
962.34	0.256
962.52	0.257
962.69	0.258
962.86	0.258
963.03	0.259
963.20	0.260
963.37	0.259
963.54	0.259
963.71	0.260
963.88	0.260
964.05	0.260
964.22	0.262
964.39	0.261
964.56	0.261
964.74	0.262
964.91	0.261
965.08	0.261
965.25	0.262
965.42	0.262
965.59	0.263
965.76	0.262
965.93	0.263
966.10	0.261
966.27	0.262
966.44	0.262
966.61	0.263
966.78	0.263
966.95	0.262
967.12	0.263
967.29	0.266
967.46	0.265
967.63	0.265
967.80	0.266
967.97	0.265
968.14	0.265
968.32	0.266
968.49	0.266
968.66	0.265
968.83	0.265
969.00	0.265
969.17	0.265
969.34	0.266
969.51	0.267
969.68	0.266
969.85	0.266
970.02	0.266
970.19	0.266
970.36	0.267
970.53	0.267
970.70	0.266
970.87	0.266
971.04	0.266
971.21	0.267
971.38	0.267
971.55	0.267
971.72	0.267
971.89	0.268
972.06	0.267
972.23	0.267
972.40	0.267
972.57	0.266
972.74	0.266
972.91	0.267
973.07	0.267
973.24	0.266
973.41	0.266
973.58	0.264
973.75	0.277
973.92	0.266
974.09	0.265
974.26	0.265
974.43	0.264
974.60	0.265
974.77	0.265
974.94	0.264
975.11	0.265
975.28	0.266
975.45	0.265
975.62	0.265
975.79	0.267
975.96	0.265
976.13	0.264
976.30	0.266
976.47	0.265
976.64	0.265
976.80	0.266
976.97	0.265
977.14	0.265
977.31	0.265
977.48	0.265
977.65	0.264
977.82	0.263
977.99	0.264
978.16	0.263
978.33	0.263
978.50	0.262
978.67	0.262
978.83	0.262
979.00	0.262
979.17	0.262
979.34	0.262
979.51	0.261
979.68	0.263
979.85	0.263
980.02	0.264
980.19	0.261
980.36	0.263
980.52	0.264
980.69	0.262
980.86	0.262
981.03	0.262
981.20	0.261
981.37	0.262
981.54	0.262
981.71	0.261
981.88	0.262
982.04	0.262
982.21	0.261
982.38	0.263
982.55	0.263
982.72	0.262
982.89	0.263
983.06	0.261
983.22	0.260
983.39	0.260
983.56	0.259
983.73	0.259
983.90	0.258
984.07	0.259
984.24	0.257
984.40	0.257
984.57	0.255
984.74	0.258
984.91	0.259
985.08	0.257
985.25	0.255
985.41	0.256
985.58	0.256
985.75	0.257
985.92	0.256
986.09	0.255
986.26	0.255
986.42	0.254
986.59	0.252
986.76	0.254
986.93	0.254
987.10	0.254
987.27	0.253
987.43	0.251
987.60	0.253
987.77	0.253
987.94	0.252
988.11	0.253
988.27	0.253
988.44	0.253
988.61	0.251
988.78	0.249
988.95	0.250
989.11	0.251
989.28	0.249
989.45	0.248
989.62	0.247
989.79	0.248
989.95	0.247
990.12	0.248
990.29	0.248
990.46	0.246
990.62	0.245
990.79	0.245
990.96	0.245
991.13	0.245
991.30	0.245
991.46	0.244
991.63	0.241
991.80	0.240
991.97	0.240
992.13	0.240
992.30	0.242
992.47	0.240
992.64	0.240
992.80	0.240
992.97	0.241
993.14	0.238
993.31	0.235
993.47	0.239
993.64	0.237
993.81	0.236
993.98	0.236
994.14	0.235
994.31	0.233
994.48	0.234
994.64	0.234
994.81	0.233
994.98	0.233
995.15	0.231
995.31	0.231
995.48	0.230
995.65	0.233
995.82	0.230
995.98	0.230
996.15	0.231
996.32	0.233
996.48	0.232
996.65	0.231
996.82	0.230
996.99	0.230
997.15	0.229
997.32	0.230
997.49	0.229
997.65	0.230
997.82	0.229
997.99	0.227
998.15	0.227
998.32	0.229
998.49	0.227
998.65	0.227
998.82	0.226
998.99	0.224
999.15	0.225
999.32	0.224
999.49	0.223
999.65	0.224
999.82	0.221
999.99	0.222
1000.15	0.221
1000.32	0.222
1000.49	0.222
1000.65	0.220
1000.82	0.220
1000.99	0.220
1001.15	0.220
1001.32	0.219
1001.49	0.219
1001.65	0.219
1001.82	0.221
1001.99	0.217
1002.15	0.217
1002.32	0.216
1002.49	0.218
1002.65	0.216
1002.82	0.215
1002.99	0.214
1003.15	0.216
1003.32	0.215
1003.48	0.215
1003.65	0.215
1003.82	0.214
1003.98	0.212
1004.15	0.211
1004.32	0.212
1004.48	0.212
1004.65	0.213
1004.81	0.211
1004.98	0.210
1005.15	0.211
1005.31	0.210
1005.48	0.208
1005.64	0.208
1005.81	0.211
1005.98	0.207
1006.14	0.206
1006.31	0.206
1006.47	0.204
1006.64	0.203
1006.81	0.203
1006.97	0.202
1007.14	0.201
1007.30	0.203
1007.47	0.203
1007.63	0.200
1007.80	0.199
1007.97	0.199
1008.13	0.201
1008.30	0.201
1008.46	0.201
1008.63	0.200
1008.79	0.201
1008.96	0.201
1009.13	0.202
1009.29	0.198
1009.46	0.199
1009.62	0.199
1009.79	0.197
1009.95	0.196
1010.12	0.197
1010.28	0.197
1010.45	0.196
1010.62	0.196
1010.78	0.195
1010.95	0.194
1011.11	0.195
1011.28	0.194
1011.44	0.197
1011.61	0.194
1011.77	0.193
1011.94	0.193
1012.10	0.193
1012.27	0.192
1012.43	0.192
1012.60	0.189
1012.76	0.189
1012.93	0.188
1013.10	0.187
1013.26	0.185
1013.43	0.187
1013.59	0.194
1013.76	0.186
1013.92	0.185
1014.09	0.184
1014.25	0.185
1014.42	0.186
1014.58	0.187
1014.75	0.188
1014.91	0.186
1015.08	0.188
1015.24	0.184
1015.41	0.186
1015.57	0.186
1015.73	0.185
1015.90	0.182
1016.06	0.185
1016.23	0.183
1016.39	0.183
1016.56	0.183
1016.72	0.181
1016.89	0.182
1017.05	0.183
1017.22	0.179
1017.38	0.181
1017.55	0.179
1017.71	0.182
1017.88	0.182
1018.04	0.182
1018.21	0.180
1018.37	0.180
1018.53	0.180
1018.70	0.178
1018.86	0.178
1019.03	0.180
1019.19	0.178
1019.36	0.178
1019.52	0.179
1019.69	0.179
1019.85	0.178
1020.01	0.178
1020.18	0.176
1020.34	0.177
1020.51	0.176
1020.67	0.177
1020.84	0.174
1021.00	0.175
1021.16	0.172
1021.33	0.173
1021.49	0.172
1021.66	0.172
1021.82	0.170
1021.98	0.171
1022.15	0.170
1022.31	0.170
1022.48	0.169
1022.64	0.171
1022.80	0.169
1022.97	0.168
1023.13	0.166
1023.30	0.167
1023.46	0.168
1023.62	0.167
1023.79	0.168
1023.95	0.168
1024.12	0.168
1024.28	0.166
1024.44	0.166
1024.61	0.165
1024.77	0.165
1024.93	0.165
1025.10	0.166
1025.26	0.163
1025.43	0.163
1025.59	0.158
1025.75	0.161
1025.92	0.160
1026.08	0.159
1026.24	0.158
1026.41	0.160
1026.57	0.158
1026.73	0.156
1026.90	0.157
1027.06	0.154
1027.23	0.155
1027.39	0.157
1027.55	0.157
1027.72	0.157
1027.88	0.157
1028.04	0.158
1028.21	0.158
1028.37	0.152
1028.53	0.158
1028.70	0.155
1028.86	0.154
1029.02	0.155
1029.19	0.155
1029.35	0.153
1029.51	0.152
1029.67	0.150
1029.84	0.152
1030.00	0.146
1030.16	0.147
1030.33	0.150
1030.49	0.148
1030.65	0.146
1030.82	0.161
1030.98	0.149
1031.14	0.148
1031.31	0.148
1031.47	0.147
1031.63	0.150
1031.79	0.149
1031.96	0.150
1032.12	0.150
1032.28	0.148
1032.45	0.152
1032.61	0.150
1032.77	0.148
1032.93	0.146
1033.10	0.147
1033.26	0.149
1033.42	0.146
1033.58	0.147
1033.75	0.149
1033.91	0.147
1034.07	0.150
1034.24	0.148
1034.40	0.147
1034.56	0.147
1034.72	0.147
1034.89	0.147
1035.05	0.145
1035.21	0.145
1035.37	0.143
1035.54	0.146
1035.70	0.144
1035.86	0.143
1036.02	0.145
1036.19	0.143
1036.35	0.142
1036.51	0.147
1036.67	0.144
1036.83	0.143
1037.00	0.142
1037.16	0.143
1037.32	0.143
1037.48	0.142
1037.65	0.146
1037.81	0.141
1037.97	0.141
1038.13	0.141
1038.29	0.138
1038.46	0.136
1038.62	0.140
1038.78	0.138
1038.94	0.135
1039.10	0.139
1039.27	0.134
1039.43	0.136
1039.59	0.136
1039.75	0.135
1039.91	0.134
1040.08	0.134
1040.24	0.136
1040.40	0.139
1040.56	0.136
1040.72	0.132
1040.89	0.134
1041.05	0.137
1041.21	0.137
1041.37	0.134
1041.53	0.140
1041.69	0.137
1041.86	0.136
1042.02	0.134
1042.18	0.134
1042.34	0.136
1042.50	0.139
1042.66	0.136
1042.83	0.134
1042.99	0.136
1043.15	0.132
1043.31	0.132
1043.47	0.137
1043.63	0.133
1043.79	0.131
1043.96	0.133
1044.12	0.137
1044.28	0.133
1044.44	0.135
1044.60	0.129
1044.76	0.127
1044.92	0.130
1045.09	0.131
1045.25	0.127
1045.41	0.127
1045.57	0.123
1045.73	0.123
1045.89	0.123
1046.05	0.125
1046.21	0.126
1046.38	0.125
1046.54	0.134
1046.70	0.125
1046.86	0.128
>>>>>End Processed Spectral Data<<<<<
