SpectraSuite Data File
++++++++++++++++++++++++++++++++++++
Date: Mon May 20 12:12:32 CDT 2013
User: Students
Dark Spectrum Present: Yes
Reference Spectrum Present: Yes
Number of Sampled Component Spectra: 1
Spectrometers: USB4H00887
Integration Time (usec): 60000 (USB4H00887)
Spectra Averaged: 5 (USB4H00887)
Boxcar Smoothing: 5 (USB4H00887)
Correct for Electrical Dark: No (USB4H00887)
Strobe/Lamp Enabled: No (USB4H00887)
Correct for Detector Non-linearity: No (USB4H00887)
Correct for Stray Light: No (USB4H00887)
Number of Pixels in Processed Spectrum: 3648
>>>>>Begin Processed Spectral Data<<<<<
345.83	-0.069
346.05	-0.069
346.26	-0.069
346.48	0.699
346.70	0.240
346.92	0.041
347.14	0.049
347.35	0.069
347.57	0.396
347.79	-0.277
348.01	-0.208
348.23	-0.342
348.44	-0.000
348.66	0.259
348.88	-0.403
349.10	-0.142
349.32	0.063
349.53	0.026
349.75	0.102
349.97	0.065
350.19	0.126
350.41	0.174
350.62	-0.415
350.84	0.071
351.06	0.059
351.28	0.071
351.50	0.046
351.71	0.105
351.93	-0.027
352.15	0.010
352.37	0.046
352.58	0.007
352.80	0.015
353.02	0.048
353.24	0.060
353.46	0.365
353.67	-0.107
353.89	0.055
354.11	0.063
354.33	0.088
354.54	0.129
354.76	0.306
354.98	0.724
355.20	0.431
355.41	0.150
355.63	0.265
355.85	0.116
356.07	-0.000
356.28	0.121
356.50	0.156
356.72	0.053
356.94	0.143
357.15	0.114
357.37	-0.000
357.59	0.081
357.81	0.005
358.02	0.025
358.24	0.018
358.46	0.070
358.68	0.048
358.89	0.030
359.11	-0.000
359.33	0.016
359.55	-0.237
359.76	0.055
359.98	0.054
360.20	0.072
360.42	0.063
360.63	0.079
360.85	0.038
361.07	0.240
361.29	0.045
361.50	0.169
361.72	0.090
361.94	0.328
362.15	0.123
362.37	0.079
362.59	0.095
362.81	0.183
363.02	0.298
363.24	0.455
363.46	0.234
363.68	0.313
363.89	0.186
364.11	0.227
364.33	0.297
364.54	0.168
364.76	0.203
364.98	0.193
365.20	0.198
365.41	0.121
365.63	0.159
365.85	0.112
366.06	0.387
366.28	0.481
366.50	0.269
366.71	0.112
366.93	0.172
367.15	0.158
367.37	0.146
367.58	0.178
367.80	0.186
368.02	0.622
368.23	0.180
368.45	0.170
368.67	0.124
368.88	0.139
369.10	-0.000
369.32	0.128
369.53	0.082
369.75	0.154
369.97	0.378
370.19	0.215
370.40	0.080
370.62	0.259
370.84	0.096
371.05	0.560
371.27	0.129
371.49	0.151
371.70	0.182
371.92	0.234
372.14	0.092
372.35	0.115
372.57	0.135
372.79	0.344
373.00	0.080
373.22	0.131
373.44	0.134
373.65	0.111
373.87	0.160
374.09	0.585
374.30	0.137
374.52	0.174
374.74	0.123
374.95	0.687
375.17	0.184
375.39	-0.000
375.60	0.220
375.82	0.409
376.04	0.149
376.25	0.177
376.47	0.114
376.68	0.278
376.90	0.142
377.12	0.325
377.33	0.171
377.55	0.312
377.77	0.143
377.98	0.205
378.20	0.127
378.42	0.172
378.63	0.211
378.85	-0.000
379.07	0.133
379.28	0.461
379.50	0.270
379.71	0.140
379.93	0.101
380.15	0.130
380.36	0.200
380.58	0.143
380.80	0.370
381.01	0.111
381.23	0.105
381.44	0.124
381.66	0.131
381.88	0.178
382.09	-0.083
382.31	0.126
382.53	0.128
382.74	0.546
382.96	0.155
383.17	0.135
383.39	0.181
383.61	0.206
383.82	0.144
384.04	0.186
384.25	0.212
384.47	0.197
384.69	0.196
384.90	0.197
385.12	0.481
385.33	0.292
385.55	0.222
385.77	0.375
385.98	0.207
386.20	0.279
386.41	0.236
386.63	0.282
386.85	0.234
387.06	0.287
387.28	0.433
387.49	0.264
387.71	0.186
387.93	0.164
388.14	0.458
388.36	0.197
388.57	0.184
388.79	0.213
389.01	1.282
389.22	0.260
389.44	0.236
389.65	0.191
389.87	0.193
390.08	0.242
390.30	0.189
390.52	0.358
390.73	0.344
390.95	0.232
391.16	0.225
391.38	-0.000
391.59	0.263
391.81	0.221
392.03	0.209
392.24	0.235
392.46	0.202
392.67	0.186
392.89	0.271
393.10	0.444
393.32	0.312
393.53	0.372
393.75	0.221
393.97	0.250
394.18	0.354
394.40	0.315
394.61	0.340
394.83	0.295
395.04	0.346
395.26	0.232
395.47	0.343
395.69	0.279
395.91	0.299
396.12	0.380
396.34	0.385
396.55	0.244
396.77	0.378
396.98	-0.000
397.20	0.454
397.41	0.512
397.63	0.335
397.84	0.304
398.06	0.285
398.27	0.291
398.49	0.330
398.71	0.245
398.92	0.290
399.14	0.365
399.35	0.454
399.57	0.428
399.78	0.286
400.00	0.282
400.21	0.352
400.43	0.288
400.64	0.292
400.86	0.639
401.07	0.354
401.29	0.316
401.50	0.341
401.72	0.504
401.93	0.321
402.15	0.395
402.36	0.357
402.58	0.294
402.79	0.327
403.01	0.577
403.22	0.451
403.44	0.288
403.65	0.447
403.87	0.505
404.08	0.388
404.30	0.628
404.51	0.335
404.73	0.416
404.94	0.350
405.16	0.362
405.37	0.280
405.59	0.489
405.80	0.317
406.02	0.399
406.23	0.401
406.45	0.450
406.66	0.489
406.88	0.303
407.09	0.462
407.31	0.365
407.52	0.442
407.74	0.364
407.95	0.440
408.17	0.390
408.38	0.408
408.60	0.266
408.81	0.439
409.03	0.336
409.24	0.344
409.45	0.392
409.67	0.371
409.88	0.337
410.10	0.426
410.31	0.359
410.53	0.359
410.74	0.516
410.96	0.519
411.17	0.556
411.39	0.423
411.60	0.396
411.82	0.466
412.03	0.468
412.24	0.441
412.46	0.690
412.67	0.541
412.89	0.535
413.10	0.534
413.32	0.463
413.53	0.530
413.75	0.540
413.96	0.406
414.17	0.563
414.39	0.571
414.60	0.473
414.82	0.605
415.03	0.457
415.25	0.507
415.46	0.343
415.68	0.500
415.89	1.012
416.10	0.769
416.32	0.398
416.53	0.457
416.75	0.424
416.96	0.499
417.18	0.433
417.39	0.421
417.60	0.412
417.82	0.595
418.03	0.506
418.25	0.426
418.46	0.450
418.67	0.411
418.89	0.446
419.10	0.467
419.32	0.636
419.53	0.584
419.75	0.489
419.96	0.435
420.17	0.545
420.39	0.520
420.60	0.528
420.82	0.639
421.03	0.519
421.24	0.429
421.46	0.478
421.67	0.520
421.89	0.449
422.10	0.489
422.31	0.496
422.53	0.707
422.74	0.522
422.96	0.420
423.17	0.478
423.38	0.584
423.60	0.492
423.81	0.621
424.03	0.530
424.24	0.600
424.45	0.593
424.67	0.579
424.88	0.515
425.09	0.563
425.31	0.509
425.52	0.539
425.74	0.612
425.95	0.682
426.16	0.520
426.38	0.603
426.59	0.550
426.80	0.637
427.02	0.671
427.23	0.522
427.45	0.693
427.66	0.688
427.87	0.520
428.09	0.548
428.30	0.609
428.51	0.578
428.73	0.643
428.94	0.566
429.15	0.555
429.37	0.525
429.58	0.546
429.79	0.505
430.01	0.609
430.22	0.610
430.44	0.640
430.65	0.569
430.86	0.626
431.08	0.604
431.29	0.552
431.50	0.651
431.72	0.907
431.93	0.710
432.14	0.523
432.36	0.579
432.57	0.592
432.78	0.606
433.00	0.559
433.21	0.550
433.42	0.683
433.64	0.599
433.85	0.689
434.06	0.547
434.28	0.585
434.49	0.600
434.70	0.601
434.92	0.611
435.13	0.664
435.34	0.676
435.56	0.637
435.77	0.640
435.98	0.823
436.20	0.678
436.41	0.589
436.62	0.580
436.83	0.657
437.05	0.748
437.26	0.644
437.47	0.572
437.69	0.627
437.90	0.580
438.11	0.571
438.33	0.623
438.54	0.635
438.75	0.807
438.97	0.788
439.18	0.590
439.39	0.616
439.60	0.668
439.82	0.617
440.03	0.566
440.24	0.819
440.46	0.620
440.67	0.597
440.88	0.649
441.10	0.609
441.31	0.608
441.52	0.664
441.73	0.755
441.95	0.663
442.16	0.612
442.37	0.987
442.58	0.598
442.80	0.585
443.01	0.774
443.22	0.702
443.44	0.591
443.65	0.701
443.86	0.696
444.07	0.750
444.29	0.651
444.50	0.837
444.71	0.630
444.92	0.593
445.14	0.754
445.35	0.790
445.56	0.621
445.78	0.734
445.99	0.724
446.20	0.624
446.41	0.702
446.63	0.706
446.84	0.667
447.05	0.670
447.26	0.806
447.48	0.680
447.69	0.643
447.90	0.729
448.11	0.657
448.33	0.689
448.54	0.710
448.75	0.737
448.96	0.746
449.18	0.794
449.39	0.707
449.60	0.688
449.81	0.833
450.03	0.714
450.24	0.778
450.45	0.728
450.66	0.708
450.87	0.740
451.09	0.689
451.30	0.672
451.51	0.743
451.72	0.753
451.94	0.771
452.15	0.843
452.36	0.705
452.57	0.722
452.78	0.723
453.00	0.756
453.21	0.711
453.42	0.689
453.63	0.786
453.85	0.751
454.06	0.745
454.27	0.881
454.48	0.781
454.69	0.710
454.91	0.792
455.12	0.687
455.33	0.771
455.54	0.792
455.75	0.756
455.97	0.784
456.18	0.769
456.39	0.780
456.60	0.812
456.81	0.752
457.03	0.762
457.24	0.760
457.45	0.856
457.66	0.799
457.87	0.755
458.09	0.778
458.30	0.683
458.51	0.822
458.72	0.840
458.93	0.848
459.15	0.741
459.36	0.802
459.57	0.823
459.78	0.866
459.99	0.772
460.20	0.731
460.42	0.811
460.63	0.767
460.84	0.744
461.05	0.765
461.26	0.825
461.47	0.741
461.69	0.790
461.90	0.831
462.11	0.791
462.32	0.852
462.53	0.788
462.74	0.887
462.96	0.769
463.17	0.763
463.38	0.809
463.59	0.926
463.80	0.765
464.01	0.795
464.23	0.880
464.44	0.839
464.65	0.839
464.86	0.863
465.07	0.874
465.28	0.829
465.49	0.847
465.71	0.797
465.92	0.841
466.13	0.891
466.34	0.823
466.55	0.877
466.76	0.836
466.97	0.862
467.19	0.849
467.40	0.885
467.61	0.890
467.82	0.814
468.03	0.795
468.24	0.867
468.45	0.898
468.66	0.879
468.88	0.895
469.09	0.896
469.30	0.950
469.51	0.869
469.72	0.911
469.93	0.885
470.14	0.860
470.35	0.962
470.57	0.901
470.78	0.839
470.99	0.972
471.20	0.901
471.41	0.860
471.62	0.914
471.83	0.890
472.04	0.923
472.25	0.965
472.47	0.875
472.68	0.874
472.89	0.881
473.10	0.926
473.31	0.878
473.52	0.944
473.73	0.966
473.94	0.879
474.15	0.907
474.36	0.909
474.57	0.938
474.79	0.912
475.00	0.914
475.21	0.896
475.42	0.991
475.63	0.888
475.84	0.919
476.05	0.923
476.26	0.894
476.47	0.924
476.68	0.971
476.89	0.897
477.10	0.946
477.32	0.934
477.53	0.991
477.74	0.909
477.95	0.951
478.16	0.893
478.37	0.940
478.58	0.947
478.79	0.966
479.00	0.963
479.21	0.921
479.42	0.968
479.63	0.970
479.84	0.933
480.05	0.935
480.26	0.962
480.47	0.988
480.69	0.990
480.90	0.954
481.11	0.945
481.32	1.012
481.53	0.947
481.74	0.996
481.95	0.965
482.16	0.984
482.37	0.989
482.58	0.956
482.79	0.974
483.00	1.006
483.21	0.946
483.42	0.919
483.63	0.999
483.84	1.027
484.05	1.021
484.26	0.984
484.47	0.982
484.68	0.945
484.89	0.953
485.10	1.004
485.31	0.979
485.52	0.984
485.73	0.984
485.94	1.025
486.15	0.972
486.37	0.987
486.58	0.951
486.79	0.968
487.00	1.021
487.21	1.006
487.42	1.003
487.63	1.007
487.84	1.029
488.05	1.028
488.26	0.982
488.47	0.987
488.68	1.020
488.89	0.996
489.10	0.984
489.31	0.994
489.52	1.034
489.73	0.998
489.94	1.040
490.15	0.991
490.36	1.031
490.57	0.980
490.78	0.965
490.99	1.001
491.20	1.081
491.41	1.037
491.62	0.977
491.83	1.002
492.04	0.998
492.25	1.005
492.45	1.008
492.66	1.034
492.87	1.027
493.08	1.013
493.29	0.996
493.50	0.985
493.71	0.995
493.92	0.990
494.13	1.008
494.34	1.030
494.55	1.035
494.76	1.068
494.97	1.059
495.18	1.024
495.39	1.042
495.60	0.992
495.81	0.994
496.02	1.014
496.23	1.007
496.44	1.043
496.65	1.030
496.86	1.037
497.07	1.065
497.28	1.060
497.49	1.005
497.70	1.006
497.91	1.028
498.12	1.008
498.32	1.052
498.53	1.036
498.74	1.025
498.95	1.056
499.16	1.008
499.37	1.009
499.58	1.021
499.79	1.054
500.00	1.048
500.21	1.076
500.42	1.018
500.63	1.019
500.84	1.040
501.05	1.017
501.26	1.046
501.46	1.085
501.67	1.045
501.88	1.046
502.09	1.017
502.30	1.027
502.51	1.077
502.72	1.030
502.93	1.047
503.14	1.072
503.35	1.039
503.56	1.034
503.77	1.067
503.97	1.043
504.18	1.042
504.39	1.081
504.60	1.048
504.81	1.078
505.02	1.066
505.23	1.066
505.44	1.046
505.65	1.054
505.86	1.034
506.07	1.103
506.27	1.062
506.48	1.070
506.69	1.048
506.90	1.071
507.11	1.067
507.32	1.039
507.53	1.050
507.74	1.041
507.95	1.057
508.15	1.062
508.36	1.065
508.57	1.077
508.78	1.057
508.99	1.059
509.20	1.032
509.41	1.058
509.62	1.046
509.82	1.039
510.03	1.052
510.24	1.052
510.45	1.075
510.66	1.067
510.87	1.063
511.08	1.021
511.29	1.064
511.49	1.040
511.70	1.091
511.91	1.023
512.12	1.021
512.33	1.055
512.54	1.069
512.75	1.051
512.95	1.080
513.16	1.068
513.37	1.044
513.58	1.083
513.79	1.046
514.00	1.052
514.20	1.071
514.41	1.060
514.62	1.026
514.83	1.071
515.04	1.059
515.25	1.036
515.46	1.050
515.66	1.052
515.87	1.068
516.08	1.034
516.29	1.059
516.50	1.038
516.71	1.033
516.91	1.042
517.12	1.058
517.33	1.046
517.54	1.032
517.75	1.033
517.95	1.046
518.16	1.055
518.37	1.024
518.58	1.030
518.79	1.004
519.00	1.034
519.20	1.042
519.41	1.017
519.62	1.037
519.83	1.049
520.04	1.013
520.24	1.014
520.45	1.023
520.66	1.047
520.87	1.005
521.08	1.004
521.28	1.009
521.49	1.027
521.70	0.995
521.91	1.010
522.12	0.989
522.32	1.012
522.53	0.992
522.74	0.981
522.95	0.988
523.16	0.992
523.36	1.002
523.57	0.981
523.78	0.977
523.99	0.982
524.20	0.972
524.40	0.986
524.61	0.992
524.82	0.963
525.03	0.968
525.23	0.971
525.44	0.955
525.65	0.952
525.86	0.975
526.06	0.945
526.27	0.945
526.48	0.956
526.69	0.936
526.90	0.941
527.10	0.978
527.31	0.933
527.52	0.925
527.73	0.916
527.93	0.927
528.14	0.933
528.35	0.924
528.56	0.926
528.76	0.920
528.97	0.911
529.18	0.903
529.39	0.902
529.59	0.905
529.80	0.940
530.01	0.912
530.22	0.910
530.42	0.878
530.63	0.895
530.84	0.873
531.05	0.887
531.25	0.890
531.46	0.881
531.67	0.859
531.88	0.878
532.08	0.870
532.29	0.866
532.50	0.859
532.70	0.852
532.91	0.842
533.12	0.844
533.33	0.870
533.53	0.839
533.74	0.838
533.95	0.846
534.15	0.833
534.36	0.834
534.57	0.817
534.78	0.819
534.98	0.829
535.19	0.799
535.40	0.800
535.60	0.818
535.81	0.797
536.02	0.800
536.23	0.790
536.43	0.793
536.64	0.778
536.85	0.786
537.05	0.794
537.26	0.771
537.47	0.774
537.67	0.765
537.88	0.760
538.09	0.767
538.30	0.757
538.50	0.749
538.71	0.760
538.92	0.747
539.12	0.744
539.33	0.739
539.54	0.739
539.74	0.744
539.95	0.734
540.16	0.732
540.36	0.722
540.57	0.723
540.78	0.715
540.98	0.713
541.19	0.712
541.40	0.698
541.60	0.708
541.81	0.703
542.02	0.702
542.22	0.691
542.43	0.686
542.64	0.681
542.84	0.680
543.05	0.672
543.26	0.672
543.46	0.674
543.67	0.673
543.88	0.668
544.08	0.658
544.29	0.653
544.50	0.653
544.70	0.654
544.91	0.645
545.12	0.646
545.32	0.641
545.53	0.645
545.74	0.633
545.94	0.630
546.15	0.627
546.35	0.624
546.56	0.620
546.77	0.618
546.97	0.615
547.18	0.607
547.39	0.607
547.59	0.605
547.80	0.601
548.01	0.605
548.21	0.600
548.42	0.592
548.62	0.591
548.83	0.589
549.04	0.585
549.24	0.578
549.45	0.577
549.65	0.573
549.86	0.568
550.07	0.567
550.27	0.566
550.48	0.574
550.69	0.560
550.89	0.560
551.10	0.555
551.30	0.553
551.51	0.552
551.72	0.541
551.92	0.543
552.13	0.542
552.33	0.542
552.54	0.536
552.75	0.529
552.95	0.530
553.16	0.525
553.36	0.524
553.57	0.522
553.78	0.520
553.98	0.521
554.19	0.512
554.39	0.510
554.60	0.513
554.80	0.514
555.01	0.506
555.22	0.507
555.42	0.504
555.63	0.497
555.83	0.500
556.04	0.495
556.25	0.496
556.45	0.486
556.66	0.484
556.86	0.487
557.07	0.483
557.27	0.483
557.48	0.477
557.68	0.475
557.89	0.476
558.10	0.472
558.30	0.467
558.51	0.465
558.71	0.463
558.92	0.459
559.12	0.460
559.33	0.463
559.54	0.458
559.74	0.454
559.95	0.452
560.15	0.451
560.36	0.448
560.56	0.444
560.77	0.444
560.97	0.444
561.18	0.439
561.38	0.438
561.59	0.441
561.79	0.437
562.00	0.435
562.21	0.432
562.41	0.431
562.62	0.430
562.82	0.428
563.03	0.424
563.23	0.423
563.44	0.422
563.64	0.419
563.85	0.420
564.05	0.413
564.26	0.412
564.46	0.411
564.67	0.411
564.87	0.407
565.08	0.404
565.28	0.404
565.49	0.405
565.69	0.402
565.90	0.399
566.10	0.401
566.31	0.395
566.51	0.397
566.72	0.398
566.92	0.391
567.13	0.391
567.33	0.389
567.54	0.387
567.74	0.385
567.95	0.381
568.15	0.382
568.36	0.382
568.56	0.380
568.77	0.375
568.97	0.373
569.18	0.372
569.38	0.370
569.59	0.371
569.79	0.369
570.00	0.367
570.20	0.365
570.41	0.364
570.61	0.362
570.82	0.364
571.02	0.360
571.23	0.362
571.43	0.358
571.64	0.357
571.84	0.355
572.05	0.354
572.25	0.354
572.45	0.352
572.66	0.349
572.86	0.347
573.07	0.346
573.27	0.346
573.48	0.344
573.68	0.340
573.89	0.340
574.09	0.341
574.30	0.339
574.50	0.337
574.70	0.338
574.91	0.335
575.11	0.336
575.32	0.335
575.52	0.331
575.73	0.331
575.93	0.330
576.14	0.329
576.34	0.327
576.54	0.326
576.75	0.324
576.95	0.323
577.16	0.321
577.36	0.319
577.57	0.319
577.77	0.318
577.97	0.314
578.18	0.316
578.38	0.313
578.59	0.311
578.79	0.309
579.00	0.309
579.20	0.308
579.40	0.306
579.61	0.306
579.81	0.305
580.02	0.302
580.22	0.302
580.42	0.301
580.63	0.301
580.83	0.300
581.04	0.298
581.24	0.297
581.45	0.297
581.65	0.297
581.85	0.295
582.06	0.293
582.26	0.293
582.47	0.291
582.67	0.291
582.87	0.290
583.08	0.288
583.28	0.288
583.48	0.286
583.69	0.283
583.89	0.283
584.10	0.284
584.30	0.282
584.50	0.280
584.71	0.279
584.91	0.279
585.12	0.277
585.32	0.278
585.52	0.276
585.73	0.274
585.93	0.274
586.13	0.274
586.34	0.272
586.54	0.271
586.75	0.270
586.95	0.269
587.15	0.269
587.36	0.268
587.56	0.267
587.76	0.266
587.97	0.266
588.17	0.264
588.37	0.264
588.58	0.264
588.78	0.261
588.98	0.262
589.19	0.260
589.39	0.258
589.60	0.259
589.80	0.256
590.00	0.256
590.21	0.256
590.41	0.254
590.61	0.254
590.82	0.253
591.02	0.253
591.22	0.251
591.43	0.252
591.63	0.250
591.83	0.250
592.04	0.249
592.24	0.249
592.44	0.246
592.65	0.245
592.85	0.245
593.05	0.245
593.26	0.244
593.46	0.243
593.66	0.243
593.86	0.241
594.07	0.239
594.27	0.239
594.47	0.239
594.68	0.238
594.88	0.239
595.08	0.238
595.29	0.237
595.49	0.235
595.69	0.235
595.90	0.234
596.10	0.234
596.30	0.234
596.50	0.232
596.71	0.232
596.91	0.231
597.11	0.230
597.32	0.230
597.52	0.229
597.72	0.229
597.93	0.228
598.13	0.226
598.33	0.226
598.53	0.226
598.74	0.225
598.94	0.224
599.14	0.224
599.35	0.224
599.55	0.223
599.75	0.222
599.95	0.222
600.16	0.222
600.36	0.221
600.56	0.221
600.76	0.220
600.97	0.218
601.17	0.218
601.37	0.218
601.58	0.217
601.78	0.217
601.98	0.216
602.18	0.215
602.39	0.215
602.59	0.215
602.79	0.213
602.99	0.213
603.20	0.212
603.40	0.212
603.60	0.212
603.80	0.211
604.01	0.211
604.21	0.210
604.41	0.209
604.61	0.208
604.82	0.208
605.02	0.208
605.22	0.207
605.42	0.207
605.62	0.207
605.83	0.205
606.03	0.205
606.23	0.205
606.43	0.204
606.64	0.204
606.84	0.204
607.04	0.202
607.24	0.203
607.45	0.203
607.65	0.201
607.85	0.201
608.05	0.200
608.25	0.200
608.46	0.199
608.66	0.199
608.86	0.199
609.06	0.197
609.26	0.197
609.47	0.197
609.67	0.196
609.87	0.197
610.07	0.196
610.28	0.194
610.48	0.194
610.68	0.195
610.88	0.193
611.08	0.194
611.29	0.192
611.49	0.192
611.69	0.192
611.89	0.190
612.09	0.190
612.29	0.190
612.50	0.190
612.70	0.190
612.90	0.189
613.10	0.189
613.30	0.188
613.51	0.188
613.71	0.187
613.91	0.192
614.11	0.187
614.31	0.187
614.51	0.187
614.72	0.186
614.92	0.185
615.12	0.185
615.32	0.185
615.52	0.185
615.72	0.185
615.93	0.185
616.13	0.184
616.33	0.184
616.53	0.183
616.73	0.184
616.93	0.183
617.14	0.183
617.34	0.183
617.54	0.183
617.74	0.183
617.94	0.182
618.14	0.181
618.34	0.181
618.55	0.180
618.75	0.181
618.95	0.180
619.15	0.180
619.35	0.179
619.55	0.178
619.75	0.179
619.96	0.178
620.16	0.178
620.36	0.178
620.56	0.177
620.76	0.177
620.96	0.176
621.16	0.176
621.36	0.175
621.57	0.176
621.77	0.176
621.97	0.174
622.17	0.174
622.37	0.174
622.57	0.174
622.77	0.173
622.97	0.172
623.18	0.172
623.38	0.172
623.58	0.172
623.78	0.172
623.98	0.171
624.18	0.171
624.38	0.171
624.58	0.171
624.78	0.171
624.98	0.171
625.19	0.171
625.39	0.170
625.59	0.170
625.79	0.170
625.99	0.169
626.19	0.170
626.39	0.169
626.59	0.169
626.79	0.169
626.99	0.169
627.19	0.169
627.40	0.169
627.60	0.169
627.80	0.169
628.00	0.169
628.20	0.168
628.40	0.168
628.60	0.168
628.80	0.166
629.00	0.166
629.20	0.166
629.40	0.166
629.60	0.165
629.80	0.165
630.00	0.165
630.20	0.165
630.41	0.163
630.61	0.163
630.81	0.163
631.01	0.164
631.21	0.163
631.41	0.163
631.61	0.163
631.81	0.163
632.01	0.162
632.21	0.162
632.41	0.160
632.61	0.160
632.81	0.160
633.01	0.160
633.21	0.160
633.41	0.161
633.61	0.159
633.81	0.159
634.01	0.159
634.21	0.159
634.41	0.158
634.61	0.159
634.81	0.159
635.01	0.159
635.22	0.159
635.42	0.159
635.62	0.158
635.82	0.158
636.02	0.158
636.22	0.157
636.42	0.157
636.62	0.157
636.82	0.156
637.02	0.156
637.22	0.156
637.42	0.155
637.62	0.154
637.82	0.155
638.02	0.154
638.22	0.154
638.42	0.154
638.62	0.154
638.82	0.154
639.02	0.153
639.22	0.153
639.42	0.153
639.62	0.152
639.82	0.152
640.02	0.152
640.22	0.152
640.42	0.152
640.62	0.151
640.82	0.151
641.02	0.151
641.22	0.151
641.42	0.151
641.61	0.151
641.81	0.151
642.01	0.151
642.21	0.151
642.41	0.151
642.61	0.150
642.81	0.149
643.01	0.150
643.21	0.150
643.41	0.149
643.61	0.149
643.81	0.149
644.01	0.147
644.21	0.147
644.41	0.147
644.61	0.147
644.81	0.148
645.01	0.147
645.21	0.147
645.41	0.147
645.61	0.147
645.81	0.146
646.01	0.146
646.21	0.146
646.40	0.146
646.60	0.146
646.80	0.146
647.00	0.146
647.20	0.145
647.40	0.145
647.60	0.145
647.80	0.145
648.00	0.145
648.20	0.144
648.40	0.144
648.60	0.144
648.80	0.143
649.00	0.143
649.20	0.144
649.39	0.142
649.59	0.142
649.79	0.142
649.99	0.141
650.19	0.141
650.39	0.140
650.59	0.141
650.79	0.140
650.99	0.140
651.19	0.139
651.39	0.139
651.58	0.139
651.78	0.139
651.98	0.138
652.18	0.138
652.38	0.138
652.58	0.139
652.78	0.138
652.98	0.138
653.18	0.139
653.38	0.139
653.57	0.139
653.77	0.139
653.97	0.139
654.17	0.139
654.37	0.138
654.57	0.138
654.77	0.138
654.97	0.137
655.16	0.137
655.36	0.137
655.56	0.136
655.76	0.136
655.96	0.136
656.16	0.135
656.36	0.135
656.56	0.135
656.75	0.134
656.95	0.134
657.15	0.134
657.35	0.133
657.55	0.133
657.75	0.133
657.95	0.133
658.14	0.133
658.34	0.133
658.54	0.133
658.74	0.132
658.94	0.132
659.14	0.132
659.34	0.132
659.53	0.131
659.73	0.131
659.93	0.131
660.13	0.130
660.33	0.130
660.53	0.130
660.72	0.130
660.92	0.130
661.12	0.129
661.32	0.129
661.52	0.129
661.72	0.129
661.91	0.128
662.11	0.128
662.31	0.128
662.51	0.128
662.71	0.128
662.90	0.127
663.10	0.127
663.30	0.127
663.50	0.127
663.70	0.127
663.90	0.127
664.09	0.126
664.29	0.126
664.49	0.125
664.69	0.125
664.89	0.125
665.08	0.125
665.28	0.125
665.48	0.125
665.68	0.124
665.88	0.124
666.07	0.124
666.27	0.124
666.47	0.123
666.67	0.124
666.87	0.123
667.06	0.123
667.26	0.123
667.46	0.122
667.66	0.122
667.85	0.122
668.05	0.122
668.25	0.122
668.45	0.122
668.65	0.122
668.84	0.122
669.04	0.122
669.24	0.121
669.44	0.121
669.63	0.121
669.83	0.121
670.03	0.120
670.23	0.120
670.42	0.119
670.62	0.119
670.82	0.118
671.02	0.118
671.22	0.118
671.41	0.117
671.61	0.117
671.81	0.118
672.01	0.118
672.20	0.117
672.40	0.117
672.60	0.117
672.80	0.117
672.99	0.117
673.19	0.116
673.39	0.116
673.58	0.116
673.78	0.116
673.98	0.115
674.18	0.115
674.37	0.115
674.57	0.115
674.77	0.114
674.97	0.114
675.16	0.115
675.36	0.114
675.56	0.114
675.75	0.114
675.95	0.113
676.15	0.114
676.35	0.114
676.54	0.113
676.74	0.113
676.94	0.114
677.13	0.113
677.33	0.112
677.53	0.112
677.73	0.112
677.92	0.111
678.12	0.111
678.32	0.110
678.51	0.111
678.71	0.111
678.91	0.110
679.11	0.110
679.30	0.110
679.50	0.110
679.70	0.110
679.89	0.110
680.09	0.111
680.29	0.110
680.48	0.110
680.68	0.109
680.88	0.109
681.07	0.109
681.27	0.109
681.47	0.109
681.66	0.109
681.86	0.108
682.06	0.108
682.25	0.108
682.45	0.108
682.65	0.108
682.84	0.108
683.04	0.107
683.24	0.107
683.43	0.107
683.63	0.107
683.83	0.107
684.02	0.107
684.22	0.107
684.42	0.106
684.61	0.106
684.81	0.106
685.01	0.106
685.20	0.106
685.40	0.106
685.60	0.105
685.79	0.106
685.99	0.105
686.19	0.105
686.38	0.105
686.58	0.106
686.77	0.106
686.97	0.105
687.17	0.105
687.36	0.105
687.56	0.105
687.76	0.104
687.95	0.104
688.15	0.104
688.34	0.104
688.54	0.103
688.74	0.102
688.93	0.102
689.13	0.102
689.33	0.102
689.52	0.101
689.72	0.102
689.91	0.101
690.11	0.101
690.31	0.100
690.50	0.101
690.70	0.101
690.89	0.100
691.09	0.100
691.29	0.100
691.48	0.100
691.68	0.100
691.87	0.100
692.07	0.100
692.27	0.100
692.46	0.100
692.66	0.100
692.85	0.100
693.05	0.099
693.25	0.099
693.44	0.099
693.64	0.098
693.83	0.099
694.03	0.098
694.22	0.098
694.42	0.098
694.62	0.098
694.81	0.098
695.01	0.098
695.20	0.098
695.40	0.097
695.59	0.097
695.79	0.097
695.99	0.097
696.18	0.097
696.38	0.097
696.57	0.097
696.77	0.096
696.96	0.096
697.16	0.096
697.36	0.096
697.55	0.096
697.75	0.095
697.94	0.095
698.14	0.095
698.33	0.095
698.53	0.094
698.72	0.094
698.92	0.094
699.11	0.094
699.31	0.094
699.51	0.095
699.70	0.094
699.90	0.094
700.09	0.094
700.29	0.094
700.48	0.094
700.68	0.094
700.87	0.094
701.07	0.094
701.26	0.093
701.46	0.093
701.65	0.093
701.85	0.093
702.04	0.092
702.24	0.092
702.43	0.092
702.63	0.092
702.82	0.092
703.02	0.092
703.21	0.092
703.41	0.092
703.60	0.092
703.80	0.092
703.99	0.091
704.19	0.092
704.38	0.092
704.58	0.091
704.77	0.091
704.97	0.091
705.16	0.091
705.36	0.091
705.55	0.091
705.75	0.091
705.94	0.091
706.14	0.091
706.33	0.091
706.53	0.091
706.72	0.091
706.92	0.090
707.11	0.090
707.31	0.090
707.50	0.090
707.70	0.090
707.89	0.090
708.09	0.090
708.28	0.090
708.48	0.090
708.67	0.089
708.86	0.089
709.06	0.089
709.25	0.089
709.45	0.089
709.64	0.089
709.84	0.089
710.03	0.088
710.23	0.088
710.42	0.088
710.62	0.088
710.81	0.088
711.00	0.088
711.20	0.088
711.39	0.087
711.59	0.088
711.78	0.088
711.98	0.087
712.17	0.088
712.37	0.087
712.56	0.087
712.75	0.087
712.95	0.088
713.14	0.088
713.34	0.088
713.53	0.088
713.73	0.088
713.92	0.088
714.11	0.088
714.31	0.088
714.50	0.088
714.70	0.087
714.89	0.087
715.08	0.087
715.28	0.087
715.47	0.086
715.67	0.087
715.86	0.087
716.06	0.087
716.25	0.086
716.44	0.086
716.64	0.086
716.83	0.087
717.03	0.086
717.22	0.086
717.41	0.086
717.61	0.086
717.80	0.086
717.99	0.085
718.19	0.085
718.38	0.086
718.58	0.085
718.77	0.085
718.96	0.085
719.16	0.085
719.35	0.085
719.55	0.085
719.74	0.085
719.93	0.085
720.13	0.085
720.32	0.084
720.51	0.084
720.71	0.085
720.90	0.085
721.10	0.084
721.29	0.084
721.48	0.084
721.68	0.084
721.87	0.084
722.06	0.084
722.26	0.085
722.45	0.085
722.64	0.085
722.84	0.085
723.03	0.085
723.22	0.085
723.42	0.085
723.61	0.085
723.80	0.085
724.00	0.085
724.19	0.085
724.38	0.085
724.58	0.085
724.77	0.085
724.96	0.085
725.16	0.085
725.35	0.085
725.54	0.085
725.74	0.085
725.93	0.085
726.12	0.085
726.32	0.085
726.51	0.085
726.70	0.085
726.90	0.085
727.09	0.085
727.28	0.085
727.48	0.085
727.67	0.084
727.86	0.085
728.06	0.084
728.25	0.085
728.44	0.085
728.64	0.085
728.83	0.085
729.02	0.084
729.21	0.085
729.41	0.084
729.60	0.084
729.79	0.084
729.99	0.084
730.18	0.084
730.37	0.084
730.56	0.083
730.76	0.083
730.95	0.084
731.14	0.084
731.34	0.084
731.53	0.084
731.72	0.084
731.91	0.084
732.11	0.084
732.30	0.084
732.49	0.084
732.69	0.085
732.88	0.085
733.07	0.085
733.26	0.085
733.46	0.085
733.65	0.085
733.84	0.085
734.03	0.085
734.23	0.085
734.42	0.085
734.61	0.084
734.80	0.084
735.00	0.084
735.19	0.084
735.38	0.084
735.57	0.084
735.77	0.085
735.96	0.085
736.15	0.085
736.34	0.085
736.54	0.085
736.73	0.085
736.92	0.085
737.11	0.085
737.31	0.084
737.50	0.085
737.69	0.085
737.88	0.084
738.07	0.084
738.27	0.084
738.46	0.084
738.65	0.084
738.84	0.084
739.04	0.084
739.23	0.084
739.42	0.084
739.61	0.084
739.80	0.084
740.00	0.084
740.19	0.084
740.38	0.084
740.57	0.084
740.76	0.084
740.96	0.084
741.15	0.083
741.34	0.083
741.53	0.083
741.72	0.083
741.92	0.082
742.11	0.082
742.30	0.082
742.49	0.083
742.68	0.083
742.88	0.083
743.07	0.083
743.26	0.083
743.45	0.083
743.64	0.083
743.84	0.083
744.03	0.083
744.22	0.083
744.41	0.083
744.60	0.082
744.79	0.083
744.99	0.083
745.18	0.083
745.37	0.082
745.56	0.082
745.75	0.082
745.94	0.082
746.14	0.082
746.33	0.082
746.52	0.082
746.71	0.082
746.90	0.082
747.09	0.082
747.28	0.082
747.48	0.082
747.67	0.082
747.86	0.082
748.05	0.082
748.24	0.082
748.43	0.081
748.62	0.081
748.82	0.081
749.01	0.081
749.20	0.081
749.39	0.081
749.58	0.081
749.77	0.081
749.96	0.081
750.16	0.081
750.35	0.081
750.54	0.081
750.73	0.081
750.92	0.081
751.11	0.081
751.30	0.081
751.49	0.081
751.68	0.081
751.88	0.080
752.07	0.080
752.26	0.080
752.45	0.080
752.64	0.080
752.83	0.080
753.02	0.080
753.21	0.080
753.40	0.079
753.60	0.080
753.79	0.079
753.98	0.080
754.17	0.080
754.36	0.079
754.55	0.079
754.74	0.079
754.93	0.079
755.12	0.079
755.31	0.080
755.50	0.080
755.70	0.079
755.89	0.079
756.08	0.079
756.27	0.079
756.46	0.079
756.65	0.079
756.84	0.079
757.03	0.079
757.22	0.079
757.41	0.078
757.60	0.078
757.79	0.079
757.98	0.079
758.17	0.079
758.36	0.079
758.56	0.079
758.75	0.079
758.94	0.079
759.13	0.079
759.32	0.079
759.51	0.079
759.70	0.079
759.89	0.078
760.08	0.078
760.27	0.078
760.46	0.078
760.65	0.078
760.84	0.078
761.03	0.077
761.22	0.077
761.41	0.078
761.60	0.078
761.79	0.077
761.98	0.077
762.17	0.077
762.36	0.077
762.55	0.077
762.74	0.077
762.93	0.077
763.12	0.077
763.31	0.076
763.50	0.076
763.69	0.076
763.88	0.076
764.07	0.076
764.26	0.076
764.45	0.076
764.64	0.077
764.83	0.076
765.02	0.076
765.21	0.076
765.40	0.077
765.59	0.076
765.78	0.077
765.97	0.077
766.16	0.077
766.35	0.077
766.54	0.077
766.73	0.077
766.92	0.077
767.11	0.077
767.30	0.077
767.49	0.077
767.68	0.077
767.87	0.076
768.06	0.076
768.25	0.076
768.44	0.076
768.63	0.076
768.82	0.076
769.01	0.076
769.20	0.076
769.39	0.076
769.58	0.076
769.77	0.076
769.96	0.076
770.15	0.076
770.34	0.076
770.53	0.076
770.72	0.075
770.91	0.075
771.10	0.076
771.29	0.075
771.47	0.075
771.66	0.075
771.85	0.075
772.04	0.075
772.23	0.075
772.42	0.074
772.61	0.075
772.80	0.075
772.99	0.075
773.18	0.074
773.37	0.075
773.56	0.075
773.75	0.075
773.94	0.075
774.13	0.075
774.31	0.075
774.50	0.075
774.69	0.075
774.88	0.075
775.07	0.075
775.26	0.075
775.45	0.074
775.64	0.074
775.83	0.074
776.02	0.074
776.21	0.074
776.40	0.074
776.58	0.073
776.77	0.073
776.96	0.074
777.15	0.074
777.34	0.074
777.53	0.075
777.72	0.074
777.91	0.074
778.10	0.074
778.28	0.074
778.47	0.074
778.66	0.074
778.85	0.074
779.04	0.073
779.23	0.073
779.42	0.073
779.61	0.073
779.79	0.073
779.98	0.073
780.17	0.073
780.36	0.073
780.55	0.072
780.74	0.072
780.93	0.072
781.12	0.072
781.30	0.072
781.49	0.072
781.68	0.072
781.87	0.072
782.06	0.072
782.25	0.072
782.44	0.072
782.62	0.073
782.81	0.073
783.00	0.073
783.19	0.073
783.38	0.073
783.57	0.073
783.75	0.072
783.94	0.072
784.13	0.072
784.32	0.072
784.51	0.071
784.70	0.072
784.88	0.071
785.07	0.071
785.26	0.071
785.45	0.072
785.64	0.071
785.83	0.071
786.01	0.071
786.20	0.071
786.39	0.071
786.58	0.071
786.77	0.071
786.95	0.071
787.14	0.071
787.33	0.071
787.52	0.071
787.71	0.071
787.90	0.071
788.08	0.071
788.27	0.071
788.46	0.071
788.65	0.071
788.84	0.072
789.02	0.072
789.21	0.072
789.40	0.072
789.59	0.072
789.77	0.072
789.96	0.071
790.15	0.072
790.34	0.071
790.53	0.071
790.71	0.071
790.90	0.071
791.09	0.070
791.28	0.071
791.46	0.071
791.65	0.071
791.84	0.071
792.03	0.071
792.22	0.070
792.40	0.070
792.59	0.070
792.78	0.071
792.97	0.071
793.15	0.071
793.34	0.071
793.53	0.071
793.72	0.071
793.90	0.070
794.09	0.071
794.28	0.071
794.47	0.070
794.65	0.070
794.84	0.070
795.03	0.070
795.22	0.070
795.40	0.070
795.59	0.069
795.78	0.070
795.97	0.070
796.15	0.070
796.34	0.070
796.53	0.070
796.71	0.070
796.90	0.071
797.09	0.071
797.28	0.071
797.46	0.070
797.65	0.070
797.84	0.070
798.02	0.070
798.21	0.070
798.40	0.070
798.59	0.070
798.77	0.070
798.96	0.069
799.15	0.069
799.33	0.069
799.52	0.069
799.71	0.069
799.90	0.069
800.08	0.069
800.27	0.069
800.46	0.068
800.64	0.069
800.83	0.069
801.02	0.069
801.20	0.069
801.39	0.069
801.58	0.069
801.76	0.069
801.95	0.069
802.14	0.069
802.32	0.069
802.51	0.069
802.70	0.069
802.88	0.068
803.07	0.068
803.26	0.068
803.44	0.068
803.63	0.068
803.82	0.067
804.00	0.068
804.19	0.068
804.38	0.068
804.56	0.068
804.75	0.068
804.94	0.068
805.12	0.068
805.31	0.068
805.50	0.068
805.68	0.068
805.87	0.068
806.06	0.068
806.24	0.068
806.43	0.068
806.62	0.068
806.80	0.068
806.99	0.068
807.17	0.068
807.36	0.068
807.55	0.068
807.73	0.068
807.92	0.069
808.11	0.069
808.29	0.068
808.48	0.068
808.66	0.068
808.85	0.068
809.04	0.068
809.22	0.068
809.41	0.068
809.59	0.068
809.78	0.068
809.97	0.068
810.15	0.068
810.34	0.068
810.53	0.068
810.71	0.068
810.90	0.068
811.08	0.068
811.27	0.068
811.45	0.068
811.64	0.067
811.83	0.067
812.01	0.067
812.20	0.067
812.38	0.067
812.57	0.068
812.76	0.068
812.94	0.068
813.13	0.068
813.31	0.068
813.50	0.068
813.68	0.068
813.87	0.068
814.06	0.068
814.24	0.067
814.43	0.068
814.61	0.067
814.80	0.067
814.98	0.068
815.17	0.067
815.36	0.068
815.54	0.068
815.73	0.068
815.91	0.068
816.10	0.068
816.28	0.068
816.47	0.068
816.65	0.068
816.84	0.068
817.03	0.068
817.21	0.068
817.40	0.068
817.58	0.068
817.77	0.068
817.95	0.068
818.14	0.068
818.32	0.068
818.51	0.068
818.69	0.068
818.88	0.068
819.06	0.068
819.25	0.068
819.43	0.068
819.62	0.068
819.80	0.068
819.99	0.068
820.18	0.068
820.36	0.068
820.55	0.068
820.73	0.068
820.92	0.068
821.10	0.068
821.29	0.068
821.47	0.068
821.66	0.068
821.84	0.068
822.03	0.068
822.21	0.068
822.40	0.068
822.58	0.068
822.77	0.067
822.95	0.068
823.14	0.068
823.32	0.068
823.50	0.068
823.69	0.068
823.87	0.068
824.06	0.069
824.24	0.069
824.43	0.069
824.61	0.069
824.80	0.069
824.98	0.070
825.17	0.070
825.35	0.070
825.54	0.070
825.72	0.070
825.91	0.070
826.09	0.070
826.28	0.070
826.46	0.070
826.64	0.070
826.83	0.070
827.01	0.070
827.20	0.070
827.38	0.070
827.57	0.070
827.75	0.070
827.94	0.070
828.12	0.070
828.31	0.070
828.49	0.070
828.67	0.071
828.86	0.071
829.04	0.071
829.23	0.071
829.41	0.071
829.60	0.071
829.78	0.072
829.96	0.072
830.15	0.072
830.33	0.073
830.52	0.073
830.70	0.073
830.88	0.072
831.07	0.073
831.25	0.073
831.44	0.073
831.62	0.072
831.81	0.073
831.99	0.072
832.17	0.072
832.36	0.072
832.54	0.073
832.73	0.073
832.91	0.073
833.09	0.073
833.28	0.073
833.46	0.073
833.65	0.074
833.83	0.074
834.01	0.074
834.20	0.074
834.38	0.074
834.56	0.074
834.75	0.074
834.93	0.074
835.12	0.074
835.30	0.074
835.48	0.075
835.67	0.074
835.85	0.074
836.03	0.074
836.22	0.074
836.40	0.074
836.59	0.074
836.77	0.073
836.95	0.074
837.14	0.074
837.32	0.073
837.50	0.073
837.69	0.073
837.87	0.074
838.05	0.074
838.24	0.074
838.42	0.074
838.60	0.074
838.79	0.075
838.97	0.075
839.15	0.075
839.34	0.075
839.52	0.075
839.70	0.075
839.89	0.075
840.07	0.075
840.25	0.075
840.44	0.075
840.62	0.075
840.80	0.075
840.99	0.075
841.17	0.074
841.35	0.074
841.54	0.075
841.72	0.075
841.90	0.075
842.09	0.075
842.27	0.075
842.45	0.075
842.64	0.075
842.82	0.075
843.00	0.075
843.19	0.076
843.37	0.075
843.55	0.075
843.73	0.075
843.92	0.075
844.10	0.075
844.28	0.074
844.47	0.074
844.65	0.074
844.83	0.074
845.01	0.075
845.20	0.074
845.38	0.075
845.56	0.075
845.75	0.075
845.93	0.075
846.11	0.075
846.29	0.075
846.48	0.075
846.66	0.075
846.84	0.075
847.02	0.075
847.21	0.075
847.39	0.075
847.57	0.075
847.76	0.076
847.94	0.075
848.12	0.076
848.30	0.076
848.49	0.076
848.67	0.076
848.85	0.076
849.03	0.076
849.22	0.076
849.40	0.076
849.58	0.076
849.76	0.077
849.95	0.076
850.13	0.076
850.31	0.076
850.49	0.077
850.67	0.077
850.86	0.077
851.04	0.077
851.22	0.076
851.40	0.076
851.59	0.076
851.77	0.076
851.95	0.076
852.13	0.076
852.31	0.076
852.50	0.076
852.68	0.077
852.86	0.077
853.04	0.076
853.23	0.076
853.41	0.077
853.59	0.077
853.77	0.077
853.95	0.077
854.14	0.077
854.32	0.077
854.50	0.077
854.68	0.076
854.86	0.077
855.04	0.077
855.23	0.077
855.41	0.077
855.59	0.077
855.77	0.077
855.95	0.077
856.14	0.077
856.32	0.077
856.50	0.077
856.68	0.077
856.86	0.077
857.04	0.076
857.23	0.076
857.41	0.076
857.59	0.076
857.77	0.076
857.95	0.076
858.13	0.076
858.32	0.076
858.50	0.076
858.68	0.076
858.86	0.076
859.04	0.077
859.22	0.077
859.41	0.077
859.59	0.077
859.77	0.077
859.95	0.076
860.13	0.077
860.31	0.077
860.49	0.077
860.68	0.077
860.86	0.077
861.04	0.076
861.22	0.077
861.40	0.077
861.58	0.077
861.76	0.076
861.94	0.076
862.13	0.076
862.31	0.076
862.49	0.077
862.67	0.077
862.85	0.077
863.03	0.077
863.21	0.077
863.39	0.077
863.57	0.078
863.76	0.078
863.94	0.078
864.12	0.078
864.30	0.078
864.48	0.078
864.66	0.078
864.84	0.078
865.02	0.079
865.20	0.078
865.38	0.078
865.57	0.078
865.75	0.078
865.93	0.078
866.11	0.078
866.29	0.078
866.47	0.079
866.65	0.079
866.83	0.079
867.01	0.078
867.19	0.078
867.37	0.078
867.55	0.078
867.73	0.078
867.92	0.078
868.10	0.078
868.28	0.078
868.46	0.077
868.64	0.077
868.82	0.078
869.00	0.078
869.18	0.078
869.36	0.079
869.54	0.079
869.72	0.079
869.90	0.079
870.08	0.079
870.26	0.079
870.44	0.079
870.62	0.079
870.80	0.079
870.98	0.079
871.16	0.079
871.34	0.078
871.53	0.079
871.71	0.079
871.89	0.079
872.07	0.079
872.25	0.079
872.43	0.079
872.61	0.079
872.79	0.080
872.97	0.080
873.15	0.080
873.33	0.080
873.51	0.080
873.69	0.080
873.87	0.080
874.05	0.080
874.23	0.080
874.41	0.080
874.59	0.081
874.77	0.080
874.95	0.080
875.13	0.080
875.31	0.080
875.49	0.080
875.67	0.080
875.85	0.080
876.03	0.080
876.21	0.080
876.39	0.080
876.57	0.080
876.75	0.080
876.93	0.080
877.11	0.080
877.29	0.081
877.47	0.081
877.65	0.081
877.82	0.081
878.00	0.081
878.18	0.081
878.36	0.081
878.54	0.081
878.72	0.081
878.90	0.081
879.08	0.081
879.26	0.081
879.44	0.081
879.62	0.081
879.80	0.081
879.98	0.081
880.16	0.080
880.34	0.080
880.52	0.080
880.70	0.080
880.88	0.081
881.06	0.081
881.24	0.081
881.42	0.081
881.59	0.081
881.77	0.080
881.95	0.081
882.13	0.081
882.31	0.081
882.49	0.081
882.67	0.081
882.85	0.081
883.03	0.081
883.21	0.081
883.39	0.081
883.57	0.081
883.75	0.082
883.92	0.082
884.10	0.082
884.28	0.082
884.46	0.082
884.64	0.082
884.82	0.082
885.00	0.082
885.18	0.082
885.36	0.082
885.54	0.082
885.71	0.082
885.89	0.082
886.07	0.082
886.25	0.082
886.43	0.082
886.61	0.082
886.79	0.082
886.97	0.083
887.15	0.083
887.32	0.083
887.50	0.083
887.68	0.083
887.86	0.083
888.04	0.083
888.22	0.083
888.40	0.083
888.57	0.083
888.75	0.083
888.93	0.083
889.11	0.083
889.29	0.083
889.47	0.083
889.65	0.083
889.82	0.083
890.00	0.083
890.18	0.083
890.36	0.083
890.54	0.083
890.72	0.083
890.90	0.083
891.07	0.083
891.25	0.083
891.43	0.083
891.61	0.083
891.79	0.083
891.97	0.083
892.14	0.083
892.32	0.083
892.50	0.083
892.68	0.084
892.86	0.084
893.03	0.084
893.21	0.084
893.39	0.085
893.57	0.085
893.75	0.085
893.93	0.085
894.10	0.085
894.28	0.085
894.46	0.085
894.64	0.085
894.82	0.084
894.99	0.085
895.17	0.085
895.35	0.084
895.53	0.084
895.71	0.084
895.88	0.084
896.06	0.084
896.24	0.084
896.42	0.084
896.59	0.084
896.77	0.085
896.95	0.084
897.13	0.085
897.31	0.085
897.48	0.085
897.66	0.085
897.84	0.085
898.02	0.085
898.19	0.085
898.37	0.085
898.55	0.086
898.73	0.086
898.91	0.086
899.08	0.085
899.26	0.085
899.44	0.086
899.62	0.086
899.79	0.086
899.97	0.086
900.15	0.085
900.33	0.085
900.50	0.085
900.68	0.085
900.86	0.085
901.04	0.086
901.21	0.086
901.39	0.086
901.57	0.085
901.74	0.085
901.92	0.085
902.10	0.086
902.28	0.086
902.45	0.086
902.63	0.086
902.81	0.086
902.99	0.087
903.16	0.087
903.34	0.087
903.52	0.087
903.69	0.087
903.87	0.087
904.05	0.087
904.22	0.088
904.40	0.087
904.58	0.087
904.76	0.087
904.93	0.087
905.11	0.087
905.29	0.087
905.46	0.087
905.64	0.087
905.82	0.088
905.99	0.087
906.17	0.087
906.35	0.088
906.53	0.088
906.70	0.088
906.88	0.089
907.06	0.088
907.23	0.088
907.41	0.089
907.59	0.089
907.76	0.089
907.94	0.089
908.12	0.089
908.29	0.089
908.47	0.089
908.65	0.089
908.82	0.089
909.00	0.089
909.18	0.090
909.35	0.089
909.53	0.089
909.71	0.089
909.88	0.090
910.06	0.089
910.23	0.090
910.41	0.090
910.59	0.090
910.76	0.089
910.94	0.089
911.12	0.089
911.29	0.090
911.47	0.090
911.65	0.090
911.82	0.090
912.00	0.090
912.17	0.090
912.35	0.091
912.53	0.091
912.70	0.091
912.88	0.092
913.06	0.092
913.23	0.092
913.41	0.092
913.58	0.092
913.76	0.092
913.94	0.092
914.11	0.092
914.29	0.092
914.46	0.092
914.64	0.092
914.82	0.092
914.99	0.092
915.17	0.092
915.34	0.092
915.52	0.092
915.70	0.092
915.87	0.092
916.05	0.092
916.22	0.092
916.40	0.092
916.57	0.093
916.75	0.093
916.93	0.093
917.10	0.093
917.28	0.093
917.45	0.092
917.63	0.093
917.80	0.093
917.98	0.093
918.16	0.093
918.33	0.094
918.51	0.094
918.68	0.094
918.86	0.094
919.03	0.094
919.21	0.095
919.39	0.095
919.56	0.095
919.74	0.096
919.91	0.096
920.09	0.096
920.26	0.096
920.44	0.096
920.61	0.096
920.79	0.097
920.96	0.097
921.14	0.097
921.31	0.097
921.49	0.097
921.67	0.097
921.84	0.098
922.02	0.098
922.19	0.098
922.37	0.098
922.54	0.098
922.72	0.099
922.89	0.099
923.07	0.100
923.24	0.100
923.42	0.100
923.59	0.101
923.77	0.101
923.94	0.101
924.12	0.101
924.29	0.102
924.47	0.102
924.64	0.103
924.82	0.103
924.99	0.103
925.17	0.104
925.34	0.104
925.52	0.104
925.69	0.104
925.87	0.104
926.04	0.104
926.22	0.104
926.39	0.104
926.57	0.104
926.74	0.104
926.91	0.105
927.09	0.105
927.26	0.105
927.44	0.105
927.61	0.106
927.79	0.106
927.96	0.107
928.14	0.108
928.31	0.108
928.49	0.108
928.66	0.109
928.84	0.110
929.01	0.110
929.18	0.110
929.36	0.111
929.53	0.111
929.71	0.111
929.88	0.112
930.06	0.112
930.23	0.112
930.41	0.113
930.58	0.113
930.75	0.114
930.93	0.114
931.10	0.114
931.28	0.115
931.45	0.115
931.63	0.116
931.80	0.116
931.97	0.116
932.15	0.117
932.32	0.117
932.50	0.118
932.67	0.118
932.84	0.119
933.02	0.120
933.19	0.120
933.37	0.121
933.54	0.121
933.71	0.122
933.89	0.123
934.06	0.123
934.24	0.123
934.41	0.124
934.58	0.124
934.76	0.124
934.93	0.125
935.11	0.125
935.28	0.125
935.45	0.125
935.63	0.126
935.80	0.126
935.98	0.127
936.15	0.127
936.32	0.128
936.50	0.128
936.67	0.129
936.84	0.129
937.02	0.130
937.19	0.131
937.36	0.131
937.54	0.132
937.71	0.133
937.89	0.133
938.06	0.133
938.23	0.134
938.41	0.135
938.58	0.135
938.75	0.135
938.93	0.136
939.10	0.136
939.27	0.137
939.45	0.138
939.62	0.138
939.79	0.139
939.97	0.139
940.14	0.140
940.31	0.140
940.49	0.141
940.66	0.142
940.83	0.142
941.01	0.143
941.18	0.143
941.35	0.143
941.53	0.144
941.70	0.145
941.87	0.145
942.05	0.146
942.22	0.146
942.39	0.147
942.57	0.148
942.74	0.149
942.91	0.149
943.08	0.150
943.26	0.150
943.43	0.151
943.60	0.152
943.78	0.152
943.95	0.153
944.12	0.154
944.29	0.155
944.47	0.155
944.64	0.156
944.81	0.158
944.99	0.158
945.16	0.159
945.33	0.159
945.50	0.160
945.68	0.161
945.85	0.161
946.02	0.163
946.20	0.163
946.37	0.165
946.54	0.165
946.71	0.166
946.89	0.166
947.06	0.167
947.23	0.168
947.40	0.170
947.58	0.169
947.75	0.171
947.92	0.172
948.09	0.172
948.27	0.173
948.44	0.174
948.61	0.176
948.78	0.177
948.96	0.178
949.13	0.179
949.30	0.180
949.47	0.181
949.65	0.182
949.82	0.184
949.99	0.184
950.16	0.185
950.33	0.186
950.51	0.187
950.68	0.189
950.85	0.189
951.02	0.191
951.20	0.192
951.37	0.193
951.54	0.194
951.71	0.195
951.88	0.196
952.06	0.198
952.23	0.198
952.40	0.200
952.57	0.201
952.74	0.203
952.92	0.204
953.09	0.205
953.26	0.206
953.43	0.207
953.60	0.209
953.77	0.209
953.95	0.210
954.12	0.212
954.29	0.213
954.46	0.215
954.63	0.216
954.81	0.217
954.98	0.218
955.15	0.220
955.32	0.221
955.49	0.222
955.66	0.223
955.84	0.225
956.01	0.225
956.18	0.227
956.35	0.228
956.52	0.229
956.69	0.231
956.87	0.231
957.04	0.231
957.21	0.234
957.38	0.234
957.55	0.235
957.72	0.236
957.89	0.237
958.07	0.237
958.24	0.240
958.41	0.242
958.58	0.242
958.75	0.243
958.92	0.244
959.09	0.244
959.26	0.245
959.44	0.245
959.61	0.246
959.78	0.247
959.95	0.249
960.12	0.248
960.29	0.250
960.46	0.249
960.63	0.250
960.81	0.250
960.98	0.251
961.15	0.251
961.32	0.252
961.49	0.251
961.66	0.252
961.83	0.253
962.00	0.253
962.17	0.254
962.34	0.253
962.52	0.254
962.69	0.255
962.86	0.254
963.03	0.255
963.20	0.256
963.37	0.255
963.54	0.256
963.71	0.256
963.88	0.256
964.05	0.257
964.22	0.258
964.39	0.257
964.56	0.257
964.74	0.258
964.91	0.258
965.08	0.259
965.25	0.259
965.42	0.260
965.59	0.261
965.76	0.260
965.93	0.261
966.10	0.260
966.27	0.260
966.44	0.260
966.61	0.261
966.78	0.260
966.95	0.260
967.12	0.260
967.29	0.262
967.46	0.261
967.63	0.261
967.80	0.262
967.97	0.262
968.14	0.262
968.32	0.263
968.49	0.264
968.66	0.263
968.83	0.264
969.00	0.264
969.17	0.263
969.34	0.264
969.51	0.265
969.68	0.263
969.85	0.263
970.02	0.264
970.19	0.263
970.36	0.264
970.53	0.263
970.70	0.262
970.87	0.262
971.04	0.262
971.21	0.263
971.38	0.263
971.55	0.263
971.72	0.263
971.89	0.265
972.06	0.264
972.23	0.264
972.40	0.264
972.57	0.263
972.74	0.263
972.91	0.264
973.07	0.263
973.24	0.263
973.41	0.262
973.58	0.261
973.75	0.273
973.92	0.261
974.09	0.261
974.26	0.261
974.43	0.261
974.60	0.262
974.77	0.263
974.94	0.262
975.11	0.263
975.28	0.264
975.45	0.262
975.62	0.263
975.79	0.265
975.96	0.264
976.13	0.263
976.30	0.264
976.47	0.262
976.64	0.262
976.80	0.262
976.97	0.263
977.14	0.262
977.31	0.263
977.48	0.263
977.65	0.263
977.82	0.262
977.99	0.263
978.16	0.263
978.33	0.263
978.50	0.263
978.67	0.263
978.83	0.263
979.00	0.263
979.17	0.262
979.34	0.262
979.51	0.261
979.68	0.262
979.85	0.261
980.02	0.262
980.19	0.260
980.36	0.261
980.52	0.262
980.69	0.260
980.86	0.260
981.03	0.260
981.20	0.258
981.37	0.258
981.54	0.259
981.71	0.257
981.88	0.258
982.04	0.258
982.21	0.257
982.38	0.258
982.55	0.257
982.72	0.256
982.89	0.257
983.06	0.255
983.22	0.255
983.39	0.256
983.56	0.255
983.73	0.255
983.90	0.254
984.07	0.256
984.24	0.255
984.40	0.254
984.57	0.253
984.74	0.255
984.91	0.256
985.08	0.254
985.25	0.252
985.41	0.253
985.58	0.253
985.75	0.254
985.92	0.253
986.09	0.252
986.26	0.252
986.42	0.251
986.59	0.250
986.76	0.251
986.93	0.251
987.10	0.251
987.27	0.249
987.43	0.247
987.60	0.249
987.77	0.249
987.94	0.247
988.11	0.249
988.27	0.249
988.44	0.249
988.61	0.248
988.78	0.246
988.95	0.247
989.11	0.248
989.28	0.247
989.45	0.245
989.62	0.245
989.79	0.246
989.95	0.244
990.12	0.245
990.29	0.245
990.46	0.242
990.62	0.241
990.79	0.241
990.96	0.242
991.13	0.243
991.30	0.241
991.46	0.241
991.63	0.239
991.80	0.238
991.97	0.238
992.13	0.239
992.30	0.240
992.47	0.238
992.64	0.238
992.80	0.237
992.97	0.237
993.14	0.236
993.31	0.233
993.47	0.236
993.64	0.234
993.81	0.234
993.98	0.235
994.14	0.234
994.31	0.233
994.48	0.234
994.64	0.234
994.81	0.233
994.98	0.233
995.15	0.231
995.31	0.231
995.48	0.230
995.65	0.232
995.82	0.229
995.98	0.228
996.15	0.230
996.32	0.232
996.48	0.231
996.65	0.230
996.82	0.228
996.99	0.228
997.15	0.228
997.32	0.229
997.49	0.227
997.65	0.229
997.82	0.228
997.99	0.226
998.15	0.226
998.32	0.227
998.49	0.225
998.65	0.226
998.82	0.225
998.99	0.223
999.15	0.223
999.32	0.222
999.49	0.221
999.65	0.221
999.82	0.219
999.99	0.219
1000.15	0.219
1000.32	0.219
1000.49	0.219
1000.65	0.217
1000.82	0.217
1000.99	0.217
1001.15	0.218
1001.32	0.217
1001.49	0.217
1001.65	0.217
1001.82	0.219
1001.99	0.216
1002.15	0.215
1002.32	0.215
1002.49	0.216
1002.65	0.215
1002.82	0.213
1002.99	0.212
1003.15	0.215
1003.32	0.213
1003.48	0.213
1003.65	0.213
1003.82	0.211
1003.98	0.209
1004.15	0.209
1004.32	0.209
1004.48	0.209
1004.65	0.210
1004.81	0.208
1004.98	0.207
1005.15	0.209
1005.31	0.208
1005.48	0.206
1005.64	0.206
1005.81	0.209
1005.98	0.205
1006.14	0.205
1006.31	0.205
1006.47	0.204
1006.64	0.202
1006.81	0.202
1006.97	0.201
1007.14	0.201
1007.30	0.202
1007.47	0.202
1007.63	0.199
1007.80	0.197
1007.97	0.197
1008.13	0.197
1008.30	0.197
1008.46	0.198
1008.63	0.196
1008.79	0.197
1008.96	0.198
1009.13	0.199
1009.29	0.196
1009.46	0.196
1009.62	0.197
1009.79	0.195
1009.95	0.195
1010.12	0.195
1010.28	0.195
1010.45	0.194
1010.62	0.193
1010.78	0.191
1010.95	0.190
1011.11	0.191
1011.28	0.190
1011.44	0.192
1011.61	0.190
1011.77	0.188
1011.94	0.188
1012.10	0.187
1012.27	0.188
1012.43	0.188
1012.60	0.186
1012.76	0.187
1012.93	0.186
1013.10	0.184
1013.26	0.181
1013.43	0.183
1013.59	0.192
1013.76	0.185
1013.92	0.184
1014.09	0.182
1014.25	0.184
1014.42	0.184
1014.58	0.184
1014.75	0.186
1014.91	0.185
1015.08	0.187
1015.24	0.184
1015.41	0.185
1015.57	0.185
1015.73	0.183
1015.90	0.182
1016.06	0.184
1016.23	0.181
1016.39	0.182
1016.56	0.182
1016.72	0.182
1016.89	0.181
1017.05	0.183
1017.22	0.179
1017.38	0.179
1017.55	0.177
1017.71	0.178
1017.88	0.177
1018.04	0.177
1018.21	0.174
1018.37	0.175
1018.53	0.174
1018.70	0.173
1018.86	0.172
1019.03	0.174
1019.19	0.172
1019.36	0.172
1019.52	0.173
1019.69	0.174
1019.85	0.173
1020.01	0.173
1020.18	0.170
1020.34	0.171
1020.51	0.170
1020.67	0.171
1020.84	0.169
1021.00	0.171
1021.16	0.168
1021.33	0.168
1021.49	0.168
1021.66	0.169
1021.82	0.167
1021.98	0.169
1022.15	0.169
1022.31	0.168
1022.48	0.167
1022.64	0.168
1022.80	0.166
1022.97	0.165
1023.13	0.165
1023.30	0.165
1023.46	0.166
1023.62	0.164
1023.79	0.165
1023.95	0.165
1024.12	0.164
1024.28	0.163
1024.44	0.163
1024.61	0.162
1024.77	0.162
1024.93	0.160
1025.10	0.161
1025.26	0.159
1025.43	0.160
1025.59	0.155
1025.75	0.159
1025.92	0.157
1026.08	0.156
1026.24	0.156
1026.41	0.158
1026.57	0.156
1026.73	0.154
1026.90	0.156
1027.06	0.154
1027.23	0.155
1027.39	0.155
1027.55	0.154
1027.72	0.154
1027.88	0.154
1028.04	0.156
1028.21	0.155
1028.37	0.150
1028.53	0.155
1028.70	0.152
1028.86	0.151
1029.02	0.151
1029.19	0.153
1029.35	0.152
1029.51	0.152
1029.67	0.150
1029.84	0.151
1030.00	0.146
1030.16	0.147
1030.33	0.149
1030.49	0.148
1030.65	0.145
1030.82	0.160
1030.98	0.146
1031.14	0.146
1031.31	0.146
1031.47	0.143
1031.63	0.145
1031.79	0.145
1031.96	0.146
1032.12	0.147
1032.28	0.144
1032.45	0.149
1032.61	0.146
1032.77	0.146
1032.93	0.143
1033.10	0.145
1033.26	0.148
1033.42	0.146
1033.58	0.147
1033.75	0.148
1033.91	0.146
1034.07	0.148
1034.24	0.146
1034.40	0.145
1034.56	0.144
1034.72	0.144
1034.89	0.144
1035.05	0.142
1035.21	0.141
1035.37	0.139
1035.54	0.142
1035.70	0.140
1035.86	0.139
1036.02	0.141
1036.19	0.139
1036.35	0.139
1036.51	0.143
1036.67	0.142
1036.83	0.141
1037.00	0.140
1037.16	0.141
1037.32	0.140
1037.48	0.139
1037.65	0.144
1037.81	0.140
1037.97	0.141
1038.13	0.140
1038.29	0.138
1038.46	0.135
1038.62	0.139
1038.78	0.136
1038.94	0.133
1039.10	0.138
1039.27	0.133
1039.43	0.134
1039.59	0.133
1039.75	0.132
1039.91	0.130
1040.08	0.130
1040.24	0.132
1040.40	0.133
1040.56	0.133
1040.72	0.127
1040.89	0.130
1041.05	0.133
1041.21	0.131
1041.37	0.129
1041.53	0.135
1041.69	0.133
1041.86	0.131
1042.02	0.128
1042.18	0.128
1042.34	0.128
1042.50	0.131
1042.66	0.127
1042.83	0.126
1042.99	0.129
1043.15	0.125
1043.31	0.127
1043.47	0.131
1043.63	0.128
1043.79	0.127
1043.96	0.129
1044.12	0.131
1044.28	0.130
1044.44	0.132
1044.60	0.127
1044.76	0.126
1044.92	0.129
1045.09	0.131
1045.25	0.128
1045.41	0.129
1045.57	0.126
1045.73	0.128
1045.89	0.130
1046.05	0.132
1046.21	0.134
1046.38	0.138
1046.54	0.142
1046.70	0.123
1046.86	0.134
>>>>>End Processed Spectral Data<<<<<
