SpectraSuite Data File
++++++++++++++++++++++++++++++++++++
Date: Mon May 20 12:13:48 CDT 2013
User: Students
Dark Spectrum Present: Yes
Reference Spectrum Present: Yes
Number of Sampled Component Spectra: 1
Spectrometers: USB4H00887
Integration Time (usec): 60000 (USB4H00887)
Spectra Averaged: 5 (USB4H00887)
Boxcar Smoothing: 5 (USB4H00887)
Correct for Electrical Dark: No (USB4H00887)
Strobe/Lamp Enabled: No (USB4H00887)
Correct for Detector Non-linearity: No (USB4H00887)
Correct for Stray Light: No (USB4H00887)
Number of Pixels in Processed Spectrum: 3648
>>>>>Begin Processed Spectral Data<<<<<
345.83	0.477
346.05	0.477
346.26	0.477
346.48	-0.286
346.70	-0.291
346.92	0.018
347.14	0.040
347.35	0.055
347.57	0.398
347.79	-0.300
348.01	-0.183
348.23	-0.336
348.44	-0.000
348.66	0.310
348.88	-0.383
349.10	-0.244
349.32	0.118
349.53	-0.027
349.75	-0.013
349.97	0.003
350.19	0.041
350.41	0.065
350.62	-0.209
350.84	0.036
351.06	0.057
351.28	0.077
351.50	0.388
351.71	0.363
351.93	0.164
352.15	0.024
352.37	0.059
352.58	0.018
352.80	0.032
353.02	0.046
353.24	0.054
353.46	0.188
353.67	-0.060
353.89	0.026
354.11	0.019
354.33	0.026
354.54	0.052
354.76	0.092
354.98	0.141
355.20	0.063
355.41	0.043
355.63	0.052
355.85	0.032
356.07	0.141
356.28	0.037
356.50	0.078
356.72	0.024
356.94	0.070
357.15	0.127
357.37	-0.000
357.59	0.071
357.81	0.036
358.02	0.093
358.24	0.064
358.46	0.172
358.68	0.183
358.89	0.094
359.11	-0.000
359.33	0.077
359.55	-0.483
359.76	0.113
359.98	0.123
360.20	0.119
360.42	0.083
360.63	0.096
360.85	0.049
361.07	0.143
361.29	0.026
361.50	0.152
361.72	0.068
361.94	0.254
362.15	0.090
362.37	0.066
362.59	0.074
362.81	0.144
363.02	0.238
363.24	0.423
363.46	0.235
363.68	0.405
363.89	0.207
364.11	0.281
364.33	0.349
364.54	0.220
364.76	0.260
364.98	0.271
365.20	0.277
365.41	0.164
365.63	0.159
365.85	0.108
366.06	0.186
366.28	0.180
366.50	0.131
366.71	0.071
366.93	0.080
367.15	0.085
367.37	0.091
367.58	0.136
367.80	0.164
368.02	0.651
368.23	0.158
368.45	0.175
368.67	0.165
368.88	0.145
369.10	-0.000
369.32	0.156
369.53	0.081
369.75	0.127
369.97	0.268
370.19	0.158
370.40	0.072
370.62	0.213
370.84	0.069
371.05	0.364
371.27	0.135
371.49	0.147
371.70	0.147
371.92	0.245
372.14	0.101
372.35	0.123
372.57	0.128
372.79	0.293
373.00	0.087
373.22	0.168
373.44	0.155
373.65	0.111
373.87	0.166
374.09	0.888
374.30	0.149
374.52	0.185
374.74	0.145
374.95	1.140
375.17	0.207
375.39	-0.000
375.60	0.209
375.82	0.405
376.04	0.169
376.25	0.198
376.47	0.122
376.68	0.287
376.90	0.146
377.12	0.243
377.33	0.135
377.55	0.255
377.77	0.128
377.98	0.218
378.20	0.121
378.42	0.141
378.63	0.168
378.85	-0.000
379.07	0.114
379.28	0.379
379.50	0.248
379.71	0.134
379.93	0.108
380.15	0.137
380.36	0.201
380.58	0.147
380.80	0.359
381.01	0.132
381.23	0.111
381.44	0.133
381.66	0.155
381.88	0.194
382.09	-0.082
382.31	0.116
382.53	0.133
382.74	0.678
382.96	0.186
383.17	0.164
383.39	0.228
383.61	0.311
383.82	0.222
384.04	0.266
384.25	0.314
384.47	0.317
384.69	0.311
384.90	0.279
385.12	0.612
385.33	0.366
385.55	0.255
385.77	0.410
385.98	0.198
386.20	0.255
386.41	0.216
386.63	0.255
386.85	0.197
387.06	0.242
387.28	0.367
387.49	0.272
387.71	0.195
387.93	0.181
388.14	0.596
388.36	0.229
388.57	0.209
388.79	0.231
389.01	-0.000
389.22	0.308
389.44	0.276
389.65	0.227
389.87	0.212
390.08	0.238
390.30	0.187
390.52	0.334
390.73	0.331
390.95	0.235
391.16	0.233
391.38	-0.000
391.59	0.279
391.81	0.233
392.03	0.228
392.24	0.264
392.46	0.243
392.67	0.214
392.89	0.319
393.10	0.523
393.32	0.350
393.53	0.390
393.75	0.232
393.97	0.266
394.18	0.361
394.40	0.310
394.61	0.340
394.83	0.288
395.04	0.331
395.26	0.210
395.47	0.307
395.69	0.260
395.91	0.291
396.12	0.358
396.34	0.352
396.55	0.230
396.77	0.347
396.98	-0.000
397.20	0.396
397.41	0.445
397.63	0.310
397.84	0.285
398.06	0.260
398.27	0.270
398.49	0.307
398.71	0.235
398.92	0.276
399.14	0.337
399.35	0.392
399.57	0.392
399.78	0.279
400.00	0.272
400.21	0.357
400.43	0.286
400.64	0.289
400.86	0.647
401.07	0.348
401.29	0.302
401.50	0.324
401.72	0.485
401.93	0.300
402.15	0.359
402.36	0.341
402.58	0.278
402.79	0.312
403.01	0.547
403.22	0.418
403.44	0.287
403.65	0.472
403.87	0.562
404.08	0.415
404.30	0.718
404.51	0.356
404.73	0.431
404.94	0.367
405.16	0.374
405.37	0.285
405.59	0.539
405.80	0.317
406.02	0.383
406.23	0.370
406.45	0.419
406.66	0.455
406.88	0.301
407.09	0.451
407.31	0.360
407.52	0.457
407.74	0.386
407.95	0.461
408.17	0.447
408.38	0.475
408.60	0.311
408.81	0.546
409.03	0.395
409.24	0.402
409.45	0.473
409.67	0.448
409.88	0.394
410.10	0.489
410.31	0.401
410.53	0.378
410.74	0.541
410.96	0.529
411.17	0.564
411.39	0.430
411.60	0.404
411.82	0.468
412.03	0.460
412.24	0.442
412.46	0.674
412.67	0.538
412.89	0.522
413.10	0.507
413.32	0.458
413.53	0.532
413.75	0.555
413.96	0.406
414.17	0.559
414.39	0.550
414.60	0.447
414.82	0.596
415.03	0.451
415.25	0.490
415.46	0.340
415.68	0.476
415.89	0.857
416.10	0.680
416.32	0.368
416.53	0.438
416.75	0.425
416.96	0.523
417.18	0.449
417.39	0.428
417.60	0.439
417.82	0.659
418.03	0.569
418.25	0.477
418.46	0.500
418.67	0.466
418.89	0.492
419.10	0.510
419.32	0.681
419.53	0.618
419.75	0.522
419.96	0.458
420.17	0.569
420.39	0.536
420.60	0.557
420.82	0.693
421.03	0.534
421.24	0.449
421.46	0.503
421.67	0.546
421.89	0.470
422.10	0.502
422.31	0.505
422.53	0.728
422.74	0.537
422.96	0.432
423.17	0.480
423.38	0.596
423.60	0.490
423.81	0.604
424.03	0.518
424.24	0.583
424.45	0.582
424.67	0.569
424.88	0.505
425.09	0.532
425.31	0.480
425.52	0.510
425.74	0.577
425.95	0.637
426.16	0.498
426.38	0.580
426.59	0.531
426.80	0.607
427.02	0.627
427.23	0.487
427.45	0.647
427.66	0.636
427.87	0.488
428.09	0.521
428.30	0.584
428.51	0.574
428.73	0.625
428.94	0.551
429.15	0.537
429.37	0.532
429.58	0.566
429.79	0.521
430.01	0.628
430.22	0.627
430.44	0.649
430.65	0.576
430.86	0.616
431.08	0.600
431.29	0.547
431.50	0.660
431.72	0.881
431.93	0.705
432.14	0.516
432.36	0.568
432.57	0.586
432.78	0.616
433.00	0.563
433.21	0.555
433.42	0.701
433.64	0.612
433.85	0.699
434.06	0.557
434.28	0.591
434.49	0.613
434.70	0.621
434.92	0.627
435.13	0.663
435.34	0.678
435.56	0.641
435.77	0.634
435.98	0.811
436.20	0.674
436.41	0.581
436.62	0.569
436.83	0.658
437.05	0.754
437.26	0.667
437.47	0.599
437.69	0.657
437.90	0.599
438.11	0.590
438.33	0.653
438.54	0.673
438.75	0.867
438.97	0.839
439.18	0.609
439.39	0.643
439.60	0.689
439.82	0.634
440.03	0.578
440.24	0.856
440.46	0.646
440.67	0.617
440.88	0.662
441.10	0.619
441.31	0.615
441.52	0.667
441.73	0.740
441.95	0.650
442.16	0.609
442.37	0.982
442.58	0.601
442.80	0.581
443.01	0.760
443.22	0.691
443.44	0.594
443.65	0.713
443.86	0.718
444.07	0.775
444.29	0.672
444.50	0.858
444.71	0.640
444.92	0.598
445.14	0.761
445.35	0.809
445.56	0.634
445.78	0.755
445.99	0.753
446.20	0.646
446.41	0.733
446.63	0.733
446.84	0.683
447.05	0.690
447.26	0.838
447.48	0.711
447.69	0.675
447.90	0.771
448.11	0.671
448.33	0.693
448.54	0.707
448.75	0.737
448.96	0.747
449.18	0.805
449.39	0.716
449.60	0.693
449.81	0.835
450.03	0.713
450.24	0.781
450.45	0.737
450.66	0.725
450.87	0.760
451.09	0.710
451.30	0.686
451.51	0.759
451.72	0.767
451.94	0.792
452.15	0.873
452.36	0.715
452.57	0.727
452.78	0.729
453.00	0.761
453.21	0.719
453.42	0.693
453.63	0.799
453.85	0.760
454.06	0.753
454.27	0.894
454.48	0.796
454.69	0.722
454.91	0.801
455.12	0.696
455.33	0.781
455.54	0.792
455.75	0.760
455.97	0.786
456.18	0.775
456.39	0.780
456.60	0.795
456.81	0.727
457.03	0.746
457.24	0.753
457.45	0.847
457.66	0.783
457.87	0.741
458.09	0.763
458.30	0.673
458.51	0.807
458.72	0.831
458.93	0.848
459.15	0.741
459.36	0.801
459.57	0.818
459.78	0.860
459.99	0.776
460.20	0.743
460.42	0.830
460.63	0.781
460.84	0.758
461.05	0.781
461.26	0.847
461.47	0.763
461.69	0.822
461.90	0.865
462.11	0.822
462.32	0.889
462.53	0.814
462.74	0.914
462.96	0.790
463.17	0.776
463.38	0.822
463.59	0.938
463.80	0.768
464.01	0.792
464.23	0.881
464.44	0.839
464.65	0.839
464.86	0.869
465.07	0.882
465.28	0.845
465.49	0.877
465.71	0.821
465.92	0.867
466.13	0.928
466.34	0.853
466.55	0.909
466.76	0.867
466.97	0.900
467.19	0.876
467.40	0.913
467.61	0.908
467.82	0.818
468.03	0.804
468.24	0.876
468.45	0.912
468.66	0.896
468.88	0.909
469.09	0.908
469.30	0.952
469.51	0.876
469.72	0.923
469.93	0.894
470.14	0.873
470.35	0.969
470.57	0.914
470.78	0.846
470.99	0.982
471.20	0.916
471.41	0.871
471.62	0.929
471.83	0.900
472.04	0.932
472.25	0.978
472.47	0.885
472.68	0.897
472.89	0.906
473.10	0.954
473.31	0.896
473.52	0.962
473.73	0.987
473.94	0.896
474.15	0.920
474.36	0.923
474.57	0.953
474.79	0.922
475.00	0.918
475.21	0.903
475.42	0.995
475.63	0.894
475.84	0.930
476.05	0.939
476.26	0.912
476.47	0.945
476.68	0.993
476.89	0.909
477.10	0.964
477.32	0.951
477.53	1.007
477.74	0.921
477.95	0.969
478.16	0.908
478.37	0.953
478.58	0.955
478.79	0.972
479.00	0.974
479.21	0.937
479.42	0.980
479.63	0.990
479.84	0.946
480.05	0.947
480.26	0.977
480.47	1.001
480.69	1.003
480.90	0.967
481.11	0.965
481.32	1.033
481.53	0.962
481.74	1.024
481.95	0.984
482.16	1.006
482.37	1.017
482.58	0.979
482.79	1.001
483.00	1.036
483.21	0.972
483.42	0.942
483.63	1.028
483.84	1.060
484.05	1.043
484.26	1.006
484.47	1.001
484.68	0.959
484.89	0.964
485.10	1.016
485.31	0.989
485.52	0.998
485.73	1.000
485.94	1.044
486.15	0.987
486.37	1.008
486.58	0.968
486.79	0.983
487.00	1.036
487.21	1.028
487.42	1.021
487.63	1.027
487.84	1.047
488.05	1.038
488.26	0.991
488.47	0.995
488.68	1.026
488.89	1.004
489.10	0.999
489.31	1.010
489.52	1.046
489.73	1.010
489.94	1.049
490.15	1.001
490.36	1.046
490.57	0.995
490.78	0.983
490.99	1.024
491.20	1.109
491.41	1.053
491.62	0.992
491.83	1.023
492.04	1.018
492.25	1.025
492.45	1.027
492.66	1.054
492.87	1.042
493.08	1.025
493.29	1.008
493.50	0.999
493.71	1.011
493.92	1.009
494.13	1.024
494.34	1.047
494.55	1.055
494.76	1.087
494.97	1.077
495.18	1.041
495.39	1.058
495.60	1.003
495.81	1.004
496.02	1.028
496.23	1.023
496.44	1.059
496.65	1.050
496.86	1.054
497.07	1.083
497.28	1.081
497.49	1.022
497.70	1.027
497.91	1.052
498.12	1.032
498.32	1.078
498.53	1.055
498.74	1.044
498.95	1.071
499.16	1.023
499.37	1.027
499.58	1.035
499.79	1.067
500.00	1.060
500.21	1.088
500.42	1.025
500.63	1.027
500.84	1.050
501.05	1.026
501.26	1.054
501.46	1.100
501.67	1.057
501.88	1.060
502.09	1.033
502.30	1.042
502.51	1.094
502.72	1.047
502.93	1.063
503.14	1.088
503.35	1.056
503.56	1.050
503.77	1.081
503.97	1.059
504.18	1.060
504.39	1.099
504.60	1.063
504.81	1.096
505.02	1.085
505.23	1.085
505.44	1.064
505.65	1.072
505.86	1.052
506.07	1.122
506.27	1.075
506.48	1.080
506.69	1.061
506.90	1.084
507.11	1.080
507.32	1.052
507.53	1.062
507.74	1.054
507.95	1.067
508.15	1.072
508.36	1.080
508.57	1.092
508.78	1.072
508.99	1.073
509.20	1.044
509.41	1.070
509.62	1.056
509.82	1.052
510.03	1.063
510.24	1.064
510.45	1.090
510.66	1.080
510.87	1.071
511.08	1.029
511.29	1.074
511.49	1.053
511.70	1.102
511.91	1.034
512.12	1.030
512.33	1.066
512.54	1.082
512.75	1.062
512.95	1.089
513.16	1.083
513.37	1.059
513.58	1.099
513.79	1.058
514.00	1.065
514.20	1.086
514.41	1.073
514.62	1.037
514.83	1.084
515.04	1.074
515.25	1.049
515.46	1.061
515.66	1.063
515.87	1.075
516.08	1.045
516.29	1.070
516.50	1.049
516.71	1.042
516.91	1.054
517.12	1.069
517.33	1.055
517.54	1.044
517.75	1.049
517.95	1.062
518.16	1.078
518.37	1.040
518.58	1.046
518.79	1.017
519.00	1.052
519.20	1.063
519.41	1.035
519.62	1.056
519.83	1.066
520.04	1.026
520.24	1.022
520.45	1.032
520.66	1.056
520.87	1.016
521.08	1.013
521.28	1.017
521.49	1.033
521.70	1.000
521.91	1.015
522.12	0.996
522.32	1.020
522.53	1.003
522.74	0.990
522.95	1.000
523.16	1.004
523.36	1.017
523.57	0.998
523.78	0.991
523.99	0.999
524.20	0.991
524.40	1.006
524.61	1.012
524.82	0.983
525.03	0.989
525.23	0.989
525.44	0.970
525.65	0.967
525.86	0.989
526.06	0.959
526.27	0.959
526.48	0.970
526.69	0.950
526.90	0.954
527.10	0.991
527.31	0.943
527.52	0.938
527.73	0.932
527.93	0.946
528.14	0.952
528.35	0.942
528.56	0.943
528.76	0.935
528.97	0.925
529.18	0.915
529.39	0.917
529.59	0.921
529.80	0.953
530.01	0.923
530.22	0.920
530.42	0.889
530.63	0.909
530.84	0.886
531.05	0.898
531.25	0.902
531.46	0.894
531.67	0.871
531.88	0.891
532.08	0.884
532.29	0.880
532.50	0.871
532.70	0.863
532.91	0.853
533.12	0.856
533.33	0.884
533.53	0.853
533.74	0.852
533.95	0.858
534.15	0.846
534.36	0.848
534.57	0.830
534.78	0.833
534.98	0.844
535.19	0.812
535.40	0.813
535.60	0.832
535.81	0.810
536.02	0.813
536.23	0.805
536.43	0.807
536.64	0.793
536.85	0.800
537.05	0.809
537.26	0.784
537.47	0.788
537.67	0.776
537.88	0.771
538.09	0.779
538.30	0.767
538.50	0.758
538.71	0.770
538.92	0.755
539.12	0.751
539.33	0.746
539.54	0.746
539.74	0.750
539.95	0.741
540.16	0.739
540.36	0.730
540.57	0.731
540.78	0.722
540.98	0.720
541.19	0.719
541.40	0.707
541.60	0.719
541.81	0.714
542.02	0.714
542.22	0.704
542.43	0.697
542.64	0.693
542.84	0.692
543.05	0.684
543.26	0.685
543.46	0.688
543.67	0.686
543.88	0.681
544.08	0.670
544.29	0.665
544.50	0.665
544.70	0.666
544.91	0.657
545.12	0.658
545.32	0.653
545.53	0.657
545.74	0.644
545.94	0.640
546.15	0.637
546.35	0.632
546.56	0.629
546.77	0.626
546.97	0.623
547.18	0.615
547.39	0.616
547.59	0.614
547.80	0.609
548.01	0.615
548.21	0.611
548.42	0.603
548.62	0.603
548.83	0.600
549.04	0.597
549.24	0.589
549.45	0.587
549.65	0.583
549.86	0.578
550.07	0.577
550.27	0.574
550.48	0.581
550.69	0.566
550.89	0.566
551.10	0.562
551.30	0.560
551.51	0.560
551.72	0.549
551.92	0.551
552.13	0.551
552.33	0.552
552.54	0.545
552.75	0.539
552.95	0.541
553.16	0.535
553.36	0.534
553.57	0.532
553.78	0.529
553.98	0.530
554.19	0.521
554.39	0.518
554.60	0.521
554.80	0.521
555.01	0.513
555.22	0.514
555.42	0.511
555.63	0.504
555.83	0.507
556.04	0.501
556.25	0.504
556.45	0.495
556.66	0.493
556.86	0.496
557.07	0.494
557.27	0.493
557.48	0.487
557.68	0.485
557.89	0.486
558.10	0.482
558.30	0.478
558.51	0.475
558.71	0.473
558.92	0.467
559.12	0.469
559.33	0.472
559.54	0.467
559.74	0.463
559.95	0.461
560.15	0.460
560.36	0.458
560.56	0.454
560.77	0.454
560.97	0.453
561.18	0.448
561.38	0.448
561.59	0.451
561.79	0.445
562.00	0.443
562.21	0.439
562.41	0.438
562.62	0.437
562.82	0.434
563.03	0.431
563.23	0.430
563.44	0.430
563.64	0.426
563.85	0.427
564.05	0.421
564.26	0.420
564.46	0.419
564.67	0.419
564.87	0.415
565.08	0.412
565.28	0.411
565.49	0.412
565.69	0.409
565.90	0.406
566.10	0.408
566.31	0.401
566.51	0.403
566.72	0.403
566.92	0.397
567.13	0.397
567.33	0.395
567.54	0.394
567.74	0.392
567.95	0.388
568.15	0.389
568.36	0.388
568.56	0.387
568.77	0.381
568.97	0.380
569.18	0.380
569.38	0.378
569.59	0.379
569.79	0.376
570.00	0.374
570.20	0.373
570.41	0.371
570.61	0.369
570.82	0.370
571.02	0.366
571.23	0.368
571.43	0.363
571.64	0.362
571.84	0.361
572.05	0.359
572.25	0.359
572.45	0.357
572.66	0.354
572.86	0.353
573.07	0.351
573.27	0.351
573.48	0.350
573.68	0.346
573.89	0.346
574.09	0.346
574.30	0.345
574.50	0.343
574.70	0.343
574.91	0.341
575.11	0.341
575.32	0.341
575.52	0.336
575.73	0.336
575.93	0.336
576.14	0.334
576.34	0.332
576.54	0.331
576.75	0.329
576.95	0.329
577.16	0.327
577.36	0.325
577.57	0.324
577.77	0.322
577.97	0.319
578.18	0.321
578.38	0.318
578.59	0.316
578.79	0.315
579.00	0.315
579.20	0.313
579.40	0.312
579.61	0.311
579.81	0.310
580.02	0.308
580.22	0.307
580.42	0.305
580.63	0.305
580.83	0.304
581.04	0.302
581.24	0.301
581.45	0.300
581.65	0.300
581.85	0.298
582.06	0.296
582.26	0.296
582.47	0.295
582.67	0.294
582.87	0.294
583.08	0.292
583.28	0.292
583.48	0.290
583.69	0.287
583.89	0.287
584.10	0.288
584.30	0.286
584.50	0.284
584.71	0.284
584.91	0.283
585.12	0.281
585.32	0.282
585.52	0.279
585.73	0.278
585.93	0.277
586.13	0.276
586.34	0.275
586.54	0.274
586.75	0.272
586.95	0.271
587.15	0.271
587.36	0.270
587.56	0.269
587.76	0.268
587.97	0.268
588.17	0.266
588.37	0.266
588.58	0.266
588.78	0.263
588.98	0.263
589.19	0.262
589.39	0.260
589.60	0.262
589.80	0.259
590.00	0.258
590.21	0.259
590.41	0.257
590.61	0.256
590.82	0.256
591.02	0.255
591.22	0.253
591.43	0.254
591.63	0.252
591.83	0.252
592.04	0.250
592.24	0.251
592.44	0.248
592.65	0.247
592.85	0.247
593.05	0.248
593.26	0.246
593.46	0.246
593.66	0.246
593.86	0.245
594.07	0.243
594.27	0.243
594.47	0.241
594.68	0.241
594.88	0.242
595.08	0.240
595.29	0.240
595.49	0.238
595.69	0.237
595.90	0.235
596.10	0.236
596.30	0.235
596.50	0.234
596.71	0.234
596.91	0.233
597.11	0.232
597.32	0.231
597.52	0.231
597.72	0.230
597.93	0.230
598.13	0.228
598.33	0.229
598.53	0.227
598.74	0.227
598.94	0.226
599.14	0.226
599.35	0.226
599.55	0.226
599.75	0.225
599.95	0.224
600.16	0.224
600.36	0.222
600.56	0.222
600.76	0.221
600.97	0.220
601.17	0.219
601.37	0.219
601.58	0.218
601.78	0.217
601.98	0.216
602.18	0.215
602.39	0.215
602.59	0.215
602.79	0.214
602.99	0.214
603.20	0.213
603.40	0.213
603.60	0.213
603.80	0.212
604.01	0.212
604.21	0.210
604.41	0.210
604.61	0.209
604.82	0.209
605.02	0.209
605.22	0.208
605.42	0.208
605.62	0.208
605.83	0.206
606.03	0.205
606.23	0.205
606.43	0.205
606.64	0.205
606.84	0.204
607.04	0.203
607.24	0.204
607.45	0.203
607.65	0.201
607.85	0.202
608.05	0.201
608.25	0.200
608.46	0.200
608.66	0.200
608.86	0.199
609.06	0.199
609.26	0.198
609.47	0.198
609.67	0.197
609.87	0.198
610.07	0.198
610.28	0.196
610.48	0.196
610.68	0.196
610.88	0.195
611.08	0.196
611.29	0.194
611.49	0.193
611.69	0.193
611.89	0.191
612.09	0.191
612.29	0.190
612.50	0.190
612.70	0.190
612.90	0.189
613.10	0.188
613.30	0.187
613.51	0.188
613.71	0.187
613.91	0.192
614.11	0.187
614.31	0.187
614.51	0.187
614.72	0.186
614.92	0.186
615.12	0.186
615.32	0.186
615.52	0.185
615.72	0.185
615.93	0.185
616.13	0.184
616.33	0.184
616.53	0.183
616.73	0.184
616.93	0.182
617.14	0.183
617.34	0.182
617.54	0.183
617.74	0.183
617.94	0.182
618.14	0.181
618.34	0.181
618.55	0.181
618.75	0.181
618.95	0.181
619.15	0.181
619.35	0.180
619.55	0.178
619.75	0.179
619.96	0.178
620.16	0.179
620.36	0.178
620.56	0.177
620.76	0.177
620.96	0.177
621.16	0.177
621.36	0.176
621.57	0.176
621.77	0.177
621.97	0.175
622.17	0.175
622.37	0.175
622.57	0.175
622.77	0.174
622.97	0.173
623.18	0.173
623.38	0.174
623.58	0.173
623.78	0.172
623.98	0.172
624.18	0.171
624.38	0.171
624.58	0.171
624.78	0.171
624.98	0.171
625.19	0.171
625.39	0.171
625.59	0.170
625.79	0.171
625.99	0.170
626.19	0.170
626.39	0.170
626.59	0.170
626.79	0.170
626.99	0.170
627.19	0.169
627.40	0.169
627.60	0.169
627.80	0.168
628.00	0.168
628.20	0.167
628.40	0.167
628.60	0.167
628.80	0.166
629.00	0.166
629.20	0.165
629.40	0.165
629.60	0.164
629.80	0.164
630.00	0.164
630.20	0.164
630.41	0.163
630.61	0.163
630.81	0.163
631.01	0.164
631.21	0.163
631.41	0.163
631.61	0.163
631.81	0.163
632.01	0.163
632.21	0.163
632.41	0.162
632.61	0.161
632.81	0.162
633.01	0.162
633.21	0.161
633.41	0.162
633.61	0.161
633.81	0.160
634.01	0.160
634.21	0.160
634.41	0.160
634.61	0.160
634.81	0.159
635.01	0.159
635.22	0.159
635.42	0.159
635.62	0.159
635.82	0.159
636.02	0.158
636.22	0.158
636.42	0.157
636.62	0.157
636.82	0.157
637.02	0.157
637.22	0.157
637.42	0.156
637.62	0.155
637.82	0.156
638.02	0.155
638.22	0.155
638.42	0.155
638.62	0.154
638.82	0.154
639.02	0.154
639.22	0.153
639.42	0.153
639.62	0.153
639.82	0.152
640.02	0.153
640.22	0.152
640.42	0.153
640.62	0.152
640.82	0.152
641.02	0.152
641.22	0.152
641.42	0.151
641.61	0.151
641.81	0.151
642.01	0.151
642.21	0.151
642.41	0.151
642.61	0.150
642.81	0.150
643.01	0.150
643.21	0.149
643.41	0.150
643.61	0.149
643.81	0.149
644.01	0.148
644.21	0.147
644.41	0.147
644.61	0.147
644.81	0.147
645.01	0.147
645.21	0.147
645.41	0.147
645.61	0.147
645.81	0.146
646.01	0.145
646.21	0.146
646.40	0.146
646.60	0.146
646.80	0.146
647.00	0.145
647.20	0.145
647.40	0.145
647.60	0.144
647.80	0.144
648.00	0.145
648.20	0.144
648.40	0.144
648.60	0.144
648.80	0.143
649.00	0.144
649.20	0.144
649.39	0.143
649.59	0.143
649.79	0.143
649.99	0.142
650.19	0.142
650.39	0.141
650.59	0.141
650.79	0.141
650.99	0.141
651.19	0.140
651.39	0.139
651.58	0.139
651.78	0.139
651.98	0.138
652.18	0.138
652.38	0.138
652.58	0.139
652.78	0.138
652.98	0.138
653.18	0.139
653.38	0.139
653.57	0.138
653.77	0.139
653.97	0.138
654.17	0.138
654.37	0.138
654.57	0.138
654.77	0.137
654.97	0.137
655.16	0.137
655.36	0.137
655.56	0.136
655.76	0.135
655.96	0.136
656.16	0.135
656.36	0.135
656.56	0.134
656.75	0.135
656.95	0.135
657.15	0.134
657.35	0.134
657.55	0.133
657.75	0.134
657.95	0.134
658.14	0.134
658.34	0.134
658.54	0.134
658.74	0.134
658.94	0.134
659.14	0.134
659.34	0.133
659.53	0.133
659.73	0.132
659.93	0.132
660.13	0.131
660.33	0.131
660.53	0.131
660.72	0.131
660.92	0.131
661.12	0.130
661.32	0.130
661.52	0.130
661.72	0.129
661.91	0.129
662.11	0.129
662.31	0.129
662.51	0.129
662.71	0.129
662.90	0.128
663.10	0.128
663.30	0.127
663.50	0.128
663.70	0.127
663.90	0.127
664.09	0.127
664.29	0.127
664.49	0.126
664.69	0.126
664.89	0.126
665.08	0.126
665.28	0.126
665.48	0.126
665.68	0.125
665.88	0.125
666.07	0.125
666.27	0.125
666.47	0.125
666.67	0.125
666.87	0.124
667.06	0.124
667.26	0.123
667.46	0.123
667.66	0.123
667.85	0.123
668.05	0.123
668.25	0.123
668.45	0.122
668.65	0.123
668.84	0.122
669.04	0.122
669.24	0.122
669.44	0.121
669.63	0.121
669.83	0.121
670.03	0.121
670.23	0.120
670.42	0.120
670.62	0.119
670.82	0.119
671.02	0.119
671.22	0.118
671.41	0.118
671.61	0.118
671.81	0.118
672.01	0.119
672.20	0.118
672.40	0.118
672.60	0.118
672.80	0.118
672.99	0.118
673.19	0.118
673.39	0.117
673.58	0.117
673.78	0.117
673.98	0.116
674.18	0.116
674.37	0.116
674.57	0.116
674.77	0.116
674.97	0.116
675.16	0.116
675.36	0.115
675.56	0.115
675.75	0.115
675.95	0.114
676.15	0.115
676.35	0.115
676.54	0.115
676.74	0.114
676.94	0.114
677.13	0.114
677.33	0.113
677.53	0.114
677.73	0.114
677.92	0.113
678.12	0.113
678.32	0.112
678.51	0.112
678.71	0.112
678.91	0.112
679.11	0.111
679.30	0.111
679.50	0.111
679.70	0.110
679.89	0.110
680.09	0.110
680.29	0.110
680.48	0.110
680.68	0.110
680.88	0.110
681.07	0.110
681.27	0.109
681.47	0.109
681.66	0.109
681.86	0.109
682.06	0.109
682.25	0.109
682.45	0.109
682.65	0.108
682.84	0.107
683.04	0.107
683.24	0.107
683.43	0.107
683.63	0.107
683.83	0.107
684.02	0.107
684.22	0.107
684.42	0.106
684.61	0.106
684.81	0.106
685.01	0.106
685.20	0.106
685.40	0.106
685.60	0.106
685.79	0.105
685.99	0.105
686.19	0.105
686.38	0.105
686.58	0.105
686.77	0.105
686.97	0.105
687.17	0.105
687.36	0.105
687.56	0.105
687.76	0.104
687.95	0.104
688.15	0.104
688.34	0.104
688.54	0.103
688.74	0.102
688.93	0.102
689.13	0.102
689.33	0.103
689.52	0.102
689.72	0.102
689.91	0.102
690.11	0.102
690.31	0.101
690.50	0.102
690.70	0.102
690.89	0.102
691.09	0.101
691.29	0.102
691.48	0.101
691.68	0.101
691.87	0.101
692.07	0.101
692.27	0.101
692.46	0.101
692.66	0.100
692.85	0.100
693.05	0.100
693.25	0.100
693.44	0.100
693.64	0.100
693.83	0.100
694.03	0.099
694.22	0.099
694.42	0.099
694.62	0.099
694.81	0.099
695.01	0.100
695.20	0.099
695.40	0.099
695.59	0.099
695.79	0.098
695.99	0.098
696.18	0.098
696.38	0.098
696.57	0.098
696.77	0.097
696.96	0.098
697.16	0.097
697.36	0.097
697.55	0.097
697.75	0.097
697.94	0.097
698.14	0.097
698.33	0.097
698.53	0.097
698.72	0.096
698.92	0.096
699.11	0.096
699.31	0.096
699.51	0.096
699.70	0.095
699.90	0.095
700.09	0.096
700.29	0.095
700.48	0.095
700.68	0.095
700.87	0.095
701.07	0.094
701.26	0.094
701.46	0.094
701.65	0.094
701.85	0.094
702.04	0.094
702.24	0.093
702.43	0.093
702.63	0.093
702.82	0.093
703.02	0.093
703.21	0.093
703.41	0.093
703.60	0.093
703.80	0.093
703.99	0.093
704.19	0.093
704.38	0.093
704.58	0.092
704.77	0.092
704.97	0.092
705.16	0.093
705.36	0.093
705.55	0.093
705.75	0.092
705.94	0.092
706.14	0.092
706.33	0.092
706.53	0.092
706.72	0.092
706.92	0.092
707.11	0.091
707.31	0.091
707.50	0.091
707.70	0.092
707.89	0.092
708.09	0.091
708.28	0.091
708.48	0.091
708.67	0.091
708.86	0.091
709.06	0.091
709.25	0.091
709.45	0.091
709.64	0.090
709.84	0.090
710.03	0.090
710.23	0.090
710.42	0.090
710.62	0.090
710.81	0.090
711.00	0.090
711.20	0.089
711.39	0.089
711.59	0.089
711.78	0.089
711.98	0.089
712.17	0.089
712.37	0.089
712.56	0.089
712.75	0.089
712.95	0.089
713.14	0.089
713.34	0.089
713.53	0.089
713.73	0.089
713.92	0.089
714.11	0.090
714.31	0.089
714.50	0.089
714.70	0.089
714.89	0.089
715.08	0.089
715.28	0.088
715.47	0.088
715.67	0.088
715.86	0.088
716.06	0.088
716.25	0.088
716.44	0.088
716.64	0.088
716.83	0.088
717.03	0.088
717.22	0.087
717.41	0.087
717.61	0.087
717.80	0.087
717.99	0.087
718.19	0.087
718.38	0.087
718.58	0.086
718.77	0.086
718.96	0.086
719.16	0.086
719.35	0.086
719.55	0.086
719.74	0.086
719.93	0.086
720.13	0.086
720.32	0.086
720.51	0.086
720.71	0.086
720.90	0.086
721.10	0.086
721.29	0.086
721.48	0.086
721.68	0.086
721.87	0.086
722.06	0.086
722.26	0.086
722.45	0.086
722.64	0.086
722.84	0.086
723.03	0.086
723.22	0.087
723.42	0.087
723.61	0.087
723.80	0.087
724.00	0.087
724.19	0.087
724.38	0.087
724.58	0.087
724.77	0.087
724.96	0.086
725.16	0.086
725.35	0.086
725.54	0.086
725.74	0.086
725.93	0.086
726.12	0.086
726.32	0.086
726.51	0.086
726.70	0.086
726.90	0.086
727.09	0.086
727.28	0.086
727.48	0.086
727.67	0.086
727.86	0.086
728.06	0.086
728.25	0.086
728.44	0.086
728.64	0.086
728.83	0.086
729.02	0.086
729.21	0.086
729.41	0.086
729.60	0.086
729.79	0.086
729.99	0.086
730.18	0.086
730.37	0.086
730.56	0.086
730.76	0.086
730.95	0.086
731.14	0.086
731.34	0.086
731.53	0.086
731.72	0.086
731.91	0.086
732.11	0.086
732.30	0.086
732.49	0.086
732.69	0.086
732.88	0.086
733.07	0.086
733.26	0.087
733.46	0.086
733.65	0.086
733.84	0.086
734.03	0.086
734.23	0.086
734.42	0.086
734.61	0.086
734.80	0.086
735.00	0.086
735.19	0.086
735.38	0.086
735.57	0.086
735.77	0.087
735.96	0.086
736.15	0.087
736.34	0.086
736.54	0.087
736.73	0.087
736.92	0.087
737.11	0.087
737.31	0.087
737.50	0.087
737.69	0.086
737.88	0.086
738.07	0.086
738.27	0.086
738.46	0.087
738.65	0.086
738.84	0.086
739.04	0.086
739.23	0.086
739.42	0.086
739.61	0.086
739.80	0.086
740.00	0.086
740.19	0.086
740.38	0.086
740.57	0.086
740.76	0.085
740.96	0.085
741.15	0.085
741.34	0.085
741.53	0.085
741.72	0.085
741.92	0.085
742.11	0.085
742.30	0.085
742.49	0.085
742.68	0.085
742.88	0.085
743.07	0.085
743.26	0.085
743.45	0.085
743.64	0.085
743.84	0.084
744.03	0.085
744.22	0.085
744.41	0.084
744.60	0.084
744.79	0.084
744.99	0.084
745.18	0.084
745.37	0.084
745.56	0.084
745.75	0.084
745.94	0.084
746.14	0.084
746.33	0.084
746.52	0.084
746.71	0.084
746.90	0.084
747.09	0.084
747.28	0.083
747.48	0.084
747.67	0.083
747.86	0.083
748.05	0.084
748.24	0.083
748.43	0.083
748.62	0.083
748.82	0.083
749.01	0.083
749.20	0.083
749.39	0.083
749.58	0.083
749.77	0.083
749.96	0.083
750.16	0.083
750.35	0.083
750.54	0.083
750.73	0.083
750.92	0.083
751.11	0.083
751.30	0.083
751.49	0.083
751.68	0.083
751.88	0.083
752.07	0.082
752.26	0.082
752.45	0.082
752.64	0.082
752.83	0.082
753.02	0.082
753.21	0.082
753.40	0.081
753.60	0.082
753.79	0.082
753.98	0.082
754.17	0.082
754.36	0.081
754.55	0.081
754.74	0.081
754.93	0.081
755.12	0.081
755.31	0.082
755.50	0.082
755.70	0.081
755.89	0.081
756.08	0.082
756.27	0.082
756.46	0.082
756.65	0.082
756.84	0.082
757.03	0.082
757.22	0.081
757.41	0.082
757.60	0.081
757.79	0.081
757.98	0.081
758.17	0.081
758.36	0.081
758.56	0.080
758.75	0.080
758.94	0.080
759.13	0.080
759.32	0.080
759.51	0.079
759.70	0.080
759.89	0.080
760.08	0.080
760.27	0.080
760.46	0.080
760.65	0.079
760.84	0.080
761.03	0.080
761.22	0.080
761.41	0.080
761.60	0.080
761.79	0.080
761.98	0.080
762.17	0.079
762.36	0.079
762.55	0.079
762.74	0.079
762.93	0.079
763.12	0.079
763.31	0.079
763.50	0.079
763.69	0.079
763.88	0.079
764.07	0.079
764.26	0.079
764.45	0.079
764.64	0.079
764.83	0.078
765.02	0.078
765.21	0.078
765.40	0.078
765.59	0.078
765.78	0.078
765.97	0.078
766.16	0.078
766.35	0.078
766.54	0.078
766.73	0.078
766.92	0.079
767.11	0.078
767.30	0.078
767.49	0.078
767.68	0.079
767.87	0.078
768.06	0.078
768.25	0.078
768.44	0.079
768.63	0.078
768.82	0.078
769.01	0.078
769.20	0.078
769.39	0.078
769.58	0.078
769.77	0.078
769.96	0.078
770.15	0.078
770.34	0.078
770.53	0.078
770.72	0.078
770.91	0.077
771.10	0.078
771.29	0.078
771.47	0.077
771.66	0.077
771.85	0.077
772.04	0.077
772.23	0.077
772.42	0.077
772.61	0.077
772.80	0.077
772.99	0.077
773.18	0.077
773.37	0.077
773.56	0.077
773.75	0.077
773.94	0.077
774.13	0.077
774.31	0.077
774.50	0.077
774.69	0.077
774.88	0.077
775.07	0.077
775.26	0.077
775.45	0.076
775.64	0.076
775.83	0.076
776.02	0.076
776.21	0.076
776.40	0.077
776.58	0.076
776.77	0.076
776.96	0.077
777.15	0.077
777.34	0.077
777.53	0.077
777.72	0.077
777.91	0.076
778.10	0.076
778.28	0.076
778.47	0.076
778.66	0.076
778.85	0.075
779.04	0.075
779.23	0.075
779.42	0.075
779.61	0.075
779.79	0.075
779.98	0.075
780.17	0.075
780.36	0.075
780.55	0.075
780.74	0.075
780.93	0.075
781.12	0.075
781.30	0.075
781.49	0.075
781.68	0.075
781.87	0.075
782.06	0.075
782.25	0.075
782.44	0.075
782.62	0.075
782.81	0.075
783.00	0.075
783.19	0.075
783.38	0.075
783.57	0.074
783.75	0.074
783.94	0.074
784.13	0.074
784.32	0.074
784.51	0.074
784.70	0.074
784.88	0.074
785.07	0.074
785.26	0.074
785.45	0.074
785.64	0.074
785.83	0.074
786.01	0.073
786.20	0.074
786.39	0.074
786.58	0.074
786.77	0.073
786.95	0.073
787.14	0.073
787.33	0.074
787.52	0.073
787.71	0.073
787.90	0.073
788.08	0.074
788.27	0.073
788.46	0.073
788.65	0.073
788.84	0.074
789.02	0.074
789.21	0.074
789.40	0.073
789.59	0.074
789.77	0.074
789.96	0.073
790.15	0.074
790.34	0.074
790.53	0.074
790.71	0.074
790.90	0.074
791.09	0.073
791.28	0.074
791.46	0.074
791.65	0.073
791.84	0.073
792.03	0.073
792.22	0.073
792.40	0.073
792.59	0.073
792.78	0.073
792.97	0.073
793.15	0.073
793.34	0.073
793.53	0.072
793.72	0.073
793.90	0.072
794.09	0.073
794.28	0.073
794.47	0.073
794.65	0.072
794.84	0.072
795.03	0.072
795.22	0.072
795.40	0.072
795.59	0.072
795.78	0.072
795.97	0.072
796.15	0.073
796.34	0.073
796.53	0.073
796.71	0.073
796.90	0.073
797.09	0.073
797.28	0.073
797.46	0.073
797.65	0.073
797.84	0.073
798.02	0.073
798.21	0.072
798.40	0.073
798.59	0.072
798.77	0.072
798.96	0.071
799.15	0.071
799.33	0.071
799.52	0.071
799.71	0.071
799.90	0.071
800.08	0.071
800.27	0.071
800.46	0.071
800.64	0.071
800.83	0.071
801.02	0.071
801.20	0.072
801.39	0.072
801.58	0.072
801.76	0.072
801.95	0.071
802.14	0.071
802.32	0.071
802.51	0.071
802.70	0.071
802.88	0.071
803.07	0.071
803.26	0.070
803.44	0.070
803.63	0.070
803.82	0.070
804.00	0.070
804.19	0.071
804.38	0.071
804.56	0.071
804.75	0.071
804.94	0.072
805.12	0.072
805.31	0.072
805.50	0.072
805.68	0.071
805.87	0.072
806.06	0.072
806.24	0.071
806.43	0.071
806.62	0.071
806.80	0.071
806.99	0.071
807.17	0.070
807.36	0.071
807.55	0.070
807.73	0.070
807.92	0.070
808.11	0.070
808.29	0.070
808.48	0.070
808.66	0.070
808.85	0.070
809.04	0.070
809.22	0.070
809.41	0.070
809.59	0.070
809.78	0.070
809.97	0.070
810.15	0.070
810.34	0.070
810.53	0.070
810.71	0.069
810.90	0.070
811.08	0.070
811.27	0.070
811.45	0.070
811.64	0.070
811.83	0.070
812.01	0.070
812.20	0.070
812.38	0.070
812.57	0.070
812.76	0.070
812.94	0.070
813.13	0.070
813.31	0.069
813.50	0.070
813.68	0.070
813.87	0.070
814.06	0.070
814.24	0.070
814.43	0.070
814.61	0.070
814.80	0.070
814.98	0.070
815.17	0.070
815.36	0.070
815.54	0.070
815.73	0.070
815.91	0.070
816.10	0.070
816.28	0.070
816.47	0.069
816.65	0.069
816.84	0.069
817.03	0.070
817.21	0.070
817.40	0.070
817.58	0.070
817.77	0.071
817.95	0.071
818.14	0.071
818.32	0.071
818.51	0.071
818.69	0.071
818.88	0.071
819.06	0.071
819.25	0.071
819.43	0.071
819.62	0.071
819.80	0.071
819.99	0.071
820.18	0.071
820.36	0.070
820.55	0.070
820.73	0.070
820.92	0.070
821.10	0.070
821.29	0.070
821.47	0.070
821.66	0.070
821.84	0.070
822.03	0.070
822.21	0.070
822.40	0.070
822.58	0.070
822.77	0.070
822.95	0.070
823.14	0.071
823.32	0.071
823.50	0.071
823.69	0.071
823.87	0.071
824.06	0.071
824.24	0.071
824.43	0.072
824.61	0.072
824.80	0.072
824.98	0.072
825.17	0.072
825.35	0.072
825.54	0.072
825.72	0.072
825.91	0.072
826.09	0.072
826.28	0.071
826.46	0.072
826.64	0.072
826.83	0.072
827.01	0.072
827.20	0.072
827.38	0.072
827.57	0.072
827.75	0.073
827.94	0.073
828.12	0.073
828.31	0.073
828.49	0.073
828.67	0.073
828.86	0.073
829.04	0.073
829.23	0.073
829.41	0.074
829.60	0.074
829.78	0.074
829.96	0.074
830.15	0.074
830.33	0.074
830.52	0.075
830.70	0.075
830.88	0.074
831.07	0.075
831.25	0.075
831.44	0.075
831.62	0.075
831.81	0.075
831.99	0.075
832.17	0.075
832.36	0.075
832.54	0.075
832.73	0.075
832.91	0.075
833.09	0.075
833.28	0.075
833.46	0.075
833.65	0.075
833.83	0.075
834.01	0.076
834.20	0.076
834.38	0.076
834.56	0.076
834.75	0.076
834.93	0.077
835.12	0.077
835.30	0.077
835.48	0.077
835.67	0.077
835.85	0.077
836.03	0.077
836.22	0.077
836.40	0.077
836.59	0.076
836.77	0.076
836.95	0.077
837.14	0.077
837.32	0.076
837.50	0.076
837.69	0.076
837.87	0.077
838.05	0.077
838.24	0.077
838.42	0.077
838.60	0.077
838.79	0.078
838.97	0.077
839.15	0.077
839.34	0.077
839.52	0.077
839.70	0.077
839.89	0.077
840.07	0.077
840.25	0.077
840.44	0.077
840.62	0.077
840.80	0.077
840.99	0.077
841.17	0.077
841.35	0.077
841.54	0.077
841.72	0.078
841.90	0.078
842.09	0.078
842.27	0.078
842.45	0.078
842.64	0.078
842.82	0.078
843.00	0.078
843.19	0.077
843.37	0.077
843.55	0.077
843.73	0.077
843.92	0.077
844.10	0.077
844.28	0.077
844.47	0.077
844.65	0.077
844.83	0.078
845.01	0.078
845.20	0.079
845.38	0.079
845.56	0.079
845.75	0.079
845.93	0.079
846.11	0.079
846.29	0.079
846.48	0.079
846.66	0.079
846.84	0.078
847.02	0.078
847.21	0.077
847.39	0.078
847.57	0.077
847.76	0.078
847.94	0.077
848.12	0.077
848.30	0.078
848.49	0.077
848.67	0.078
848.85	0.078
849.03	0.078
849.22	0.078
849.40	0.079
849.58	0.079
849.76	0.079
849.95	0.079
850.13	0.079
850.31	0.079
850.49	0.079
850.67	0.079
850.86	0.079
851.04	0.079
851.22	0.078
851.40	0.079
851.59	0.078
851.77	0.079
851.95	0.079
852.13	0.079
852.31	0.079
852.50	0.079
852.68	0.079
852.86	0.079
853.04	0.079
853.23	0.079
853.41	0.079
853.59	0.079
853.77	0.079
853.95	0.079
854.14	0.079
854.32	0.078
854.50	0.078
854.68	0.078
854.86	0.079
855.04	0.079
855.23	0.079
855.41	0.079
855.59	0.079
855.77	0.079
855.95	0.080
856.14	0.080
856.32	0.080
856.50	0.079
856.68	0.080
856.86	0.080
857.04	0.079
857.23	0.079
857.41	0.079
857.59	0.079
857.77	0.079
857.95	0.079
858.13	0.079
858.32	0.079
858.50	0.080
858.68	0.079
858.86	0.079
859.04	0.079
859.22	0.079
859.41	0.079
859.59	0.079
859.77	0.079
859.95	0.079
860.13	0.079
860.31	0.079
860.49	0.079
860.68	0.079
860.86	0.079
861.04	0.079
861.22	0.079
861.40	0.079
861.58	0.079
861.76	0.079
861.94	0.079
862.13	0.079
862.31	0.079
862.49	0.079
862.67	0.079
862.85	0.079
863.03	0.080
863.21	0.080
863.39	0.080
863.57	0.080
863.76	0.080
863.94	0.080
864.12	0.080
864.30	0.080
864.48	0.080
864.66	0.080
864.84	0.080
865.02	0.080
865.20	0.080
865.38	0.080
865.57	0.080
865.75	0.081
865.93	0.081
866.11	0.080
866.29	0.080
866.47	0.081
866.65	0.081
866.83	0.081
867.01	0.081
867.19	0.081
867.37	0.080
867.55	0.081
867.73	0.081
867.92	0.081
868.10	0.081
868.28	0.081
868.46	0.081
868.64	0.081
868.82	0.081
869.00	0.081
869.18	0.081
869.36	0.081
869.54	0.081
869.72	0.081
869.90	0.081
870.08	0.081
870.26	0.081
870.44	0.081
870.62	0.081
870.80	0.081
870.98	0.081
871.16	0.081
871.34	0.081
871.53	0.081
871.71	0.081
871.89	0.081
872.07	0.081
872.25	0.081
872.43	0.081
872.61	0.082
872.79	0.082
872.97	0.082
873.15	0.082
873.33	0.082
873.51	0.082
873.69	0.082
873.87	0.082
874.05	0.082
874.23	0.082
874.41	0.082
874.59	0.082
874.77	0.082
874.95	0.081
875.13	0.082
875.31	0.082
875.49	0.082
875.67	0.082
875.85	0.082
876.03	0.082
876.21	0.083
876.39	0.083
876.57	0.083
876.75	0.083
876.93	0.083
877.11	0.083
877.29	0.082
877.47	0.082
877.65	0.083
877.82	0.083
878.00	0.083
878.18	0.083
878.36	0.083
878.54	0.083
878.72	0.083
878.90	0.083
879.08	0.083
879.26	0.084
879.44	0.084
879.62	0.083
879.80	0.083
879.98	0.083
880.16	0.083
880.34	0.083
880.52	0.083
880.70	0.083
880.88	0.083
881.06	0.083
881.24	0.083
881.42	0.083
881.59	0.082
881.77	0.082
881.95	0.083
882.13	0.083
882.31	0.083
882.49	0.083
882.67	0.083
882.85	0.083
883.03	0.083
883.21	0.083
883.39	0.083
883.57	0.084
883.75	0.084
883.92	0.084
884.10	0.084
884.28	0.084
884.46	0.085
884.64	0.085
884.82	0.085
885.00	0.085
885.18	0.085
885.36	0.085
885.54	0.085
885.71	0.085
885.89	0.085
886.07	0.085
886.25	0.085
886.43	0.085
886.61	0.084
886.79	0.084
886.97	0.084
887.15	0.084
887.32	0.084
887.50	0.085
887.68	0.085
887.86	0.086
888.04	0.086
888.22	0.086
888.40	0.086
888.57	0.086
888.75	0.086
888.93	0.086
889.11	0.086
889.29	0.086
889.47	0.086
889.65	0.086
889.82	0.086
890.00	0.086
890.18	0.085
890.36	0.086
890.54	0.086
890.72	0.086
890.90	0.086
891.07	0.086
891.25	0.086
891.43	0.085
891.61	0.085
891.79	0.085
891.97	0.086
892.14	0.086
892.32	0.086
892.50	0.086
892.68	0.086
892.86	0.086
893.03	0.086
893.21	0.086
893.39	0.086
893.57	0.087
893.75	0.087
893.93	0.086
894.10	0.086
894.28	0.086
894.46	0.086
894.64	0.086
894.82	0.086
894.99	0.086
895.17	0.086
895.35	0.086
895.53	0.086
895.71	0.086
895.88	0.086
896.06	0.086
896.24	0.086
896.42	0.086
896.59	0.086
896.77	0.086
896.95	0.086
897.13	0.087
897.31	0.087
897.48	0.087
897.66	0.087
897.84	0.087
898.02	0.087
898.19	0.087
898.37	0.088
898.55	0.088
898.73	0.088
898.91	0.087
899.08	0.087
899.26	0.087
899.44	0.087
899.62	0.088
899.79	0.088
899.97	0.088
900.15	0.088
900.33	0.088
900.50	0.088
900.68	0.088
900.86	0.088
901.04	0.088
901.21	0.088
901.39	0.089
901.57	0.088
901.74	0.088
901.92	0.089
902.10	0.089
902.28	0.089
902.45	0.089
902.63	0.089
902.81	0.088
902.99	0.089
903.16	0.089
903.34	0.089
903.52	0.089
903.69	0.089
903.87	0.089
904.05	0.089
904.22	0.090
904.40	0.090
904.58	0.090
904.76	0.090
904.93	0.090
905.11	0.090
905.29	0.090
905.46	0.090
905.64	0.090
905.82	0.091
905.99	0.090
906.17	0.090
906.35	0.090
906.53	0.090
906.70	0.090
906.88	0.090
907.06	0.090
907.23	0.090
907.41	0.091
907.59	0.090
907.76	0.091
907.94	0.091
908.12	0.091
908.29	0.091
908.47	0.091
908.65	0.091
908.82	0.091
909.00	0.091
909.18	0.092
909.35	0.091
909.53	0.092
909.71	0.092
909.88	0.092
910.06	0.091
910.23	0.092
910.41	0.092
910.59	0.091
910.76	0.091
910.94	0.092
911.12	0.092
911.29	0.092
911.47	0.092
911.65	0.092
911.82	0.092
912.00	0.092
912.17	0.092
912.35	0.093
912.53	0.093
912.70	0.093
912.88	0.093
913.06	0.094
913.23	0.094
913.41	0.094
913.58	0.094
913.76	0.094
913.94	0.095
914.11	0.095
914.29	0.095
914.46	0.095
914.64	0.095
914.82	0.095
914.99	0.095
915.17	0.095
915.34	0.095
915.52	0.095
915.70	0.095
915.87	0.095
916.05	0.095
916.22	0.095
916.40	0.095
916.57	0.096
916.75	0.096
916.93	0.096
917.10	0.096
917.28	0.096
917.45	0.095
917.63	0.095
917.80	0.095
917.98	0.095
918.16	0.096
918.33	0.096
918.51	0.096
918.68	0.096
918.86	0.097
919.03	0.097
919.21	0.097
919.39	0.098
919.56	0.098
919.74	0.098
919.91	0.098
920.09	0.098
920.26	0.098
920.44	0.099
920.61	0.099
920.79	0.099
920.96	0.099
921.14	0.100
921.31	0.100
921.49	0.100
921.67	0.100
921.84	0.100
922.02	0.100
922.19	0.101
922.37	0.101
922.54	0.101
922.72	0.101
922.89	0.102
923.07	0.102
923.24	0.102
923.42	0.102
923.59	0.102
923.77	0.102
923.94	0.103
924.12	0.103
924.29	0.103
924.47	0.103
924.64	0.103
924.82	0.104
924.99	0.104
925.17	0.104
925.34	0.105
925.52	0.105
925.69	0.106
925.87	0.106
926.04	0.106
926.22	0.107
926.39	0.107
926.57	0.107
926.74	0.108
926.91	0.108
927.09	0.108
927.26	0.108
927.44	0.109
927.61	0.109
927.79	0.109
927.96	0.110
928.14	0.110
928.31	0.111
928.49	0.111
928.66	0.112
928.84	0.112
929.01	0.112
929.18	0.113
929.36	0.113
929.53	0.113
929.71	0.113
929.88	0.114
930.06	0.114
930.23	0.114
930.41	0.115
930.58	0.115
930.75	0.116
930.93	0.116
931.10	0.117
931.28	0.117
931.45	0.118
931.63	0.118
931.80	0.118
931.97	0.119
932.15	0.120
932.32	0.120
932.50	0.120
932.67	0.120
932.84	0.121
933.02	0.122
933.19	0.122
933.37	0.122
933.54	0.123
933.71	0.124
933.89	0.125
934.06	0.125
934.24	0.125
934.41	0.126
934.58	0.126
934.76	0.126
934.93	0.127
935.11	0.128
935.28	0.128
935.45	0.128
935.63	0.129
935.80	0.129
935.98	0.130
936.15	0.130
936.32	0.131
936.50	0.131
936.67	0.132
936.84	0.132
937.02	0.133
937.19	0.134
937.36	0.134
937.54	0.134
937.71	0.135
937.89	0.136
938.06	0.136
938.23	0.137
938.41	0.137
938.58	0.137
938.75	0.137
938.93	0.138
939.10	0.138
939.27	0.138
939.45	0.139
939.62	0.140
939.79	0.141
939.97	0.141
940.14	0.142
940.31	0.143
940.49	0.143
940.66	0.144
940.83	0.145
941.01	0.145
941.18	0.147
941.35	0.147
941.53	0.147
941.70	0.148
941.87	0.149
942.05	0.149
942.22	0.150
942.39	0.151
942.57	0.151
942.74	0.152
942.91	0.152
943.08	0.153
943.26	0.153
943.43	0.154
943.60	0.154
943.78	0.155
943.95	0.156
944.12	0.156
944.29	0.157
944.47	0.158
944.64	0.159
944.81	0.160
944.99	0.160
945.16	0.161
945.33	0.161
945.50	0.162
945.68	0.163
945.85	0.163
946.02	0.165
946.20	0.166
946.37	0.167
946.54	0.168
946.71	0.168
946.89	0.169
947.06	0.170
947.23	0.170
947.40	0.172
947.58	0.172
947.75	0.173
947.92	0.174
948.09	0.174
948.27	0.176
948.44	0.177
948.61	0.178
948.78	0.178
948.96	0.180
949.13	0.180
949.30	0.182
949.47	0.182
949.65	0.184
949.82	0.186
949.99	0.186
950.16	0.188
950.33	0.189
950.51	0.190
950.68	0.191
950.85	0.193
951.02	0.194
951.20	0.195
951.37	0.196
951.54	0.197
951.71	0.198
951.88	0.199
952.06	0.200
952.23	0.201
952.40	0.202
952.57	0.203
952.74	0.204
952.92	0.206
953.09	0.207
953.26	0.209
953.43	0.209
953.60	0.210
953.77	0.211
953.95	0.212
954.12	0.215
954.29	0.215
954.46	0.218
954.63	0.219
954.81	0.220
954.98	0.220
955.15	0.222
955.32	0.224
955.49	0.224
955.66	0.225
955.84	0.226
956.01	0.226
956.18	0.229
956.35	0.230
956.52	0.231
956.69	0.233
956.87	0.233
957.04	0.233
957.21	0.236
957.38	0.235
957.55	0.237
957.72	0.238
957.89	0.238
958.07	0.238
958.24	0.241
958.41	0.242
958.58	0.242
958.75	0.243
958.92	0.244
959.09	0.244
959.26	0.245
959.44	0.246
959.61	0.247
959.78	0.247
959.95	0.249
960.12	0.249
960.29	0.251
960.46	0.250
960.63	0.251
960.81	0.252
960.98	0.253
961.15	0.253
961.32	0.254
961.49	0.254
961.66	0.256
961.83	0.256
962.00	0.256
962.17	0.257
962.34	0.256
962.52	0.257
962.69	0.258
962.86	0.257
963.03	0.258
963.20	0.258
963.37	0.257
963.54	0.257
963.71	0.257
963.88	0.258
964.05	0.259
964.22	0.261
964.39	0.259
964.56	0.259
964.74	0.261
964.91	0.260
965.08	0.261
965.25	0.261
965.42	0.262
965.59	0.263
965.76	0.262
965.93	0.264
966.10	0.262
966.27	0.263
966.44	0.263
966.61	0.264
966.78	0.263
966.95	0.262
967.12	0.263
967.29	0.265
967.46	0.264
967.63	0.264
967.80	0.265
967.97	0.264
968.14	0.263
968.32	0.264
968.49	0.265
968.66	0.264
968.83	0.265
969.00	0.265
969.17	0.265
969.34	0.266
969.51	0.267
969.68	0.266
969.85	0.266
970.02	0.266
970.19	0.266
970.36	0.266
970.53	0.266
970.70	0.265
970.87	0.265
971.04	0.264
971.21	0.265
971.38	0.265
971.55	0.266
971.72	0.265
971.89	0.266
972.06	0.266
972.23	0.265
972.40	0.266
972.57	0.266
972.74	0.266
972.91	0.267
973.07	0.266
973.24	0.265
973.41	0.266
973.58	0.264
973.75	0.276
973.92	0.264
974.09	0.263
974.26	0.263
974.43	0.262
974.60	0.263
974.77	0.263
974.94	0.263
975.11	0.264
975.28	0.265
975.45	0.264
975.62	0.265
975.79	0.267
975.96	0.265
976.13	0.264
976.30	0.266
976.47	0.265
976.64	0.265
976.80	0.266
976.97	0.265
977.14	0.265
977.31	0.265
977.48	0.266
977.65	0.265
977.82	0.264
977.99	0.266
978.16	0.265
978.33	0.265
978.50	0.264
978.67	0.264
978.83	0.264
979.00	0.264
979.17	0.264
979.34	0.263
979.51	0.262
979.68	0.263
979.85	0.262
980.02	0.263
980.19	0.260
980.36	0.262
980.52	0.263
980.69	0.261
980.86	0.261
981.03	0.260
981.20	0.259
981.37	0.260
981.54	0.260
981.71	0.259
981.88	0.260
982.04	0.259
982.21	0.259
982.38	0.261
982.55	0.259
982.72	0.258
982.89	0.259
983.06	0.258
983.22	0.258
983.39	0.259
983.56	0.258
983.73	0.257
983.90	0.256
984.07	0.258
984.24	0.256
984.40	0.257
984.57	0.255
984.74	0.258
984.91	0.259
985.08	0.256
985.25	0.254
985.41	0.255
985.58	0.255
985.75	0.256
985.92	0.255
986.09	0.254
986.26	0.253
986.42	0.253
986.59	0.251
986.76	0.253
986.93	0.253
987.10	0.253
987.27	0.251
987.43	0.249
987.60	0.251
987.77	0.251
987.94	0.250
988.11	0.252
988.27	0.252
988.44	0.251
988.61	0.249
988.78	0.247
988.95	0.249
989.11	0.251
989.28	0.249
989.45	0.248
989.62	0.248
989.79	0.248
989.95	0.247
990.12	0.248
990.29	0.248
990.46	0.246
990.62	0.245
990.79	0.245
990.96	0.245
991.13	0.245
991.30	0.244
991.46	0.243
991.63	0.242
991.80	0.241
991.97	0.240
992.13	0.241
992.30	0.242
992.47	0.240
992.64	0.239
992.80	0.239
992.97	0.239
993.14	0.237
993.31	0.235
993.47	0.237
993.64	0.235
993.81	0.235
993.98	0.236
994.14	0.235
994.31	0.234
994.48	0.235
994.64	0.235
994.81	0.234
994.98	0.235
995.15	0.233
995.31	0.233
995.48	0.232
995.65	0.234
995.82	0.231
995.98	0.230
996.15	0.232
996.32	0.233
996.48	0.231
996.65	0.230
996.82	0.228
996.99	0.229
997.15	0.228
997.32	0.230
997.49	0.228
997.65	0.229
997.82	0.229
997.99	0.227
998.15	0.227
998.32	0.228
998.49	0.227
998.65	0.227
998.82	0.226
998.99	0.224
999.15	0.224
999.32	0.223
999.49	0.223
999.65	0.224
999.82	0.221
999.99	0.222
1000.15	0.222
1000.32	0.222
1000.49	0.221
1000.65	0.220
1000.82	0.220
1000.99	0.221
1001.15	0.220
1001.32	0.219
1001.49	0.219
1001.65	0.219
1001.82	0.221
1001.99	0.217
1002.15	0.216
1002.32	0.216
1002.49	0.217
1002.65	0.216
1002.82	0.213
1002.99	0.212
1003.15	0.214
1003.32	0.213
1003.48	0.213
1003.65	0.212
1003.82	0.212
1003.98	0.209
1004.15	0.209
1004.32	0.210
1004.48	0.210
1004.65	0.211
1004.81	0.209
1004.98	0.208
1005.15	0.208
1005.31	0.208
1005.48	0.206
1005.64	0.207
1005.81	0.209
1005.98	0.205
1006.14	0.205
1006.31	0.206
1006.47	0.205
1006.64	0.204
1006.81	0.203
1006.97	0.203
1007.14	0.202
1007.30	0.205
1007.47	0.204
1007.63	0.202
1007.80	0.200
1007.97	0.200
1008.13	0.200
1008.30	0.199
1008.46	0.200
1008.63	0.199
1008.79	0.199
1008.96	0.199
1009.13	0.199
1009.29	0.196
1009.46	0.197
1009.62	0.198
1009.79	0.196
1009.95	0.196
1010.12	0.196
1010.28	0.196
1010.45	0.195
1010.62	0.194
1010.78	0.193
1010.95	0.192
1011.11	0.193
1011.28	0.192
1011.44	0.194
1011.61	0.192
1011.77	0.191
1011.94	0.191
1012.10	0.191
1012.27	0.190
1012.43	0.191
1012.60	0.189
1012.76	0.190
1012.93	0.190
1013.10	0.188
1013.26	0.185
1013.43	0.187
1013.59	0.194
1013.76	0.187
1013.92	0.186
1014.09	0.185
1014.25	0.185
1014.42	0.186
1014.58	0.185
1014.75	0.186
1014.91	0.185
1015.08	0.187
1015.24	0.183
1015.41	0.185
1015.57	0.184
1015.73	0.183
1015.90	0.181
1016.06	0.183
1016.23	0.181
1016.39	0.183
1016.56	0.183
1016.72	0.182
1016.89	0.183
1017.05	0.185
1017.22	0.181
1017.38	0.181
1017.55	0.179
1017.71	0.180
1017.88	0.179
1018.04	0.180
1018.21	0.176
1018.37	0.176
1018.53	0.176
1018.70	0.174
1018.86	0.173
1019.03	0.176
1019.19	0.175
1019.36	0.175
1019.52	0.177
1019.69	0.177
1019.85	0.176
1020.01	0.177
1020.18	0.175
1020.34	0.175
1020.51	0.174
1020.67	0.175
1020.84	0.173
1021.00	0.174
1021.16	0.170
1021.33	0.171
1021.49	0.170
1021.66	0.170
1021.82	0.167
1021.98	0.167
1022.15	0.167
1022.31	0.167
1022.48	0.165
1022.64	0.167
1022.80	0.165
1022.97	0.164
1023.13	0.163
1023.30	0.164
1023.46	0.165
1023.62	0.163
1023.79	0.164
1023.95	0.165
1024.12	0.164
1024.28	0.164
1024.44	0.163
1024.61	0.162
1024.77	0.162
1024.93	0.161
1025.10	0.163
1025.26	0.160
1025.43	0.161
1025.59	0.156
1025.75	0.160
1025.92	0.159
1026.08	0.158
1026.24	0.158
1026.41	0.160
1026.57	0.159
1026.73	0.156
1026.90	0.158
1027.06	0.156
1027.23	0.158
1027.39	0.159
1027.55	0.159
1027.72	0.158
1027.88	0.157
1028.04	0.158
1028.21	0.157
1028.37	0.151
1028.53	0.158
1028.70	0.156
1028.86	0.154
1029.02	0.154
1029.19	0.154
1029.35	0.152
1029.51	0.150
1029.67	0.149
1029.84	0.151
1030.00	0.145
1030.16	0.147
1030.33	0.149
1030.49	0.146
1030.65	0.144
1030.82	0.160
1030.98	0.147
1031.14	0.147
1031.31	0.148
1031.47	0.145
1031.63	0.147
1031.79	0.147
1031.96	0.148
1032.12	0.148
1032.28	0.146
1032.45	0.150
1032.61	0.149
1032.77	0.148
1032.93	0.145
1033.10	0.148
1033.26	0.150
1033.42	0.149
1033.58	0.150
1033.75	0.150
1033.91	0.149
1034.07	0.152
1034.24	0.150
1034.40	0.148
1034.56	0.147
1034.72	0.147
1034.89	0.147
1035.05	0.145
1035.21	0.144
1035.37	0.142
1035.54	0.145
1035.70	0.142
1035.86	0.141
1036.02	0.143
1036.19	0.140
1036.35	0.139
1036.51	0.142
1036.67	0.140
1036.83	0.140
1037.00	0.139
1037.16	0.138
1037.32	0.138
1037.48	0.137
1037.65	0.141
1037.81	0.137
1037.97	0.136
1038.13	0.136
1038.29	0.136
1038.46	0.134
1038.62	0.137
1038.78	0.136
1038.94	0.135
1039.10	0.139
1039.27	0.134
1039.43	0.136
1039.59	0.135
1039.75	0.137
1039.91	0.135
1040.08	0.135
1040.24	0.138
1040.40	0.140
1040.56	0.138
1040.72	0.132
1040.89	0.135
1041.05	0.138
1041.21	0.136
1041.37	0.134
1041.53	0.139
1041.69	0.137
1041.86	0.135
1042.02	0.131
1042.18	0.131
1042.34	0.133
1042.50	0.136
1042.66	0.132
1042.83	0.131
1042.99	0.133
1043.15	0.129
1043.31	0.129
1043.47	0.134
1043.63	0.131
1043.79	0.130
1043.96	0.132
1044.12	0.135
1044.28	0.132
1044.44	0.134
1044.60	0.129
1044.76	0.128
1044.92	0.132
1045.09	0.133
1045.25	0.129
1045.41	0.129
1045.57	0.125
1045.73	0.125
1045.89	0.126
1046.05	0.126
1046.21	0.132
1046.38	0.126
1046.54	0.132
1046.70	0.127
1046.86	0.119
>>>>>End Processed Spectral Data<<<<<
