SpectraSuite Data File
++++++++++++++++++++++++++++++++++++
Date: Mon May 20 12:11:02 CDT 2013
User: Students
Dark Spectrum Present: Yes
Reference Spectrum Present: Yes
Number of Sampled Component Spectra: 1
Spectrometers: USB4H00887
Integration Time (usec): 60000 (USB4H00887)
Spectra Averaged: 5 (USB4H00887)
Boxcar Smoothing: 5 (USB4H00887)
Correct for Electrical Dark: No (USB4H00887)
Strobe/Lamp Enabled: No (USB4H00887)
Correct for Detector Non-linearity: No (USB4H00887)
Correct for Stray Light: No (USB4H00887)
Number of Pixels in Processed Spectrum: 3648
>>>>>Begin Processed Spectral Data<<<<<
345.83	0.036
346.05	0.036
346.26	0.036
346.48	-0.000
346.70	-0.007
346.92	0.069
347.14	0.064
347.35	0.069
347.57	0.499
347.79	-0.245
348.01	-0.171
348.23	-0.314
348.44	-0.000
348.66	0.371
348.88	-0.466
349.10	-0.227
349.32	0.109
349.53	-0.025
349.75	-0.017
349.97	-0.011
350.19	0.017
350.41	0.039
350.62	-0.201
350.84	0.025
351.06	0.031
351.28	0.007
351.50	-0.036
351.71	-0.018
351.93	-0.049
352.15	-0.011
352.37	0.007
352.58	0.008
352.80	0.018
353.02	0.043
353.24	0.073
353.46	0.521
353.67	-0.171
353.89	0.055
354.11	0.044
354.33	0.065
354.54	0.092
354.76	0.167
354.98	0.189
355.20	0.139
355.41	0.066
355.63	0.109
355.85	0.049
356.07	0.597
356.28	0.072
356.50	0.165
356.72	0.057
356.94	0.152
357.15	0.127
357.37	-0.000
357.59	0.082
357.81	0.045
358.02	0.091
358.24	0.066
358.46	0.147
358.68	0.141
358.89	0.062
359.11	-0.000
359.33	0.042
359.55	-0.471
359.76	0.091
359.98	0.111
360.20	0.108
360.42	0.068
360.63	0.064
360.85	0.037
361.07	0.165
361.29	0.035
361.50	0.153
361.72	0.073
361.94	0.195
362.15	0.080
362.37	0.043
362.59	0.048
362.81	0.112
363.02	0.174
363.24	0.289
363.46	0.155
363.68	0.220
363.89	0.150
364.11	0.200
364.33	0.291
364.54	0.178
364.76	0.223
364.98	0.258
365.20	0.236
365.41	0.135
365.63	0.153
365.85	0.109
366.06	0.374
366.28	0.363
366.50	0.213
366.71	0.080
366.93	0.116
367.15	0.099
367.37	0.085
367.58	0.134
367.80	0.175
368.02	0.441
368.23	0.134
368.45	0.104
368.67	0.085
368.88	0.091
369.10	-0.000
369.32	0.097
369.53	0.059
369.75	0.085
369.97	0.146
370.19	0.103
370.40	0.053
370.62	0.171
370.84	0.081
371.05	0.374
371.27	0.130
371.49	0.136
371.70	0.140
371.92	0.220
372.14	0.099
372.35	0.114
372.57	0.138
372.79	0.412
373.00	0.092
373.22	0.141
373.44	0.139
373.65	0.093
373.87	0.157
374.09	0.641
374.30	0.134
374.52	0.152
374.74	0.102
374.95	0.377
375.17	0.094
375.39	-0.000
375.60	0.126
375.82	0.246
376.04	0.098
376.25	0.092
376.47	0.072
376.68	0.172
376.90	0.098
377.12	0.175
377.33	0.102
377.55	0.300
377.77	0.151
377.98	0.208
378.20	0.122
378.42	0.170
378.63	0.241
378.85	-0.000
379.07	0.156
379.28	0.782
379.50	0.459
379.71	0.237
379.93	0.153
380.15	0.226
380.36	0.359
380.58	0.238
380.80	0.806
381.01	0.181
381.23	0.146
381.44	0.152
381.66	0.165
381.88	0.189
382.09	-0.079
382.31	0.115
382.53	0.120
382.74	0.601
382.96	0.173
383.17	0.139
383.39	0.214
383.61	0.274
383.82	0.184
384.04	0.229
384.25	0.295
384.47	0.282
384.69	0.268
384.90	0.231
385.12	0.510
385.33	0.334
385.55	0.247
385.77	0.380
385.98	0.191
386.20	0.278
386.41	0.233
386.63	0.262
386.85	0.213
387.06	0.280
387.28	0.461
387.49	0.284
387.71	0.203
387.93	0.192
388.14	0.665
388.36	0.248
388.57	0.223
388.79	0.238
389.01	-0.000
389.22	0.349
389.44	0.296
389.65	0.242
389.87	0.240
390.08	0.286
390.30	0.210
390.52	0.402
390.73	0.397
390.95	0.274
391.16	0.281
391.38	-0.000
391.59	0.285
391.81	0.243
392.03	0.227
392.24	0.258
392.46	0.217
392.67	0.193
392.89	0.263
393.10	0.410
393.32	0.286
393.53	0.330
393.75	0.216
393.97	0.250
394.18	0.335
394.40	0.303
394.61	0.297
394.83	0.257
395.04	0.301
395.26	0.202
395.47	0.300
395.69	0.238
395.91	0.260
396.12	0.308
396.34	0.304
396.55	0.205
396.77	0.301
396.98	-0.000
397.20	0.416
397.41	0.484
397.63	0.339
397.84	0.303
398.06	0.282
398.27	0.286
398.49	0.330
398.71	0.247
398.92	0.290
399.14	0.372
399.35	0.458
399.57	0.426
399.78	0.287
400.00	0.283
400.21	0.375
400.43	0.306
400.64	0.310
400.86	0.776
401.07	0.389
401.29	0.345
401.50	0.360
401.72	0.533
401.93	0.319
402.15	0.390
402.36	0.355
402.58	0.276
402.79	0.307
403.01	0.548
403.22	0.398
403.44	0.265
403.65	0.417
403.87	0.465
404.08	0.358
404.30	0.614
404.51	0.330
404.73	0.403
404.94	0.356
405.16	0.359
405.37	0.274
405.59	0.522
405.80	0.328
406.02	0.420
406.23	0.426
406.45	0.485
406.66	0.525
406.88	0.332
407.09	0.524
407.31	0.413
407.52	0.529
407.74	0.416
407.95	0.498
408.17	0.446
408.38	0.467
408.60	0.300
408.81	0.510
409.03	0.370
409.24	0.368
409.45	0.424
409.67	0.404
409.88	0.357
410.10	0.457
410.31	0.368
410.53	0.361
410.74	0.517
410.96	0.503
411.17	0.508
411.39	0.392
411.60	0.374
411.82	0.427
412.03	0.406
412.24	0.395
412.46	0.577
412.67	0.479
412.89	0.475
413.10	0.474
413.32	0.434
413.53	0.527
413.75	0.542
413.96	0.391
414.17	0.536
414.39	0.557
414.60	0.453
414.82	0.619
415.03	0.475
415.25	0.527
415.46	0.345
415.68	0.487
415.89	0.948
416.10	0.720
416.32	0.389
416.53	0.449
416.75	0.416
416.96	0.506
417.18	0.439
417.39	0.425
417.60	0.426
417.82	0.636
418.03	0.550
418.25	0.453
418.46	0.479
418.67	0.436
418.89	0.485
419.10	0.518
419.32	0.710
419.53	0.631
419.75	0.515
419.96	0.448
420.17	0.555
420.39	0.526
420.60	0.540
420.82	0.658
421.03	0.528
421.24	0.436
421.46	0.466
421.67	0.498
421.89	0.430
422.10	0.463
422.31	0.466
422.53	0.650
422.74	0.484
422.96	0.396
423.17	0.454
423.38	0.568
423.60	0.471
423.81	0.609
424.03	0.520
424.24	0.589
424.45	0.600
424.67	0.596
424.88	0.535
425.09	0.579
425.31	0.534
425.52	0.549
425.74	0.619
425.95	0.690
426.16	0.519
426.38	0.612
426.59	0.548
426.80	0.621
427.02	0.646
427.23	0.504
427.45	0.668
427.66	0.652
427.87	0.512
428.09	0.542
428.30	0.591
428.51	0.586
428.73	0.661
428.94	0.580
429.15	0.564
429.37	0.545
429.58	0.571
429.79	0.530
430.01	0.629
430.22	0.620
430.44	0.642
430.65	0.577
430.86	0.618
431.08	0.596
431.29	0.551
431.50	0.663
431.72	0.903
431.93	0.708
432.14	0.520
432.36	0.571
432.57	0.584
432.78	0.615
433.00	0.573
433.21	0.563
433.42	0.695
433.64	0.603
433.85	0.693
434.06	0.550
434.28	0.585
434.49	0.601
434.70	0.621
434.92	0.629
435.13	0.664
435.34	0.669
435.56	0.629
435.77	0.632
435.98	0.823
436.20	0.677
436.41	0.586
436.62	0.570
436.83	0.653
437.05	0.738
437.26	0.657
437.47	0.581
437.69	0.631
437.90	0.583
438.11	0.574
438.33	0.614
438.54	0.628
438.75	0.813
438.97	0.796
439.18	0.599
439.39	0.629
439.60	0.670
439.82	0.629
440.03	0.583
440.24	0.864
440.46	0.647
440.67	0.636
440.88	0.695
441.10	0.638
441.31	0.641
441.52	0.694
441.73	0.797
441.95	0.699
442.16	0.639
442.37	1.058
442.58	0.627
442.80	0.607
443.01	0.787
443.22	0.712
443.44	0.612
443.65	0.730
443.86	0.735
444.07	0.773
444.29	0.665
444.50	0.866
444.71	0.649
444.92	0.605
445.14	0.777
445.35	0.830
445.56	0.641
445.78	0.748
445.99	0.738
446.20	0.633
446.41	0.722
446.63	0.727
446.84	0.689
447.05	0.685
447.26	0.831
447.48	0.697
447.69	0.661
447.90	0.753
448.11	0.668
448.33	0.699
448.54	0.718
448.75	0.751
448.96	0.759
449.18	0.800
449.39	0.715
449.60	0.698
449.81	0.857
450.03	0.740
450.24	0.820
450.45	0.764
450.66	0.746
450.87	0.785
451.09	0.724
451.30	0.701
451.51	0.793
451.72	0.799
451.94	0.814
452.15	0.889
452.36	0.723
452.57	0.731
452.78	0.732
453.00	0.767
453.21	0.718
453.42	0.695
453.63	0.794
453.85	0.744
454.06	0.740
454.27	0.878
454.48	0.779
454.69	0.709
454.91	0.791
455.12	0.688
455.33	0.778
455.54	0.797
455.75	0.766
455.97	0.795
456.18	0.787
456.39	0.794
456.60	0.819
456.81	0.757
457.03	0.772
457.24	0.774
457.45	0.882
457.66	0.817
457.87	0.766
458.09	0.783
458.30	0.692
458.51	0.830
458.72	0.862
458.93	0.877
459.15	0.764
459.36	0.837
459.57	0.866
459.78	0.915
459.99	0.811
460.20	0.764
460.42	0.856
460.63	0.809
460.84	0.788
461.05	0.810
461.26	0.878
461.47	0.783
461.69	0.837
461.90	0.871
462.11	0.821
462.32	0.881
462.53	0.816
462.74	0.928
462.96	0.795
463.17	0.782
463.38	0.825
463.59	0.948
463.80	0.778
464.01	0.802
464.23	0.897
464.44	0.859
464.65	0.863
464.86	0.891
465.07	0.896
465.28	0.850
465.49	0.879
465.71	0.819
465.92	0.860
466.13	0.916
466.34	0.842
466.55	0.899
466.76	0.850
466.97	0.877
467.19	0.860
467.40	0.895
467.61	0.902
467.82	0.815
468.03	0.802
468.24	0.876
468.45	0.909
468.66	0.888
468.88	0.897
469.09	0.901
469.30	0.954
469.51	0.873
469.72	0.916
469.93	0.883
470.14	0.864
470.35	0.969
470.57	0.909
470.78	0.845
470.99	0.985
471.20	0.915
471.41	0.870
471.62	0.926
471.83	0.898
472.04	0.931
472.25	0.974
472.47	0.884
472.68	0.884
472.89	0.894
473.10	0.937
473.31	0.886
473.52	0.952
473.73	0.980
473.94	0.891
474.15	0.926
474.36	0.929
474.57	0.958
474.79	0.924
475.00	0.925
475.21	0.905
475.42	1.002
475.63	0.904
475.84	0.938
476.05	0.942
476.26	0.907
476.47	0.938
476.68	0.985
476.89	0.911
477.10	0.968
477.32	0.955
477.53	1.016
477.74	0.929
477.95	0.971
478.16	0.914
478.37	0.957
478.58	0.962
478.79	0.977
479.00	0.976
479.21	0.929
479.42	0.966
479.63	0.968
479.84	0.929
480.05	0.929
480.26	0.953
480.47	0.973
480.69	0.982
480.90	0.948
481.11	0.948
481.32	1.016
481.53	0.955
481.74	1.016
481.95	0.984
482.16	1.002
482.37	1.010
482.58	0.976
482.79	0.994
483.00	1.024
483.21	0.962
483.42	0.931
483.63	1.015
483.84	1.044
484.05	1.033
484.26	0.998
484.47	0.999
484.68	0.961
484.89	0.968
485.10	1.022
485.31	1.002
485.52	1.008
485.73	1.007
485.94	1.055
486.15	0.996
486.37	1.013
486.58	0.975
486.79	0.987
487.00	1.040
487.21	1.029
487.42	1.021
487.63	1.019
487.84	1.036
488.05	1.032
488.26	0.986
488.47	0.993
488.68	1.022
488.89	0.999
489.10	0.997
489.31	1.009
489.52	1.047
489.73	1.015
489.94	1.060
490.15	1.013
490.36	1.058
490.57	1.005
490.78	0.987
490.99	1.031
491.20	1.115
491.41	1.059
491.62	0.998
491.83	1.033
492.04	1.024
492.25	1.031
492.45	1.030
492.66	1.057
492.87	1.046
493.08	1.033
493.29	1.014
493.50	1.002
493.71	1.013
493.92	1.008
494.13	1.021
494.34	1.045
494.55	1.048
494.76	1.083
494.97	1.073
495.18	1.034
495.39	1.051
495.60	0.998
495.81	1.002
496.02	1.024
496.23	1.015
496.44	1.049
496.65	1.039
496.86	1.048
497.07	1.076
497.28	1.072
497.49	1.016
497.70	1.018
497.91	1.043
498.12	1.022
498.32	1.066
498.53	1.049
498.74	1.045
498.95	1.071
499.16	1.024
499.37	1.028
499.58	1.038
499.79	1.071
500.00	1.065
500.21	1.095
500.42	1.035
500.63	1.036
500.84	1.058
501.05	1.031
501.26	1.061
501.46	1.106
501.67	1.065
501.88	1.070
502.09	1.044
502.30	1.053
502.51	1.106
502.72	1.053
502.93	1.071
503.14	1.095
503.35	1.062
503.56	1.057
503.77	1.087
503.97	1.059
504.18	1.058
504.39	1.094
504.60	1.062
504.81	1.096
505.02	1.086
505.23	1.091
505.44	1.070
505.65	1.076
505.86	1.054
506.07	1.127
506.27	1.082
506.48	1.086
506.69	1.070
506.90	1.090
507.11	1.084
507.32	1.057
507.53	1.062
507.74	1.054
507.95	1.070
508.15	1.075
508.36	1.082
508.57	1.093
508.78	1.075
508.99	1.072
509.20	1.045
509.41	1.073
509.62	1.061
509.82	1.059
510.03	1.071
510.24	1.071
510.45	1.099
510.66	1.089
510.87	1.083
511.08	1.040
511.29	1.085
511.49	1.062
511.70	1.113
511.91	1.040
512.12	1.036
512.33	1.072
512.54	1.088
512.75	1.069
512.95	1.096
513.16	1.089
513.37	1.062
513.58	1.105
513.79	1.064
514.00	1.070
514.20	1.091
514.41	1.080
514.62	1.042
514.83	1.087
515.04	1.075
515.25	1.055
515.46	1.067
515.66	1.070
515.87	1.084
516.08	1.050
516.29	1.076
516.50	1.054
516.71	1.049
516.91	1.061
517.12	1.079
517.33	1.062
517.54	1.047
517.75	1.052
517.95	1.066
518.16	1.077
518.37	1.038
518.58	1.045
518.79	1.018
519.00	1.049
519.20	1.060
519.41	1.031
519.62	1.055
519.83	1.064
520.04	1.025
520.24	1.022
520.45	1.034
520.66	1.063
520.87	1.020
521.08	1.015
521.28	1.022
521.49	1.039
521.70	1.005
521.91	1.019
522.12	1.001
522.32	1.024
522.53	1.004
522.74	0.992
522.95	1.001
523.16	1.002
523.36	1.014
523.57	0.995
523.78	0.988
523.99	0.995
524.20	0.986
524.40	1.000
524.61	1.006
524.82	0.979
525.03	0.982
525.23	0.982
525.44	0.968
525.65	0.967
525.86	0.989
526.06	0.959
526.27	0.960
526.48	0.971
526.69	0.953
526.90	0.957
527.10	0.996
527.31	0.949
527.52	0.944
527.73	0.935
527.93	0.945
528.14	0.951
528.35	0.941
528.56	0.945
528.76	0.937
528.97	0.926
529.18	0.917
529.39	0.916
529.59	0.918
529.80	0.950
530.01	0.920
530.22	0.919
530.42	0.887
530.63	0.904
530.84	0.880
531.05	0.895
531.25	0.898
531.46	0.890
531.67	0.868
531.88	0.889
532.08	0.883
532.29	0.878
532.50	0.871
532.70	0.864
532.91	0.853
533.12	0.854
533.33	0.881
533.53	0.850
533.74	0.848
533.95	0.854
534.15	0.841
534.36	0.842
534.57	0.824
534.78	0.825
534.98	0.834
535.19	0.804
535.40	0.806
535.60	0.825
535.81	0.804
536.02	0.807
536.23	0.798
536.43	0.800
536.64	0.786
536.85	0.795
537.05	0.803
537.26	0.780
537.47	0.783
537.67	0.770
537.88	0.764
538.09	0.772
538.30	0.762
538.50	0.752
538.71	0.763
538.92	0.749
539.12	0.744
539.33	0.740
539.54	0.740
539.74	0.745
539.95	0.736
540.16	0.734
540.36	0.725
540.57	0.724
540.78	0.717
540.98	0.716
541.19	0.714
541.40	0.701
541.60	0.711
541.81	0.705
542.02	0.705
542.22	0.694
542.43	0.689
542.64	0.683
542.84	0.682
543.05	0.674
543.26	0.673
543.46	0.676
543.67	0.674
543.88	0.669
544.08	0.659
544.29	0.653
544.50	0.653
544.70	0.653
544.91	0.644
545.12	0.646
545.32	0.641
545.53	0.645
545.74	0.634
545.94	0.631
546.15	0.628
546.35	0.625
546.56	0.622
546.77	0.619
546.97	0.616
547.18	0.608
547.39	0.608
547.59	0.606
547.80	0.602
548.01	0.605
548.21	0.602
548.42	0.593
548.62	0.592
548.83	0.589
549.04	0.585
549.24	0.577
549.45	0.577
549.65	0.573
549.86	0.568
550.07	0.567
550.27	0.565
550.48	0.572
550.69	0.558
550.89	0.558
551.10	0.553
551.30	0.551
551.51	0.551
551.72	0.540
551.92	0.542
552.13	0.541
552.33	0.542
552.54	0.535
552.75	0.528
552.95	0.529
553.16	0.524
553.36	0.521
553.57	0.520
553.78	0.517
553.98	0.516
554.19	0.507
554.39	0.504
554.60	0.507
554.80	0.506
555.01	0.499
555.22	0.502
555.42	0.498
555.63	0.492
555.83	0.495
556.04	0.489
556.25	0.491
556.45	0.482
556.66	0.479
556.86	0.483
557.07	0.480
557.27	0.479
557.48	0.473
557.68	0.471
557.89	0.472
558.10	0.468
558.30	0.464
558.51	0.463
558.71	0.462
558.92	0.457
559.12	0.459
559.33	0.462
559.54	0.456
559.74	0.451
559.95	0.449
560.15	0.448
560.36	0.447
560.56	0.441
560.77	0.441
560.97	0.441
561.18	0.436
561.38	0.435
561.59	0.437
561.79	0.433
562.00	0.431
562.21	0.428
562.41	0.426
562.62	0.425
562.82	0.423
563.03	0.419
563.23	0.419
563.44	0.418
563.64	0.414
563.85	0.415
564.05	0.409
564.26	0.408
564.46	0.407
564.67	0.407
564.87	0.402
565.08	0.399
565.28	0.399
565.49	0.399
565.69	0.396
565.90	0.394
566.10	0.396
566.31	0.389
566.51	0.391
566.72	0.392
566.92	0.385
567.13	0.385
567.33	0.384
567.54	0.383
567.74	0.381
567.95	0.377
568.15	0.378
568.36	0.377
568.56	0.376
568.77	0.370
568.97	0.369
569.18	0.370
569.38	0.368
569.59	0.369
569.79	0.367
570.00	0.365
570.20	0.363
570.41	0.361
570.61	0.361
570.82	0.361
571.02	0.357
571.23	0.358
571.43	0.354
571.64	0.352
571.84	0.351
572.05	0.349
572.25	0.349
572.45	0.347
572.66	0.344
572.86	0.343
573.07	0.341
573.27	0.342
573.48	0.341
573.68	0.337
573.89	0.337
574.09	0.338
574.30	0.335
574.50	0.333
574.70	0.334
574.91	0.332
575.11	0.332
575.32	0.331
575.52	0.327
575.73	0.327
575.93	0.326
576.14	0.324
576.34	0.323
576.54	0.322
576.75	0.320
576.95	0.319
577.16	0.317
577.36	0.315
577.57	0.315
577.77	0.314
577.97	0.311
578.18	0.313
578.38	0.309
578.59	0.308
578.79	0.306
579.00	0.307
579.20	0.305
579.40	0.305
579.61	0.304
579.81	0.303
580.02	0.300
580.22	0.300
580.42	0.298
580.63	0.299
580.83	0.298
581.04	0.296
581.24	0.295
581.45	0.294
581.65	0.293
581.85	0.292
582.06	0.290
582.26	0.290
582.47	0.289
582.67	0.289
582.87	0.288
583.08	0.285
583.28	0.285
583.48	0.283
583.69	0.280
583.89	0.280
584.10	0.281
584.30	0.279
584.50	0.277
584.71	0.276
584.91	0.276
585.12	0.274
585.32	0.275
585.52	0.273
585.73	0.272
585.93	0.272
586.13	0.271
586.34	0.270
586.54	0.269
586.75	0.268
586.95	0.267
587.15	0.267
587.36	0.265
587.56	0.264
587.76	0.262
587.97	0.261
588.17	0.260
588.37	0.259
588.58	0.259
588.78	0.257
588.98	0.257
589.19	0.255
589.39	0.253
589.60	0.255
589.80	0.252
590.00	0.252
590.21	0.252
590.41	0.250
590.61	0.250
590.82	0.249
591.02	0.249
591.22	0.247
591.43	0.247
591.63	0.245
591.83	0.245
592.04	0.244
592.24	0.244
592.44	0.242
592.65	0.241
592.85	0.241
593.05	0.241
593.26	0.240
593.46	0.239
593.66	0.239
593.86	0.239
594.07	0.237
594.27	0.237
594.47	0.236
594.68	0.235
594.88	0.236
595.08	0.235
595.29	0.235
595.49	0.233
595.69	0.232
595.90	0.231
596.10	0.230
596.30	0.230
596.50	0.228
596.71	0.228
596.91	0.227
597.11	0.227
597.32	0.226
597.52	0.225
597.72	0.225
597.93	0.224
598.13	0.223
598.33	0.223
598.53	0.222
598.74	0.221
598.94	0.221
599.14	0.220
599.35	0.220
599.55	0.220
599.75	0.219
599.95	0.218
600.16	0.218
600.36	0.217
600.56	0.218
600.76	0.217
600.97	0.215
601.17	0.214
601.37	0.215
601.58	0.214
601.78	0.214
601.98	0.213
602.18	0.212
602.39	0.212
602.59	0.212
602.79	0.211
602.99	0.211
603.20	0.209
603.40	0.210
603.60	0.210
603.80	0.209
604.01	0.209
604.21	0.208
604.41	0.207
604.61	0.206
604.82	0.205
605.02	0.206
605.22	0.205
605.42	0.204
605.62	0.204
605.83	0.203
606.03	0.202
606.23	0.201
606.43	0.201
606.64	0.201
606.84	0.200
607.04	0.200
607.24	0.200
607.45	0.200
607.65	0.198
607.85	0.199
608.05	0.198
608.25	0.198
608.46	0.197
608.66	0.198
608.86	0.197
609.06	0.196
609.26	0.195
609.47	0.195
609.67	0.194
609.87	0.195
610.07	0.194
610.28	0.193
610.48	0.193
610.68	0.192
610.88	0.191
611.08	0.191
611.29	0.190
611.49	0.190
611.69	0.190
611.89	0.188
612.09	0.188
612.29	0.187
612.50	0.187
612.70	0.187
612.90	0.186
613.10	0.186
613.30	0.186
613.51	0.186
613.71	0.185
613.91	0.189
614.11	0.184
614.31	0.184
614.51	0.184
614.72	0.183
614.92	0.183
615.12	0.183
615.32	0.183
615.52	0.182
615.72	0.183
615.93	0.182
616.13	0.182
616.33	0.181
616.53	0.181
616.73	0.181
616.93	0.180
617.14	0.180
617.34	0.180
617.54	0.180
617.74	0.180
617.94	0.179
618.14	0.179
618.34	0.178
618.55	0.178
618.75	0.178
618.95	0.178
619.15	0.178
619.35	0.177
619.55	0.176
619.75	0.177
619.96	0.176
620.16	0.176
620.36	0.175
620.56	0.175
620.76	0.174
620.96	0.174
621.16	0.174
621.36	0.174
621.57	0.174
621.77	0.174
621.97	0.173
622.17	0.172
622.37	0.172
622.57	0.172
622.77	0.171
622.97	0.170
623.18	0.171
623.38	0.170
623.58	0.170
623.78	0.169
623.98	0.169
624.18	0.168
624.38	0.168
624.58	0.168
624.78	0.169
624.98	0.169
625.19	0.169
625.39	0.169
625.59	0.168
625.79	0.168
625.99	0.168
626.19	0.167
626.39	0.167
626.59	0.167
626.79	0.166
626.99	0.166
627.19	0.166
627.40	0.166
627.60	0.165
627.80	0.165
628.00	0.165
628.20	0.165
628.40	0.165
628.60	0.165
628.80	0.164
629.00	0.164
629.20	0.164
629.40	0.164
629.60	0.162
629.80	0.163
630.00	0.163
630.20	0.162
630.41	0.161
630.61	0.161
630.81	0.161
631.01	0.161
631.21	0.160
631.41	0.160
631.61	0.161
631.81	0.160
632.01	0.160
632.21	0.159
632.41	0.158
632.61	0.158
632.81	0.158
633.01	0.159
633.21	0.158
633.41	0.159
633.61	0.158
633.81	0.158
634.01	0.157
634.21	0.157
634.41	0.157
634.61	0.158
634.81	0.157
635.01	0.157
635.22	0.157
635.42	0.157
635.62	0.157
635.82	0.156
636.02	0.156
636.22	0.156
636.42	0.155
636.62	0.155
636.82	0.155
637.02	0.154
637.22	0.155
637.42	0.154
637.62	0.153
637.82	0.153
638.02	0.152
638.22	0.152
638.42	0.152
638.62	0.151
638.82	0.151
639.02	0.151
639.22	0.151
639.42	0.150
639.62	0.150
639.82	0.149
640.02	0.149
640.22	0.149
640.42	0.149
640.62	0.149
640.82	0.149
641.02	0.148
641.22	0.149
641.42	0.148
641.61	0.148
641.81	0.149
642.01	0.148
642.21	0.148
642.41	0.148
642.61	0.148
642.81	0.147
643.01	0.147
643.21	0.147
643.41	0.148
643.61	0.147
643.81	0.147
644.01	0.146
644.21	0.146
644.41	0.146
644.61	0.146
644.81	0.146
645.01	0.146
645.21	0.146
645.41	0.146
645.61	0.145
645.81	0.145
646.01	0.144
646.21	0.144
646.40	0.144
646.60	0.144
646.80	0.144
647.00	0.144
647.20	0.143
647.40	0.142
647.60	0.142
647.80	0.142
648.00	0.142
648.20	0.142
648.40	0.142
648.60	0.141
648.80	0.141
649.00	0.141
649.20	0.142
649.39	0.141
649.59	0.140
649.79	0.140
649.99	0.140
650.19	0.140
650.39	0.140
650.59	0.140
650.79	0.139
650.99	0.138
651.19	0.138
651.39	0.138
651.58	0.137
651.78	0.137
651.98	0.136
652.18	0.136
652.38	0.136
652.58	0.136
652.78	0.136
652.98	0.136
653.18	0.136
653.38	0.136
653.57	0.136
653.77	0.137
653.97	0.136
654.17	0.136
654.37	0.135
654.57	0.135
654.77	0.134
654.97	0.134
655.16	0.134
655.36	0.134
655.56	0.133
655.76	0.132
655.96	0.132
656.16	0.131
656.36	0.131
656.56	0.131
656.75	0.131
656.95	0.131
657.15	0.131
657.35	0.131
657.55	0.130
657.75	0.130
657.95	0.130
658.14	0.130
658.34	0.130
658.54	0.130
658.74	0.130
658.94	0.129
659.14	0.130
659.34	0.129
659.53	0.129
659.73	0.129
659.93	0.128
660.13	0.128
660.33	0.128
660.53	0.128
660.72	0.128
660.92	0.128
661.12	0.127
661.32	0.127
661.52	0.127
661.72	0.127
661.91	0.126
662.11	0.126
662.31	0.126
662.51	0.126
662.71	0.126
662.90	0.125
663.10	0.125
663.30	0.125
663.50	0.125
663.70	0.124
663.90	0.124
664.09	0.124
664.29	0.123
664.49	0.123
664.69	0.123
664.89	0.123
665.08	0.123
665.28	0.122
665.48	0.122
665.68	0.122
665.88	0.122
666.07	0.122
666.27	0.122
666.47	0.122
666.67	0.123
666.87	0.122
667.06	0.121
667.26	0.121
667.46	0.121
667.66	0.121
667.85	0.121
668.05	0.121
668.25	0.120
668.45	0.120
668.65	0.120
668.84	0.119
669.04	0.119
669.24	0.119
669.44	0.119
669.63	0.118
669.83	0.118
670.03	0.117
670.23	0.117
670.42	0.117
670.62	0.116
670.82	0.116
671.02	0.115
671.22	0.115
671.41	0.115
671.61	0.115
671.81	0.115
672.01	0.116
672.20	0.116
672.40	0.115
672.60	0.115
672.80	0.116
672.99	0.115
673.19	0.115
673.39	0.115
673.58	0.114
673.78	0.114
673.98	0.113
674.18	0.113
674.37	0.113
674.57	0.112
674.77	0.112
674.97	0.112
675.16	0.113
675.36	0.112
675.56	0.112
675.75	0.111
675.95	0.111
676.15	0.111
676.35	0.111
676.54	0.110
676.74	0.110
676.94	0.110
677.13	0.110
677.33	0.109
677.53	0.110
677.73	0.110
677.92	0.109
678.12	0.110
678.32	0.109
678.51	0.109
678.71	0.109
678.91	0.109
679.11	0.109
679.30	0.109
679.50	0.108
679.70	0.108
679.89	0.108
680.09	0.108
680.29	0.107
680.48	0.107
680.68	0.107
680.88	0.107
681.07	0.107
681.27	0.107
681.47	0.107
681.66	0.107
681.86	0.107
682.06	0.106
682.25	0.106
682.45	0.106
682.65	0.106
682.84	0.105
683.04	0.105
683.24	0.105
683.43	0.105
683.63	0.105
683.83	0.104
684.02	0.104
684.22	0.104
684.42	0.104
684.61	0.104
684.81	0.103
685.01	0.103
685.20	0.103
685.40	0.103
685.60	0.103
685.79	0.103
685.99	0.103
686.19	0.102
686.38	0.102
686.58	0.103
686.77	0.103
686.97	0.103
687.17	0.103
687.36	0.102
687.56	0.102
687.76	0.102
687.95	0.102
688.15	0.101
688.34	0.101
688.54	0.101
688.74	0.100
688.93	0.099
689.13	0.099
689.33	0.099
689.52	0.099
689.72	0.099
689.91	0.098
690.11	0.098
690.31	0.098
690.50	0.098
690.70	0.098
690.89	0.098
691.09	0.098
691.29	0.098
691.48	0.097
691.68	0.097
691.87	0.098
692.07	0.098
692.27	0.097
692.46	0.097
692.66	0.097
692.85	0.097
693.05	0.097
693.25	0.097
693.44	0.096
693.64	0.096
693.83	0.097
694.03	0.096
694.22	0.095
694.42	0.095
694.62	0.096
694.81	0.096
695.01	0.096
695.20	0.096
695.40	0.095
695.59	0.095
695.79	0.095
695.99	0.095
696.18	0.095
696.38	0.095
696.57	0.095
696.77	0.094
696.96	0.095
697.16	0.094
697.36	0.094
697.55	0.093
697.75	0.093
697.94	0.093
698.14	0.093
698.33	0.092
698.53	0.092
698.72	0.092
698.92	0.092
699.11	0.092
699.31	0.092
699.51	0.092
699.70	0.092
699.90	0.092
700.09	0.093
700.29	0.093
700.48	0.093
700.68	0.092
700.87	0.092
701.07	0.092
701.26	0.091
701.46	0.091
701.65	0.091
701.85	0.091
702.04	0.090
702.24	0.090
702.43	0.090
702.63	0.089
702.82	0.089
703.02	0.089
703.21	0.089
703.41	0.089
703.60	0.089
703.80	0.089
703.99	0.088
704.19	0.089
704.38	0.088
704.58	0.088
704.77	0.088
704.97	0.088
705.16	0.088
705.36	0.088
705.55	0.088
705.75	0.088
705.94	0.088
706.14	0.089
706.33	0.089
706.53	0.089
706.72	0.089
706.92	0.088
707.11	0.088
707.31	0.088
707.50	0.088
707.70	0.088
707.89	0.088
708.09	0.087
708.28	0.087
708.48	0.087
708.67	0.086
708.86	0.087
709.06	0.087
709.25	0.087
709.45	0.086
709.64	0.086
709.84	0.086
710.03	0.085
710.23	0.085
710.42	0.085
710.62	0.086
710.81	0.085
711.00	0.085
711.20	0.085
711.39	0.084
711.59	0.084
711.78	0.084
711.98	0.084
712.17	0.085
712.37	0.084
712.56	0.085
712.75	0.085
712.95	0.085
713.14	0.085
713.34	0.085
713.53	0.085
713.73	0.086
713.92	0.086
714.11	0.086
714.31	0.086
714.50	0.085
714.70	0.085
714.89	0.085
715.08	0.085
715.28	0.085
715.47	0.084
715.67	0.084
715.86	0.084
716.06	0.085
716.25	0.084
716.44	0.084
716.64	0.084
716.83	0.084
717.03	0.084
717.22	0.084
717.41	0.084
717.61	0.084
717.80	0.084
717.99	0.084
718.19	0.084
718.38	0.084
718.58	0.083
718.77	0.083
718.96	0.083
719.16	0.083
719.35	0.083
719.55	0.082
719.74	0.082
719.93	0.081
720.13	0.082
720.32	0.081
720.51	0.081
720.71	0.082
720.90	0.082
721.10	0.082
721.29	0.082
721.48	0.081
721.68	0.082
721.87	0.082
722.06	0.082
722.26	0.082
722.45	0.082
722.64	0.083
722.84	0.082
723.03	0.082
723.22	0.082
723.42	0.082
723.61	0.082
723.80	0.083
724.00	0.082
724.19	0.082
724.38	0.082
724.58	0.081
724.77	0.081
724.96	0.081
725.16	0.081
725.35	0.081
725.54	0.081
725.74	0.082
725.93	0.082
726.12	0.082
726.32	0.082
726.51	0.082
726.70	0.082
726.90	0.082
727.09	0.082
727.28	0.082
727.48	0.083
727.67	0.082
727.86	0.082
728.06	0.082
728.25	0.082
728.44	0.082
728.64	0.082
728.83	0.082
729.02	0.082
729.21	0.082
729.41	0.082
729.60	0.081
729.79	0.081
729.99	0.081
730.18	0.081
730.37	0.081
730.56	0.081
730.76	0.081
730.95	0.081
731.14	0.081
731.34	0.081
731.53	0.081
731.72	0.081
731.91	0.081
732.11	0.081
732.30	0.081
732.49	0.082
732.69	0.082
732.88	0.082
733.07	0.082
733.26	0.082
733.46	0.082
733.65	0.082
733.84	0.082
734.03	0.083
734.23	0.083
734.42	0.083
734.61	0.082
734.80	0.082
735.00	0.082
735.19	0.082
735.38	0.082
735.57	0.082
735.77	0.082
735.96	0.082
736.15	0.082
736.34	0.082
736.54	0.083
736.73	0.082
736.92	0.082
737.11	0.082
737.31	0.082
737.50	0.082
737.69	0.082
737.88	0.082
738.07	0.082
738.27	0.082
738.46	0.082
738.65	0.082
738.84	0.082
739.04	0.082
739.23	0.082
739.42	0.082
739.61	0.082
739.80	0.081
740.00	0.081
740.19	0.082
740.38	0.081
740.57	0.081
740.76	0.081
740.96	0.081
741.15	0.081
741.34	0.081
741.53	0.081
741.72	0.081
741.92	0.081
742.11	0.081
742.30	0.080
742.49	0.080
742.68	0.080
742.88	0.080
743.07	0.080
743.26	0.080
743.45	0.080
743.64	0.080
743.84	0.080
744.03	0.080
744.22	0.080
744.41	0.080
744.60	0.080
744.79	0.080
744.99	0.080
745.18	0.079
745.37	0.079
745.56	0.079
745.75	0.079
745.94	0.079
746.14	0.079
746.33	0.080
746.52	0.080
746.71	0.080
746.90	0.079
747.09	0.079
747.28	0.079
747.48	0.079
747.67	0.079
747.86	0.079
748.05	0.079
748.24	0.079
748.43	0.078
748.62	0.078
748.82	0.078
749.01	0.078
749.20	0.078
749.39	0.078
749.58	0.078
749.77	0.078
749.96	0.078
750.16	0.078
750.35	0.078
750.54	0.077
750.73	0.078
750.92	0.078
751.11	0.078
751.30	0.078
751.49	0.078
751.68	0.078
751.88	0.078
752.07	0.077
752.26	0.077
752.45	0.078
752.64	0.077
752.83	0.077
753.02	0.077
753.21	0.077
753.40	0.077
753.60	0.077
753.79	0.077
753.98	0.077
754.17	0.077
754.36	0.077
754.55	0.077
754.74	0.077
754.93	0.077
755.12	0.077
755.31	0.077
755.50	0.077
755.70	0.077
755.89	0.076
756.08	0.077
756.27	0.076
756.46	0.077
756.65	0.076
756.84	0.076
757.03	0.076
757.22	0.076
757.41	0.076
757.60	0.076
757.79	0.076
757.98	0.076
758.17	0.077
758.36	0.077
758.56	0.076
758.75	0.076
758.94	0.076
759.13	0.076
759.32	0.076
759.51	0.076
759.70	0.076
759.89	0.076
760.08	0.076
760.27	0.075
760.46	0.075
760.65	0.076
760.84	0.075
761.03	0.075
761.22	0.076
761.41	0.076
761.60	0.075
761.79	0.075
761.98	0.075
762.17	0.075
762.36	0.074
762.55	0.074
762.74	0.074
762.93	0.074
763.12	0.074
763.31	0.074
763.50	0.073
763.69	0.074
763.88	0.074
764.07	0.073
764.26	0.074
764.45	0.074
764.64	0.074
764.83	0.073
765.02	0.074
765.21	0.074
765.40	0.074
765.59	0.074
765.78	0.074
765.97	0.074
766.16	0.074
766.35	0.074
766.54	0.074
766.73	0.074
766.92	0.074
767.11	0.074
767.30	0.075
767.49	0.074
767.68	0.074
767.87	0.074
768.06	0.074
768.25	0.074
768.44	0.074
768.63	0.073
768.82	0.073
769.01	0.073
769.20	0.073
769.39	0.073
769.58	0.073
769.77	0.073
769.96	0.073
770.15	0.073
770.34	0.073
770.53	0.073
770.72	0.072
770.91	0.072
771.10	0.073
771.29	0.072
771.47	0.072
771.66	0.072
771.85	0.072
772.04	0.072
772.23	0.072
772.42	0.072
772.61	0.072
772.80	0.072
772.99	0.072
773.18	0.072
773.37	0.072
773.56	0.072
773.75	0.073
773.94	0.073
774.13	0.072
774.31	0.073
774.50	0.073
774.69	0.073
774.88	0.073
775.07	0.073
775.26	0.073
775.45	0.072
775.64	0.072
775.83	0.072
776.02	0.071
776.21	0.071
776.40	0.071
776.58	0.071
776.77	0.071
776.96	0.071
777.15	0.071
777.34	0.071
777.53	0.071
777.72	0.071
777.91	0.071
778.10	0.071
778.28	0.071
778.47	0.071
778.66	0.071
778.85	0.070
779.04	0.070
779.23	0.070
779.42	0.070
779.61	0.070
779.79	0.070
779.98	0.070
780.17	0.070
780.36	0.070
780.55	0.070
780.74	0.069
780.93	0.070
781.12	0.070
781.30	0.070
781.49	0.070
781.68	0.070
781.87	0.070
782.06	0.070
782.25	0.070
782.44	0.070
782.62	0.070
782.81	0.071
783.00	0.070
783.19	0.070
783.38	0.070
783.57	0.070
783.75	0.070
783.94	0.070
784.13	0.070
784.32	0.069
784.51	0.069
784.70	0.069
784.88	0.069
785.07	0.069
785.26	0.069
785.45	0.069
785.64	0.068
785.83	0.069
786.01	0.068
786.20	0.069
786.39	0.069
786.58	0.069
786.77	0.069
786.95	0.069
787.14	0.069
787.33	0.069
787.52	0.069
787.71	0.069
787.90	0.069
788.08	0.069
788.27	0.069
788.46	0.069
788.65	0.069
788.84	0.069
789.02	0.069
789.21	0.069
789.40	0.069
789.59	0.069
789.77	0.069
789.96	0.068
790.15	0.069
790.34	0.068
790.53	0.068
790.71	0.068
790.90	0.068
791.09	0.068
791.28	0.068
791.46	0.068
791.65	0.068
791.84	0.068
792.03	0.068
792.22	0.068
792.40	0.068
792.59	0.068
792.78	0.068
792.97	0.069
793.15	0.068
793.34	0.068
793.53	0.068
793.72	0.068
793.90	0.068
794.09	0.068
794.28	0.068
794.47	0.068
794.65	0.068
794.84	0.068
795.03	0.068
795.22	0.067
795.40	0.068
795.59	0.067
795.78	0.067
795.97	0.068
796.15	0.068
796.34	0.068
796.53	0.068
796.71	0.068
796.90	0.068
797.09	0.068
797.28	0.068
797.46	0.068
797.65	0.069
797.84	0.068
798.02	0.068
798.21	0.067
798.40	0.067
798.59	0.067
798.77	0.067
798.96	0.067
799.15	0.066
799.33	0.066
799.52	0.066
799.71	0.066
799.90	0.066
800.08	0.066
800.27	0.067
800.46	0.066
800.64	0.066
800.83	0.066
801.02	0.066
801.20	0.066
801.39	0.066
801.58	0.066
801.76	0.066
801.95	0.066
802.14	0.066
802.32	0.066
802.51	0.067
802.70	0.066
802.88	0.066
803.07	0.066
803.26	0.066
803.44	0.066
803.63	0.066
803.82	0.065
804.00	0.065
804.19	0.066
804.38	0.066
804.56	0.065
804.75	0.065
804.94	0.066
805.12	0.066
805.31	0.066
805.50	0.066
805.68	0.066
805.87	0.066
806.06	0.066
806.24	0.066
806.43	0.066
806.62	0.067
806.80	0.066
806.99	0.066
807.17	0.066
807.36	0.066
807.55	0.066
807.73	0.066
807.92	0.067
808.11	0.066
808.29	0.066
808.48	0.065
808.66	0.065
808.85	0.065
809.04	0.065
809.22	0.065
809.41	0.065
809.59	0.065
809.78	0.065
809.97	0.065
810.15	0.065
810.34	0.065
810.53	0.065
810.71	0.065
810.90	0.065
811.08	0.065
811.27	0.065
811.45	0.065
811.64	0.065
811.83	0.065
812.01	0.065
812.20	0.065
812.38	0.065
812.57	0.065
812.76	0.065
812.94	0.065
813.13	0.065
813.31	0.065
813.50	0.065
813.68	0.065
813.87	0.065
814.06	0.065
814.24	0.065
814.43	0.065
814.61	0.064
814.80	0.064
814.98	0.065
815.17	0.065
815.36	0.065
815.54	0.065
815.73	0.065
815.91	0.065
816.10	0.065
816.28	0.065
816.47	0.065
816.65	0.066
816.84	0.066
817.03	0.067
817.21	0.067
817.40	0.067
817.58	0.066
817.77	0.066
817.95	0.066
818.14	0.066
818.32	0.066
818.51	0.066
818.69	0.066
818.88	0.065
819.06	0.065
819.25	0.065
819.43	0.065
819.62	0.065
819.80	0.065
819.99	0.065
820.18	0.065
820.36	0.065
820.55	0.065
820.73	0.065
820.92	0.065
821.10	0.065
821.29	0.065
821.47	0.065
821.66	0.065
821.84	0.065
822.03	0.065
822.21	0.065
822.40	0.065
822.58	0.066
822.77	0.065
822.95	0.066
823.14	0.066
823.32	0.066
823.50	0.067
823.69	0.066
823.87	0.067
824.06	0.067
824.24	0.067
824.43	0.066
824.61	0.067
824.80	0.067
824.98	0.067
825.17	0.067
825.35	0.067
825.54	0.067
825.72	0.066
825.91	0.067
826.09	0.067
826.28	0.066
826.46	0.067
826.64	0.067
826.83	0.067
827.01	0.067
827.20	0.067
827.38	0.067
827.57	0.068
827.75	0.067
827.94	0.068
828.12	0.068
828.31	0.068
828.49	0.068
828.67	0.068
828.86	0.068
829.04	0.068
829.23	0.068
829.41	0.068
829.60	0.068
829.78	0.069
829.96	0.069
830.15	0.069
830.33	0.069
830.52	0.069
830.70	0.069
830.88	0.069
831.07	0.070
831.25	0.070
831.44	0.070
831.62	0.070
831.81	0.070
831.99	0.070
832.17	0.070
832.36	0.070
832.54	0.070
832.73	0.071
832.91	0.071
833.09	0.071
833.28	0.071
833.46	0.071
833.65	0.071
833.83	0.072
834.01	0.072
834.20	0.071
834.38	0.071
834.56	0.071
834.75	0.071
834.93	0.072
835.12	0.072
835.30	0.072
835.48	0.072
835.67	0.071
835.85	0.071
836.03	0.071
836.22	0.071
836.40	0.072
836.59	0.072
836.77	0.072
836.95	0.072
837.14	0.072
837.32	0.071
837.50	0.071
837.69	0.071
837.87	0.072
838.05	0.072
838.24	0.071
838.42	0.071
838.60	0.071
838.79	0.072
838.97	0.072
839.15	0.072
839.34	0.072
839.52	0.072
839.70	0.073
839.89	0.073
840.07	0.073
840.25	0.073
840.44	0.073
840.62	0.073
840.80	0.072
840.99	0.072
841.17	0.072
841.35	0.072
841.54	0.072
841.72	0.072
841.90	0.072
842.09	0.072
842.27	0.072
842.45	0.072
842.64	0.072
842.82	0.072
843.00	0.072
843.19	0.072
843.37	0.072
843.55	0.072
843.73	0.072
843.92	0.072
844.10	0.072
844.28	0.072
844.47	0.072
844.65	0.072
844.83	0.073
845.01	0.073
845.20	0.073
845.38	0.073
845.56	0.073
845.75	0.073
845.93	0.073
846.11	0.073
846.29	0.073
846.48	0.073
846.66	0.073
846.84	0.073
847.02	0.073
847.21	0.072
847.39	0.073
847.57	0.072
847.76	0.073
847.94	0.072
848.12	0.073
848.30	0.073
848.49	0.073
848.67	0.073
848.85	0.073
849.03	0.074
849.22	0.074
849.40	0.074
849.58	0.074
849.76	0.075
849.95	0.075
850.13	0.075
850.31	0.075
850.49	0.074
850.67	0.075
850.86	0.075
851.04	0.074
851.22	0.074
851.40	0.074
851.59	0.073
851.77	0.073
851.95	0.073
852.13	0.073
852.31	0.073
852.50	0.074
852.68	0.074
852.86	0.074
853.04	0.074
853.23	0.074
853.41	0.074
853.59	0.074
853.77	0.074
853.95	0.074
854.14	0.075
854.32	0.074
854.50	0.074
854.68	0.074
854.86	0.074
855.04	0.074
855.23	0.074
855.41	0.074
855.59	0.074
855.77	0.074
855.95	0.074
856.14	0.074
856.32	0.074
856.50	0.074
856.68	0.074
856.86	0.074
857.04	0.074
857.23	0.074
857.41	0.074
857.59	0.074
857.77	0.074
857.95	0.074
858.13	0.073
858.32	0.073
858.50	0.074
858.68	0.073
858.86	0.073
859.04	0.073
859.22	0.073
859.41	0.073
859.59	0.073
859.77	0.073
859.95	0.073
860.13	0.074
860.31	0.073
860.49	0.074
860.68	0.074
860.86	0.074
861.04	0.074
861.22	0.074
861.40	0.074
861.58	0.074
861.76	0.074
861.94	0.075
862.13	0.075
862.31	0.075
862.49	0.075
862.67	0.075
862.85	0.075
863.03	0.075
863.21	0.076
863.39	0.076
863.57	0.076
863.76	0.076
863.94	0.076
864.12	0.076
864.30	0.075
864.48	0.075
864.66	0.076
864.84	0.076
865.02	0.076
865.20	0.076
865.38	0.076
865.57	0.076
865.75	0.076
865.93	0.076
866.11	0.076
866.29	0.076
866.47	0.077
866.65	0.076
866.83	0.076
867.01	0.076
867.19	0.076
867.37	0.076
867.55	0.076
867.73	0.076
867.92	0.076
868.10	0.076
868.28	0.076
868.46	0.076
868.64	0.075
868.82	0.075
869.00	0.076
869.18	0.076
869.36	0.076
869.54	0.076
869.72	0.076
869.90	0.076
870.08	0.075
870.26	0.075
870.44	0.076
870.62	0.075
870.80	0.075
870.98	0.075
871.16	0.075
871.34	0.075
871.53	0.076
871.71	0.076
871.89	0.076
872.07	0.076
872.25	0.076
872.43	0.076
872.61	0.076
872.79	0.076
872.97	0.077
873.15	0.077
873.33	0.077
873.51	0.077
873.69	0.077
873.87	0.077
874.05	0.077
874.23	0.077
874.41	0.077
874.59	0.078
874.77	0.077
874.95	0.077
875.13	0.077
875.31	0.077
875.49	0.077
875.67	0.077
875.85	0.077
876.03	0.077
876.21	0.078
876.39	0.078
876.57	0.078
876.75	0.078
876.93	0.078
877.11	0.078
877.29	0.078
877.47	0.078
877.65	0.078
877.82	0.079
878.00	0.078
878.18	0.078
878.36	0.078
878.54	0.078
878.72	0.078
878.90	0.078
879.08	0.079
879.26	0.079
879.44	0.079
879.62	0.079
879.80	0.079
879.98	0.079
880.16	0.079
880.34	0.078
880.52	0.079
880.70	0.079
880.88	0.079
881.06	0.079
881.24	0.078
881.42	0.078
881.59	0.078
881.77	0.078
881.95	0.078
882.13	0.078
882.31	0.078
882.49	0.078
882.67	0.079
882.85	0.078
883.03	0.079
883.21	0.079
883.39	0.079
883.57	0.079
883.75	0.079
883.92	0.079
884.10	0.079
884.28	0.079
884.46	0.079
884.64	0.079
884.82	0.079
885.00	0.079
885.18	0.079
885.36	0.079
885.54	0.079
885.71	0.080
885.89	0.080
886.07	0.079
886.25	0.080
886.43	0.080
886.61	0.080
886.79	0.080
886.97	0.080
887.15	0.080
887.32	0.080
887.50	0.080
887.68	0.080
887.86	0.080
888.04	0.080
888.22	0.080
888.40	0.080
888.57	0.080
888.75	0.080
888.93	0.080
889.11	0.080
889.29	0.080
889.47	0.080
889.65	0.080
889.82	0.080
890.00	0.081
890.18	0.081
890.36	0.081
890.54	0.081
890.72	0.081
890.90	0.081
891.07	0.081
891.25	0.081
891.43	0.081
891.61	0.081
891.79	0.081
891.97	0.081
892.14	0.081
892.32	0.081
892.50	0.081
892.68	0.081
892.86	0.081
893.03	0.081
893.21	0.081
893.39	0.082
893.57	0.082
893.75	0.082
893.93	0.082
894.10	0.082
894.28	0.082
894.46	0.081
894.64	0.082
894.82	0.081
894.99	0.082
895.17	0.082
895.35	0.082
895.53	0.082
895.71	0.081
895.88	0.081
896.06	0.081
896.24	0.082
896.42	0.082
896.59	0.082
896.77	0.082
896.95	0.081
897.13	0.082
897.31	0.082
897.48	0.082
897.66	0.082
897.84	0.082
898.02	0.082
898.19	0.082
898.37	0.082
898.55	0.082
898.73	0.082
898.91	0.082
899.08	0.082
899.26	0.082
899.44	0.082
899.62	0.083
899.79	0.083
899.97	0.084
900.15	0.083
900.33	0.083
900.50	0.083
900.68	0.083
900.86	0.083
901.04	0.083
901.21	0.083
901.39	0.083
901.57	0.084
901.74	0.083
901.92	0.083
902.10	0.084
902.28	0.083
902.45	0.084
902.63	0.084
902.81	0.084
902.99	0.084
903.16	0.084
903.34	0.084
903.52	0.084
903.69	0.083
903.87	0.084
904.05	0.084
904.22	0.085
904.40	0.084
904.58	0.084
904.76	0.085
904.93	0.084
905.11	0.085
905.29	0.085
905.46	0.085
905.64	0.085
905.82	0.085
905.99	0.085
906.17	0.085
906.35	0.085
906.53	0.085
906.70	0.085
906.88	0.086
907.06	0.086
907.23	0.086
907.41	0.086
907.59	0.086
907.76	0.086
907.94	0.086
908.12	0.086
908.29	0.086
908.47	0.087
908.65	0.087
908.82	0.087
909.00	0.087
909.18	0.087
909.35	0.087
909.53	0.087
909.71	0.087
909.88	0.087
910.06	0.087
910.23	0.087
910.41	0.087
910.59	0.086
910.76	0.086
910.94	0.086
911.12	0.086
911.29	0.086
911.47	0.086
911.65	0.087
911.82	0.087
912.00	0.087
912.17	0.087
912.35	0.088
912.53	0.088
912.70	0.088
912.88	0.089
913.06	0.089
913.23	0.089
913.41	0.089
913.58	0.089
913.76	0.089
913.94	0.089
914.11	0.089
914.29	0.089
914.46	0.089
914.64	0.089
914.82	0.089
914.99	0.089
915.17	0.089
915.34	0.089
915.52	0.089
915.70	0.089
915.87	0.089
916.05	0.090
916.22	0.089
916.40	0.090
916.57	0.090
916.75	0.090
916.93	0.090
917.10	0.090
917.28	0.090
917.45	0.090
917.63	0.090
917.80	0.091
917.98	0.091
918.16	0.091
918.33	0.091
918.51	0.091
918.68	0.092
918.86	0.092
919.03	0.092
919.21	0.092
919.39	0.093
919.56	0.093
919.74	0.094
919.91	0.093
920.09	0.094
920.26	0.094
920.44	0.094
920.61	0.094
920.79	0.094
920.96	0.094
921.14	0.095
921.31	0.095
921.49	0.095
921.67	0.095
921.84	0.095
922.02	0.095
922.19	0.096
922.37	0.096
922.54	0.096
922.72	0.096
922.89	0.096
923.07	0.096
923.24	0.097
923.42	0.097
923.59	0.097
923.77	0.097
923.94	0.097
924.12	0.098
924.29	0.098
924.47	0.099
924.64	0.099
924.82	0.099
924.99	0.099
925.17	0.100
925.34	0.100
925.52	0.101
925.69	0.101
925.87	0.101
926.04	0.102
926.22	0.102
926.39	0.102
926.57	0.102
926.74	0.102
926.91	0.103
927.09	0.103
927.26	0.103
927.44	0.103
927.61	0.104
927.79	0.104
927.96	0.105
928.14	0.105
928.31	0.105
928.49	0.105
928.66	0.106
928.84	0.107
929.01	0.107
929.18	0.108
929.36	0.108
929.53	0.109
929.71	0.109
929.88	0.109
930.06	0.109
930.23	0.110
930.41	0.111
930.58	0.112
930.75	0.112
930.93	0.112
931.10	0.112
931.28	0.113
931.45	0.113
931.63	0.113
931.80	0.114
931.97	0.114
932.15	0.115
932.32	0.115
932.50	0.115
932.67	0.116
932.84	0.116
933.02	0.117
933.19	0.117
933.37	0.118
933.54	0.119
933.71	0.119
933.89	0.120
934.06	0.120
934.24	0.120
934.41	0.121
934.58	0.121
934.76	0.121
934.93	0.122
935.11	0.122
935.28	0.122
935.45	0.123
935.63	0.123
935.80	0.124
935.98	0.124
936.15	0.124
936.32	0.125
936.50	0.125
936.67	0.126
936.84	0.126
937.02	0.128
937.19	0.128
937.36	0.128
937.54	0.129
937.71	0.130
937.89	0.130
938.06	0.131
938.23	0.131
938.41	0.132
938.58	0.133
938.75	0.133
938.93	0.133
939.10	0.133
939.27	0.134
939.45	0.135
939.62	0.135
939.79	0.136
939.97	0.136
940.14	0.137
940.31	0.137
940.49	0.137
940.66	0.138
940.83	0.139
941.01	0.139
941.18	0.140
941.35	0.141
941.53	0.141
941.70	0.143
941.87	0.143
942.05	0.144
942.22	0.144
942.39	0.145
942.57	0.146
942.74	0.147
942.91	0.147
943.08	0.147
943.26	0.148
943.43	0.148
943.60	0.149
943.78	0.150
943.95	0.150
944.12	0.151
944.29	0.152
944.47	0.152
944.64	0.153
944.81	0.154
944.99	0.155
945.16	0.156
945.33	0.157
945.50	0.158
945.68	0.158
945.85	0.159
946.02	0.161
946.20	0.162
946.37	0.163
946.54	0.163
946.71	0.164
946.89	0.165
947.06	0.165
947.23	0.166
947.40	0.168
947.58	0.168
947.75	0.169
947.92	0.169
948.09	0.169
948.27	0.170
948.44	0.171
948.61	0.172
948.78	0.173
948.96	0.174
949.13	0.175
949.30	0.176
949.47	0.177
949.65	0.179
949.82	0.181
949.99	0.181
950.16	0.183
950.33	0.184
950.51	0.185
950.68	0.187
950.85	0.188
951.02	0.190
951.20	0.190
951.37	0.192
951.54	0.192
951.71	0.193
951.88	0.195
952.06	0.196
952.23	0.196
952.40	0.198
952.57	0.199
952.74	0.200
952.92	0.200
953.09	0.202
953.26	0.204
953.43	0.204
953.60	0.206
953.77	0.206
953.95	0.207
954.12	0.210
954.29	0.211
954.46	0.213
954.63	0.214
954.81	0.214
954.98	0.215
955.15	0.217
955.32	0.218
955.49	0.218
955.66	0.220
955.84	0.221
956.01	0.221
956.18	0.223
956.35	0.224
956.52	0.225
956.69	0.227
956.87	0.227
957.04	0.228
957.21	0.231
957.38	0.230
957.55	0.232
957.72	0.233
957.89	0.234
958.07	0.235
958.24	0.237
958.41	0.238
958.58	0.238
958.75	0.239
958.92	0.240
959.09	0.240
959.26	0.241
959.44	0.241
959.61	0.242
959.78	0.242
959.95	0.244
960.12	0.244
960.29	0.246
960.46	0.245
960.63	0.246
960.81	0.246
960.98	0.247
961.15	0.247
961.32	0.248
961.49	0.248
961.66	0.249
961.83	0.250
962.00	0.249
962.17	0.251
962.34	0.250
962.52	0.252
962.69	0.253
962.86	0.252
963.03	0.253
963.20	0.253
963.37	0.253
963.54	0.253
963.71	0.253
963.88	0.253
964.05	0.254
964.22	0.256
964.39	0.254
964.56	0.254
964.74	0.255
964.91	0.255
965.08	0.255
965.25	0.256
965.42	0.257
965.59	0.258
965.76	0.257
965.93	0.259
966.10	0.256
966.27	0.258
966.44	0.257
966.61	0.259
966.78	0.258
966.95	0.257
967.12	0.258
967.29	0.260
967.46	0.259
967.63	0.259
967.80	0.260
967.97	0.259
968.14	0.259
968.32	0.260
968.49	0.260
968.66	0.258
968.83	0.259
969.00	0.260
969.17	0.259
969.34	0.260
969.51	0.261
969.68	0.259
969.85	0.260
970.02	0.260
970.19	0.260
970.36	0.261
970.53	0.261
970.70	0.259
970.87	0.260
971.04	0.259
971.21	0.259
971.38	0.259
971.55	0.260
971.72	0.260
971.89	0.261
972.06	0.260
972.23	0.260
972.40	0.260
972.57	0.259
972.74	0.259
972.91	0.260
973.07	0.260
973.24	0.260
973.41	0.260
973.58	0.259
973.75	0.272
973.92	0.260
974.09	0.260
974.26	0.260
974.43	0.260
974.60	0.261
974.77	0.261
974.94	0.260
975.11	0.261
975.28	0.262
975.45	0.260
975.62	0.260
975.79	0.262
975.96	0.260
976.13	0.259
976.30	0.260
976.47	0.258
976.64	0.259
976.80	0.259
976.97	0.259
977.14	0.259
977.31	0.259
977.48	0.260
977.65	0.259
977.82	0.259
977.99	0.261
978.16	0.260
978.33	0.260
978.50	0.259
978.67	0.259
978.83	0.259
979.00	0.259
979.17	0.258
979.34	0.258
979.51	0.258
979.68	0.258
979.85	0.257
980.02	0.258
980.19	0.255
980.36	0.257
980.52	0.258
980.69	0.256
980.86	0.256
981.03	0.256
981.20	0.254
981.37	0.255
981.54	0.255
981.71	0.254
981.88	0.255
982.04	0.255
982.21	0.254
982.38	0.256
982.55	0.255
982.72	0.253
982.89	0.254
983.06	0.253
983.22	0.253
983.39	0.254
983.56	0.254
983.73	0.253
983.90	0.252
984.07	0.254
984.24	0.252
984.40	0.252
984.57	0.250
984.74	0.252
984.91	0.253
985.08	0.251
985.25	0.249
985.41	0.250
985.58	0.249
985.75	0.250
985.92	0.249
986.09	0.248
986.26	0.248
986.42	0.248
986.59	0.246
986.76	0.248
986.93	0.248
987.10	0.248
987.27	0.245
987.43	0.244
987.60	0.246
987.77	0.246
987.94	0.245
988.11	0.246
988.27	0.246
988.44	0.245
988.61	0.244
988.78	0.242
988.95	0.243
989.11	0.245
989.28	0.243
989.45	0.243
989.62	0.242
989.79	0.243
989.95	0.241
990.12	0.242
990.29	0.243
990.46	0.241
990.62	0.240
990.79	0.240
990.96	0.240
991.13	0.240
991.30	0.239
991.46	0.238
991.63	0.237
991.80	0.236
991.97	0.236
992.13	0.236
992.30	0.237
992.47	0.235
992.64	0.234
992.80	0.234
992.97	0.235
993.14	0.232
993.31	0.230
993.47	0.233
993.64	0.231
993.81	0.231
993.98	0.231
994.14	0.229
994.31	0.229
994.48	0.230
994.64	0.230
994.81	0.229
994.98	0.230
995.15	0.228
995.31	0.227
995.48	0.226
995.65	0.228
995.82	0.225
995.98	0.225
996.15	0.226
996.32	0.227
996.48	0.225
996.65	0.225
996.82	0.222
996.99	0.223
997.15	0.223
997.32	0.224
997.49	0.222
997.65	0.223
997.82	0.223
997.99	0.221
998.15	0.221
998.32	0.223
998.49	0.222
998.65	0.223
998.82	0.222
998.99	0.220
999.15	0.220
999.32	0.219
999.49	0.219
999.65	0.219
999.82	0.217
999.99	0.217
1000.15	0.217
1000.32	0.216
1000.49	0.216
1000.65	0.214
1000.82	0.214
1000.99	0.214
1001.15	0.215
1001.32	0.214
1001.49	0.214
1001.65	0.214
1001.82	0.216
1001.99	0.213
1002.15	0.213
1002.32	0.212
1002.49	0.213
1002.65	0.212
1002.82	0.211
1002.99	0.210
1003.15	0.212
1003.32	0.211
1003.48	0.211
1003.65	0.210
1003.82	0.209
1003.98	0.207
1004.15	0.207
1004.32	0.208
1004.48	0.207
1004.65	0.208
1004.81	0.206
1004.98	0.205
1005.15	0.206
1005.31	0.205
1005.48	0.203
1005.64	0.203
1005.81	0.205
1005.98	0.202
1006.14	0.201
1006.31	0.202
1006.47	0.200
1006.64	0.198
1006.81	0.198
1006.97	0.198
1007.14	0.198
1007.30	0.199
1007.47	0.199
1007.63	0.197
1007.80	0.195
1007.97	0.195
1008.13	0.195
1008.30	0.195
1008.46	0.195
1008.63	0.194
1008.79	0.195
1008.96	0.195
1009.13	0.196
1009.29	0.194
1009.46	0.193
1009.62	0.194
1009.79	0.192
1009.95	0.192
1010.12	0.192
1010.28	0.192
1010.45	0.191
1010.62	0.190
1010.78	0.189
1010.95	0.188
1011.11	0.189
1011.28	0.188
1011.44	0.190
1011.61	0.188
1011.77	0.187
1011.94	0.187
1012.10	0.187
1012.27	0.187
1012.43	0.188
1012.60	0.186
1012.76	0.187
1012.93	0.186
1013.10	0.185
1013.26	0.183
1013.43	0.185
1013.59	0.192
1013.76	0.184
1013.92	0.183
1014.09	0.181
1014.25	0.181
1014.42	0.182
1014.58	0.181
1014.75	0.182
1014.91	0.181
1015.08	0.182
1015.24	0.179
1015.41	0.181
1015.57	0.181
1015.73	0.180
1015.90	0.179
1016.06	0.181
1016.23	0.179
1016.39	0.179
1016.56	0.180
1016.72	0.179
1016.89	0.179
1017.05	0.181
1017.22	0.178
1017.38	0.177
1017.55	0.175
1017.71	0.177
1017.88	0.176
1018.04	0.177
1018.21	0.174
1018.37	0.174
1018.53	0.173
1018.70	0.171
1018.86	0.170
1019.03	0.172
1019.19	0.171
1019.36	0.172
1019.52	0.173
1019.69	0.173
1019.85	0.172
1020.01	0.172
1020.18	0.171
1020.34	0.171
1020.51	0.171
1020.67	0.172
1020.84	0.170
1021.00	0.170
1021.16	0.167
1021.33	0.167
1021.49	0.166
1021.66	0.166
1021.82	0.164
1021.98	0.165
1022.15	0.165
1022.31	0.165
1022.48	0.163
1022.64	0.165
1022.80	0.164
1022.97	0.162
1023.13	0.162
1023.30	0.162
1023.46	0.163
1023.62	0.160
1023.79	0.162
1023.95	0.162
1024.12	0.161
1024.28	0.160
1024.44	0.160
1024.61	0.158
1024.77	0.158
1024.93	0.157
1025.10	0.159
1025.26	0.158
1025.43	0.158
1025.59	0.154
1025.75	0.157
1025.92	0.156
1026.08	0.155
1026.24	0.154
1026.41	0.155
1026.57	0.155
1026.73	0.153
1026.90	0.155
1027.06	0.152
1027.23	0.154
1027.39	0.154
1027.55	0.154
1027.72	0.152
1027.88	0.152
1028.04	0.154
1028.21	0.153
1028.37	0.147
1028.53	0.152
1028.70	0.149
1028.86	0.147
1029.02	0.147
1029.19	0.148
1029.35	0.146
1029.51	0.147
1029.67	0.146
1029.84	0.147
1030.00	0.143
1030.16	0.144
1030.33	0.145
1030.49	0.142
1030.65	0.141
1030.82	0.157
1030.98	0.144
1031.14	0.144
1031.31	0.144
1031.47	0.142
1031.63	0.145
1031.79	0.144
1031.96	0.145
1032.12	0.145
1032.28	0.143
1032.45	0.147
1032.61	0.145
1032.77	0.144
1032.93	0.142
1033.10	0.144
1033.26	0.145
1033.42	0.143
1033.58	0.143
1033.75	0.144
1033.91	0.142
1034.07	0.144
1034.24	0.142
1034.40	0.140
1034.56	0.140
1034.72	0.140
1034.89	0.139
1035.05	0.138
1035.21	0.137
1035.37	0.136
1035.54	0.139
1035.70	0.138
1035.86	0.137
1036.02	0.139
1036.19	0.137
1036.35	0.134
1036.51	0.138
1036.67	0.137
1036.83	0.136
1037.00	0.136
1037.16	0.136
1037.32	0.137
1037.48	0.137
1037.65	0.141
1037.81	0.138
1037.97	0.138
1038.13	0.139
1038.29	0.137
1038.46	0.135
1038.62	0.139
1038.78	0.137
1038.94	0.134
1039.10	0.137
1039.27	0.132
1039.43	0.134
1039.59	0.133
1039.75	0.134
1039.91	0.132
1040.08	0.132
1040.24	0.134
1040.40	0.134
1040.56	0.132
1040.72	0.127
1040.89	0.129
1041.05	0.131
1041.21	0.129
1041.37	0.127
1041.53	0.132
1041.69	0.130
1041.86	0.130
1042.02	0.127
1042.18	0.127
1042.34	0.128
1042.50	0.132
1042.66	0.129
1042.83	0.129
1042.99	0.133
1043.15	0.129
1043.31	0.129
1043.47	0.132
1043.63	0.128
1043.79	0.129
1043.96	0.130
1044.12	0.134
1044.28	0.132
1044.44	0.134
1044.60	0.127
1044.76	0.125
1044.92	0.127
1045.09	0.128
1045.25	0.127
1045.41	0.128
1045.57	0.122
1045.73	0.123
1045.89	0.123
1046.05	0.124
1046.21	0.131
1046.38	0.118
1046.54	0.133
1046.70	0.124
1046.86	0.117
>>>>>End Processed Spectral Data<<<<<
