SpectraSuite Data File
++++++++++++++++++++++++++++++++++++
Date: Mon May 20 12:10:39 CDT 2013
User: Students
Dark Spectrum Present: Yes
Reference Spectrum Present: Yes
Number of Sampled Component Spectra: 1
Spectrometers: USB4H00887
Integration Time (usec): 60000 (USB4H00887)
Spectra Averaged: 5 (USB4H00887)
Boxcar Smoothing: 5 (USB4H00887)
Correct for Electrical Dark: No (USB4H00887)
Strobe/Lamp Enabled: No (USB4H00887)
Correct for Detector Non-linearity: No (USB4H00887)
Correct for Stray Light: No (USB4H00887)
Number of Pixels in Processed Spectrum: 3648
>>>>>Begin Processed Spectral Data<<<<<
345.83	-0.121
346.05	-0.121
346.26	-0.121
346.48	-0.000
346.70	0.673
346.92	0.074
347.14	0.055
347.35	0.041
347.57	0.259
347.79	-0.167
348.01	-0.134
348.23	-0.255
348.44	-0.000
348.66	0.354
348.88	-0.427
349.10	-0.199
349.32	0.115
349.53	-0.043
349.75	-0.089
349.97	-0.046
350.19	-0.035
350.41	-0.075
350.62	0.508
350.84	-0.030
351.06	-0.020
351.28	-0.035
351.50	-0.237
351.71	-0.153
351.93	-0.084
352.15	-0.002
352.37	-0.026
352.58	-0.002
352.80	0.011
353.02	0.032
353.24	0.050
353.46	0.159
353.67	-0.101
353.89	0.046
354.11	0.039
354.33	0.034
354.54	0.032
354.76	0.030
354.98	0.046
355.20	0.118
355.41	0.064
355.63	0.130
355.85	0.067
356.07	0.447
356.28	0.037
356.50	0.107
356.72	0.054
356.94	0.132
357.15	0.264
357.37	-0.000
357.59	0.091
357.81	0.054
358.02	0.116
358.24	0.088
358.46	0.226
358.68	0.254
358.89	0.100
359.11	-0.000
359.33	0.073
359.55	-0.524
359.76	0.102
359.98	0.144
360.20	0.151
360.42	0.113
360.63	0.119
360.85	0.082
361.07	0.461
361.29	0.089
361.50	0.280
361.72	0.096
361.94	0.389
362.15	0.164
362.37	0.081
362.59	0.072
362.81	0.116
363.02	0.193
363.24	0.332
363.46	0.205
363.68	0.262
363.89	0.177
364.11	0.272
364.33	0.323
364.54	0.203
364.76	0.258
364.98	0.262
365.20	0.305
365.41	0.185
365.63	0.200
365.85	0.131
366.06	0.382
366.28	0.389
366.50	0.222
366.71	0.097
366.93	0.133
367.15	0.133
367.37	0.142
367.58	0.180
367.80	0.191
368.02	0.499
368.23	0.156
368.45	0.160
368.67	0.144
368.88	0.143
369.10	-0.000
369.32	0.121
369.53	0.069
369.75	0.114
369.97	0.284
370.19	0.185
370.40	0.087
370.62	0.271
370.84	0.108
371.05	0.604
371.27	0.169
371.49	0.178
371.70	0.232
371.92	0.339
372.14	0.131
372.35	0.129
372.57	0.160
372.79	0.402
373.00	0.093
373.22	0.165
373.44	0.145
373.65	0.113
373.87	0.160
374.09	0.685
374.30	0.147
374.52	0.165
374.74	0.114
374.95	0.381
375.17	0.118
375.39	-0.000
375.60	0.145
375.82	0.304
376.04	0.119
376.25	0.151
376.47	0.097
376.68	0.218
376.90	0.119
377.12	0.248
377.33	0.147
377.55	0.363
377.77	0.159
377.98	0.200
378.20	0.115
378.42	0.145
378.63	0.173
378.85	-0.000
379.07	0.118
379.28	0.446
379.50	0.297
379.71	0.168
379.93	0.115
380.15	0.181
380.36	0.266
380.58	0.185
380.80	0.528
381.01	0.149
381.23	0.105
381.44	0.124
381.66	0.125
381.88	0.161
382.09	-0.072
382.31	0.112
382.53	0.109
382.74	0.503
382.96	0.152
383.17	0.127
383.39	0.172
383.61	0.237
383.82	0.161
384.04	0.197
384.25	0.228
384.47	0.218
384.69	0.205
384.90	0.189
385.12	0.424
385.33	0.272
385.55	0.221
385.77	0.360
385.98	0.187
386.20	0.287
386.41	0.258
386.63	0.305
386.85	0.243
387.06	0.307
387.28	0.500
387.49	0.294
387.71	0.218
387.93	0.182
388.14	0.578
388.36	0.217
388.57	0.184
388.79	0.204
389.01	1.551
389.22	0.253
389.44	0.221
389.65	0.183
389.87	0.178
390.08	0.206
390.30	0.165
390.52	0.285
390.73	0.313
390.95	0.207
391.16	0.207
391.38	-0.000
391.59	0.239
391.81	0.206
392.03	0.199
392.24	0.252
392.46	0.207
392.67	0.186
392.89	0.275
393.10	0.438
393.32	0.300
393.53	0.335
393.75	0.209
393.97	0.258
394.18	0.359
394.40	0.304
394.61	0.319
394.83	0.268
395.04	0.306
395.26	0.199
395.47	0.268
395.69	0.228
395.91	0.236
396.12	0.291
396.34	0.279
396.55	0.182
396.77	0.283
396.98	0.909
397.20	0.334
397.41	0.391
397.63	0.275
397.84	0.267
398.06	0.262
398.27	0.280
398.49	0.318
398.71	0.229
398.92	0.273
399.14	0.328
399.35	0.424
399.57	0.414
399.78	0.277
400.00	0.284
400.21	0.352
400.43	0.278
400.64	0.293
400.86	0.627
401.07	0.368
401.29	0.325
401.50	0.355
401.72	0.505
401.93	0.319
402.15	0.402
402.36	0.358
402.58	0.290
402.79	0.322
403.01	0.534
403.22	0.424
403.44	0.280
403.65	0.443
403.87	0.483
404.08	0.378
404.30	0.638
404.51	0.331
404.73	0.402
404.94	0.356
405.16	0.375
405.37	0.291
405.59	0.506
405.80	0.312
406.02	0.382
406.23	0.381
406.45	0.431
406.66	0.468
406.88	0.300
407.09	0.464
407.31	0.358
407.52	0.429
407.74	0.357
407.95	0.453
408.17	0.422
408.38	0.446
408.60	0.301
408.81	0.507
409.03	0.360
409.24	0.365
409.45	0.421
409.67	0.406
409.88	0.373
410.10	0.491
410.31	0.389
410.53	0.375
410.74	0.520
410.96	0.487
411.17	0.509
411.39	0.399
411.60	0.365
411.82	0.419
412.03	0.404
412.24	0.380
412.46	0.529
412.67	0.441
412.89	0.434
413.10	0.434
413.32	0.400
413.53	0.448
413.75	0.461
413.96	0.350
414.17	0.477
414.39	0.480
414.60	0.401
414.82	0.535
415.03	0.414
415.25	0.454
415.46	0.318
415.68	0.444
415.89	0.819
416.10	0.678
416.32	0.381
416.53	0.439
416.75	0.419
416.96	0.492
417.18	0.417
417.39	0.404
417.60	0.399
417.82	0.573
418.03	0.497
418.25	0.420
418.46	0.427
418.67	0.395
418.89	0.421
419.10	0.440
419.32	0.598
419.53	0.562
419.75	0.478
419.96	0.429
420.17	0.524
420.39	0.496
420.60	0.524
420.82	0.649
421.03	0.517
421.24	0.430
421.46	0.473
421.67	0.520
421.89	0.440
422.10	0.464
422.31	0.454
422.53	0.645
422.74	0.486
422.96	0.379
423.17	0.421
423.38	0.508
423.60	0.437
423.81	0.538
424.03	0.456
424.24	0.509
424.45	0.511
424.67	0.513
424.88	0.462
425.09	0.502
425.31	0.476
425.52	0.496
425.74	0.572
425.95	0.635
426.16	0.496
426.38	0.584
426.59	0.534
426.80	0.609
427.02	0.637
427.23	0.497
427.45	0.642
427.66	0.625
427.87	0.492
428.09	0.517
428.30	0.568
428.51	0.545
428.73	0.594
428.94	0.529
429.15	0.526
429.37	0.503
429.58	0.530
429.79	0.490
430.01	0.585
430.22	0.579
430.44	0.582
430.65	0.515
430.86	0.563
431.08	0.550
431.29	0.507
431.50	0.596
431.72	0.806
431.93	0.650
432.14	0.490
432.36	0.529
432.57	0.538
432.78	0.560
433.00	0.522
433.21	0.507
433.42	0.617
433.64	0.542
433.85	0.612
434.06	0.501
434.28	0.526
434.49	0.546
434.70	0.566
434.92	0.577
435.13	0.622
435.34	0.631
435.56	0.606
435.77	0.604
435.98	0.778
436.20	0.655
436.41	0.557
436.62	0.540
436.83	0.613
437.05	0.684
437.26	0.602
437.47	0.539
437.69	0.592
437.90	0.548
438.11	0.542
438.33	0.584
438.54	0.596
438.75	0.762
438.97	0.766
439.18	0.572
439.39	0.604
439.60	0.653
439.82	0.616
440.03	0.567
440.24	0.811
440.46	0.605
440.67	0.584
440.88	0.628
441.10	0.581
441.31	0.579
441.52	0.632
441.73	0.701
441.95	0.628
442.16	0.577
442.37	0.884
442.58	0.568
442.80	0.561
443.01	0.731
443.22	0.673
443.44	0.576
443.65	0.672
443.86	0.670
444.07	0.718
444.29	0.622
444.50	0.785
444.71	0.600
444.92	0.561
445.14	0.702
445.35	0.729
445.56	0.578
445.78	0.674
445.99	0.671
446.20	0.584
446.41	0.649
446.63	0.647
446.84	0.613
447.05	0.614
447.26	0.729
447.48	0.628
447.69	0.602
447.90	0.676
448.11	0.606
448.33	0.639
448.54	0.651
448.75	0.682
448.96	0.692
449.18	0.732
449.39	0.659
449.60	0.646
449.81	0.783
450.03	0.672
450.24	0.730
450.45	0.691
450.66	0.677
450.87	0.708
451.09	0.663
451.30	0.642
451.51	0.710
451.72	0.724
451.94	0.738
452.15	0.802
452.36	0.685
452.57	0.697
452.78	0.700
453.00	0.722
453.21	0.684
453.42	0.651
453.63	0.738
453.85	0.703
454.06	0.695
454.27	0.810
454.48	0.724
454.69	0.655
454.91	0.720
455.12	0.627
455.33	0.702
455.54	0.716
455.75	0.697
455.97	0.727
456.18	0.718
456.39	0.725
456.60	0.748
456.81	0.692
457.03	0.704
457.24	0.710
457.45	0.798
457.66	0.748
457.87	0.707
458.09	0.728
458.30	0.643
458.51	0.755
458.72	0.773
458.93	0.783
459.15	0.694
459.36	0.756
459.57	0.775
459.78	0.818
459.99	0.734
460.20	0.700
460.42	0.775
460.63	0.741
460.84	0.728
461.05	0.750
461.26	0.805
461.47	0.724
461.69	0.767
461.90	0.796
462.11	0.754
462.32	0.806
462.53	0.744
462.74	0.829
462.96	0.719
463.17	0.712
463.38	0.745
463.59	0.842
463.80	0.712
464.01	0.729
464.23	0.804
464.44	0.772
464.65	0.778
464.86	0.802
465.07	0.809
465.28	0.775
465.49	0.797
465.71	0.759
465.92	0.797
466.13	0.836
466.34	0.778
466.55	0.826
466.76	0.795
466.97	0.812
467.19	0.802
467.40	0.836
467.61	0.843
467.82	0.768
468.03	0.748
468.24	0.806
468.45	0.839
468.66	0.826
468.88	0.833
469.09	0.829
469.30	0.870
469.51	0.807
469.72	0.841
469.93	0.813
470.14	0.795
470.35	0.881
470.57	0.834
470.78	0.781
470.99	0.898
471.20	0.847
471.41	0.813
471.62	0.864
471.83	0.840
472.04	0.870
472.25	0.911
472.47	0.832
472.68	0.836
472.89	0.841
473.10	0.876
473.31	0.830
473.52	0.880
473.73	0.898
473.94	0.828
474.15	0.852
474.36	0.849
474.57	0.874
474.79	0.850
475.00	0.851
475.21	0.844
475.42	0.928
475.63	0.839
475.84	0.870
476.05	0.875
476.26	0.847
476.47	0.876
476.68	0.918
476.89	0.850
477.10	0.896
477.32	0.882
477.53	0.923
477.74	0.850
477.95	0.886
478.16	0.843
478.37	0.880
478.58	0.881
478.79	0.893
479.00	0.894
479.21	0.859
479.42	0.894
479.63	0.897
479.84	0.870
480.05	0.871
480.26	0.895
480.47	0.907
480.69	0.911
480.90	0.879
481.11	0.877
481.32	0.932
481.53	0.877
481.74	0.924
481.95	0.894
482.16	0.908
482.37	0.918
482.58	0.891
482.79	0.906
483.00	0.930
483.21	0.881
483.42	0.857
483.63	0.921
483.84	0.951
484.05	0.941
484.26	0.917
484.47	0.916
484.68	0.884
484.89	0.889
485.10	0.935
485.31	0.914
485.52	0.924
485.73	0.924
485.94	0.962
486.15	0.911
486.37	0.924
486.58	0.892
486.79	0.904
487.00	0.946
487.21	0.938
487.42	0.934
487.63	0.940
487.84	0.955
488.05	0.953
488.26	0.917
488.47	0.920
488.68	0.944
488.89	0.923
489.10	0.915
489.31	0.923
489.52	0.951
489.73	0.919
489.94	0.951
490.15	0.913
490.36	0.947
490.57	0.908
490.78	0.898
490.99	0.932
491.20	0.999
491.41	0.964
491.62	0.915
491.83	0.940
492.04	0.943
492.25	0.949
492.45	0.953
492.66	0.975
492.87	0.962
493.08	0.951
493.29	0.940
493.50	0.933
493.71	0.939
493.92	0.937
494.13	0.952
494.34	0.967
494.55	0.975
494.76	1.002
494.97	0.992
495.18	0.963
495.39	0.977
495.60	0.933
495.81	0.932
496.02	0.948
496.23	0.941
496.44	0.970
496.65	0.963
496.86	0.966
497.07	0.985
497.28	0.982
497.49	0.934
497.70	0.935
497.91	0.950
498.12	0.936
498.32	0.975
498.53	0.960
498.74	0.949
498.95	0.968
499.16	0.930
499.37	0.934
499.58	0.942
499.79	0.969
500.00	0.967
500.21	0.991
500.42	0.941
500.63	0.943
500.84	0.963
501.05	0.946
501.26	0.969
501.46	1.004
501.67	0.973
501.88	0.977
502.09	0.955
502.30	0.960
502.51	1.003
502.72	0.964
502.93	0.977
503.14	0.996
503.35	0.970
503.56	0.967
503.77	0.995
503.97	0.973
504.18	0.971
504.39	1.003
504.60	0.976
504.81	1.002
505.02	0.994
505.23	0.994
505.44	0.974
505.65	0.981
505.86	0.965
506.07	1.020
506.27	0.984
506.48	0.990
506.69	0.976
506.90	0.996
507.11	0.994
507.32	0.973
507.53	0.982
507.74	0.979
507.95	0.989
508.15	0.997
508.36	1.003
508.57	1.011
508.78	0.994
508.99	0.990
509.20	0.964
509.41	0.985
509.62	0.973
509.82	0.971
510.03	0.977
510.24	0.979
510.45	0.993
510.66	0.982
510.87	0.980
511.08	0.947
511.29	0.987
511.49	0.968
511.70	1.009
511.91	0.951
512.12	0.950
512.33	0.978
512.54	0.990
512.75	0.979
512.95	1.001
513.16	0.994
513.37	0.971
513.58	1.001
513.79	0.970
514.00	0.976
514.20	0.992
514.41	0.981
514.62	0.954
514.83	0.989
515.04	0.980
515.25	0.967
515.46	0.975
515.66	0.978
515.87	0.990
516.08	0.963
516.29	0.981
516.50	0.965
516.71	0.960
516.91	0.969
517.12	0.985
517.33	0.972
517.54	0.957
517.75	0.962
517.95	0.973
518.16	0.981
518.37	0.952
518.58	0.959
518.79	0.936
519.00	0.962
519.20	0.970
519.41	0.946
519.62	0.962
519.83	0.971
520.04	0.939
520.24	0.938
520.45	0.946
520.66	0.967
520.87	0.933
521.08	0.931
521.28	0.937
521.49	0.950
521.70	0.925
521.91	0.938
522.12	0.923
522.32	0.942
522.53	0.925
522.74	0.914
522.95	0.924
523.16	0.926
523.36	0.935
523.57	0.917
523.78	0.913
523.99	0.916
524.20	0.909
524.40	0.919
524.61	0.924
524.82	0.903
525.03	0.909
525.23	0.908
525.44	0.893
525.65	0.892
525.86	0.912
526.06	0.886
526.27	0.886
526.48	0.894
526.69	0.878
526.90	0.881
527.10	0.912
527.31	0.871
527.52	0.865
527.73	0.858
527.93	0.867
528.14	0.872
528.35	0.864
528.56	0.866
528.76	0.859
528.97	0.850
529.18	0.842
529.39	0.841
529.59	0.845
529.80	0.872
530.01	0.849
530.22	0.846
530.42	0.818
530.63	0.833
530.84	0.813
531.05	0.826
531.25	0.827
531.46	0.821
531.67	0.802
531.88	0.817
532.08	0.812
532.29	0.806
532.50	0.800
532.70	0.794
532.91	0.784
533.12	0.787
533.33	0.808
533.53	0.782
533.74	0.781
533.95	0.787
534.15	0.776
534.36	0.777
534.57	0.763
534.78	0.764
534.98	0.773
535.19	0.747
535.40	0.748
535.60	0.764
535.81	0.747
536.02	0.750
536.23	0.741
536.43	0.742
536.64	0.729
536.85	0.735
537.05	0.743
537.26	0.722
537.47	0.724
537.67	0.716
537.88	0.711
538.09	0.718
538.30	0.709
538.50	0.702
538.71	0.712
538.92	0.700
539.12	0.696
539.33	0.692
539.54	0.693
539.74	0.697
539.95	0.688
540.16	0.684
540.36	0.676
540.57	0.675
540.78	0.667
540.98	0.665
541.19	0.664
541.40	0.654
541.60	0.663
541.81	0.657
542.02	0.657
542.22	0.648
542.43	0.643
542.64	0.638
542.84	0.638
543.05	0.631
543.26	0.632
543.46	0.634
543.67	0.633
543.88	0.628
544.08	0.619
544.29	0.614
544.50	0.613
544.70	0.614
544.91	0.606
545.12	0.607
545.32	0.602
545.53	0.606
545.74	0.595
545.94	0.593
546.15	0.590
546.35	0.588
546.56	0.584
546.77	0.581
546.97	0.578
547.18	0.571
547.39	0.571
547.59	0.570
547.80	0.566
548.01	0.570
548.21	0.566
548.42	0.559
548.62	0.559
548.83	0.556
549.04	0.553
549.24	0.547
549.45	0.546
549.65	0.542
549.86	0.538
550.07	0.538
550.27	0.535
550.48	0.542
550.69	0.529
550.89	0.529
551.10	0.525
551.30	0.524
551.51	0.523
551.72	0.513
551.92	0.514
552.13	0.513
552.33	0.514
552.54	0.508
552.75	0.501
552.95	0.503
553.16	0.497
553.36	0.496
553.57	0.494
553.78	0.493
553.98	0.492
554.19	0.485
554.39	0.482
554.60	0.485
554.80	0.484
555.01	0.477
555.22	0.479
555.42	0.476
555.63	0.470
555.83	0.472
556.04	0.467
556.25	0.469
556.45	0.461
556.66	0.459
556.86	0.461
557.07	0.460
557.27	0.458
557.48	0.453
557.68	0.451
557.89	0.452
558.10	0.449
558.30	0.446
558.51	0.444
558.71	0.442
558.92	0.438
559.12	0.439
559.33	0.442
559.54	0.437
559.74	0.433
559.95	0.431
560.15	0.431
560.36	0.429
560.56	0.424
560.77	0.425
560.97	0.425
561.18	0.420
561.38	0.419
561.59	0.422
561.79	0.418
562.00	0.416
562.21	0.412
562.41	0.411
562.62	0.409
562.82	0.407
563.03	0.404
563.23	0.403
563.44	0.403
563.64	0.400
563.85	0.401
564.05	0.395
564.26	0.394
564.46	0.394
564.67	0.395
564.87	0.391
565.08	0.389
565.28	0.389
565.49	0.390
565.69	0.386
565.90	0.383
566.10	0.385
566.31	0.379
566.51	0.380
566.72	0.381
566.92	0.375
567.13	0.374
567.33	0.373
567.54	0.371
567.74	0.370
567.95	0.367
568.15	0.368
568.36	0.368
568.56	0.367
568.77	0.363
568.97	0.361
569.18	0.361
569.38	0.360
569.59	0.360
569.79	0.357
570.00	0.356
570.20	0.354
570.41	0.352
570.61	0.351
570.82	0.352
571.02	0.348
571.23	0.350
571.43	0.346
571.64	0.344
571.84	0.343
572.05	0.342
572.25	0.341
572.45	0.339
572.66	0.337
572.86	0.336
573.07	0.335
573.27	0.335
573.48	0.334
573.68	0.331
573.89	0.331
574.09	0.332
574.30	0.331
574.50	0.329
574.70	0.329
574.91	0.327
575.11	0.327
575.32	0.326
575.52	0.322
575.73	0.322
575.93	0.322
576.14	0.321
576.34	0.319
576.54	0.318
576.75	0.316
576.95	0.315
577.16	0.312
577.36	0.311
577.57	0.311
577.77	0.309
577.97	0.306
578.18	0.308
578.38	0.305
578.59	0.304
578.79	0.302
579.00	0.303
579.20	0.302
579.40	0.301
579.61	0.300
579.81	0.299
580.02	0.297
580.22	0.297
580.42	0.295
580.63	0.296
580.83	0.294
581.04	0.292
581.24	0.291
581.45	0.290
581.65	0.290
581.85	0.290
582.06	0.288
582.26	0.288
582.47	0.287
582.67	0.287
582.87	0.286
583.08	0.284
583.28	0.284
583.48	0.283
583.69	0.280
583.89	0.280
584.10	0.280
584.30	0.277
584.50	0.276
584.71	0.275
584.91	0.275
585.12	0.273
585.32	0.274
585.52	0.272
585.73	0.271
585.93	0.271
586.13	0.271
586.34	0.270
586.54	0.269
586.75	0.268
586.95	0.268
587.15	0.268
587.36	0.266
587.56	0.265
587.76	0.264
587.97	0.263
588.17	0.261
588.37	0.261
588.58	0.261
588.78	0.258
588.98	0.259
589.19	0.257
589.39	0.255
589.60	0.257
589.80	0.255
590.00	0.254
590.21	0.254
590.41	0.253
590.61	0.252
590.82	0.252
591.02	0.251
591.22	0.249
591.43	0.250
591.63	0.248
591.83	0.248
592.04	0.247
592.24	0.248
592.44	0.245
592.65	0.244
592.85	0.244
593.05	0.245
593.26	0.243
593.46	0.243
593.66	0.243
593.86	0.242
594.07	0.240
594.27	0.240
594.47	0.239
594.68	0.238
594.88	0.239
595.08	0.238
595.29	0.238
595.49	0.236
595.69	0.236
595.90	0.235
596.10	0.235
596.30	0.235
596.50	0.234
596.71	0.233
596.91	0.232
597.11	0.231
597.32	0.231
597.52	0.229
597.72	0.229
597.93	0.228
598.13	0.227
598.33	0.226
598.53	0.226
598.74	0.225
598.94	0.225
599.14	0.224
599.35	0.224
599.55	0.224
599.75	0.223
599.95	0.222
600.16	0.222
600.36	0.221
600.56	0.221
600.76	0.220
600.97	0.218
601.17	0.218
601.37	0.218
601.58	0.217
601.78	0.217
601.98	0.217
602.18	0.216
602.39	0.216
602.59	0.216
602.79	0.215
602.99	0.215
603.20	0.214
603.40	0.214
603.60	0.214
603.80	0.213
604.01	0.213
604.21	0.212
604.41	0.211
604.61	0.210
604.82	0.209
605.02	0.210
605.22	0.208
605.42	0.208
605.62	0.208
605.83	0.207
606.03	0.207
606.23	0.207
606.43	0.207
606.64	0.207
606.84	0.206
607.04	0.206
607.24	0.206
607.45	0.206
607.65	0.204
607.85	0.205
608.05	0.203
608.25	0.202
608.46	0.202
608.66	0.202
608.86	0.201
609.06	0.200
609.26	0.199
609.47	0.200
609.67	0.199
609.87	0.200
610.07	0.200
610.28	0.198
610.48	0.198
610.68	0.199
610.88	0.197
611.08	0.197
611.29	0.196
611.49	0.196
611.69	0.197
611.89	0.195
612.09	0.195
612.29	0.194
612.50	0.194
612.70	0.193
612.90	0.192
613.10	0.192
613.30	0.192
613.51	0.192
613.71	0.191
613.91	0.195
614.11	0.190
614.31	0.189
614.51	0.189
614.72	0.189
614.92	0.188
615.12	0.188
615.32	0.189
615.52	0.188
615.72	0.188
615.93	0.188
616.13	0.187
616.33	0.188
616.53	0.187
616.73	0.187
616.93	0.185
617.14	0.186
617.34	0.186
617.54	0.186
617.74	0.186
617.94	0.185
618.14	0.185
618.34	0.184
618.55	0.184
618.75	0.185
618.95	0.184
619.15	0.185
619.35	0.184
619.55	0.183
619.75	0.183
619.96	0.182
620.16	0.182
620.36	0.182
620.56	0.181
620.76	0.181
620.96	0.180
621.16	0.180
621.36	0.180
621.57	0.179
621.77	0.179
621.97	0.178
622.17	0.178
622.37	0.178
622.57	0.178
622.77	0.178
622.97	0.177
623.18	0.177
623.38	0.177
623.58	0.177
623.78	0.177
623.98	0.177
624.18	0.176
624.38	0.176
624.58	0.175
624.78	0.176
624.98	0.175
625.19	0.175
625.39	0.175
625.59	0.174
625.79	0.174
625.99	0.174
626.19	0.174
626.39	0.174
626.59	0.174
626.79	0.174
626.99	0.174
627.19	0.173
627.40	0.173
627.60	0.172
627.80	0.173
628.00	0.172
628.20	0.172
628.40	0.171
628.60	0.171
628.80	0.170
629.00	0.170
629.20	0.169
629.40	0.169
629.60	0.168
629.80	0.168
630.00	0.168
630.20	0.168
630.41	0.167
630.61	0.167
630.81	0.167
631.01	0.167
631.21	0.167
631.41	0.167
631.61	0.167
631.81	0.167
632.01	0.167
632.21	0.167
632.41	0.165
632.61	0.165
632.81	0.166
633.01	0.166
633.21	0.165
633.41	0.166
633.61	0.164
633.81	0.164
634.01	0.163
634.21	0.163
634.41	0.163
634.61	0.163
634.81	0.163
635.01	0.162
635.22	0.162
635.42	0.162
635.62	0.162
635.82	0.162
636.02	0.161
636.22	0.161
636.42	0.161
636.62	0.161
636.82	0.161
637.02	0.160
637.22	0.160
637.42	0.160
637.62	0.159
637.82	0.159
638.02	0.159
638.22	0.159
638.42	0.158
638.62	0.157
638.82	0.157
639.02	0.157
639.22	0.157
639.42	0.157
639.62	0.156
639.82	0.156
640.02	0.156
640.22	0.156
640.42	0.156
640.62	0.156
640.82	0.156
641.02	0.155
641.22	0.155
641.42	0.154
641.61	0.155
641.81	0.155
642.01	0.155
642.21	0.155
642.41	0.155
642.61	0.154
642.81	0.153
643.01	0.153
643.21	0.153
643.41	0.153
643.61	0.152
643.81	0.152
644.01	0.150
644.21	0.150
644.41	0.150
644.61	0.150
644.81	0.150
645.01	0.150
645.21	0.150
645.41	0.150
645.61	0.150
645.81	0.149
646.01	0.149
646.21	0.150
646.40	0.149
646.60	0.150
646.80	0.150
647.00	0.149
647.20	0.149
647.40	0.149
647.60	0.149
647.80	0.149
648.00	0.148
648.20	0.148
648.40	0.148
648.60	0.147
648.80	0.147
649.00	0.147
649.20	0.147
649.39	0.146
649.59	0.146
649.79	0.146
649.99	0.146
650.19	0.145
650.39	0.145
650.59	0.145
650.79	0.145
650.99	0.144
651.19	0.143
651.39	0.144
651.58	0.144
651.78	0.143
651.98	0.143
652.18	0.143
652.38	0.142
652.58	0.143
652.78	0.142
652.98	0.142
653.18	0.143
653.38	0.143
653.57	0.142
653.77	0.142
653.97	0.141
654.17	0.141
654.37	0.141
654.57	0.141
654.77	0.141
654.97	0.140
655.16	0.140
655.36	0.140
655.56	0.139
655.76	0.138
655.96	0.139
656.16	0.138
656.36	0.138
656.56	0.138
656.75	0.138
656.95	0.137
657.15	0.137
657.35	0.137
657.55	0.136
657.75	0.137
657.95	0.137
658.14	0.136
658.34	0.136
658.54	0.136
658.74	0.136
658.94	0.135
659.14	0.135
659.34	0.135
659.53	0.134
659.73	0.134
659.93	0.134
660.13	0.133
660.33	0.134
660.53	0.133
660.72	0.134
660.92	0.134
661.12	0.133
661.32	0.133
661.52	0.132
661.72	0.133
661.91	0.132
662.11	0.132
662.31	0.132
662.51	0.132
662.71	0.131
662.90	0.130
663.10	0.130
663.30	0.130
663.50	0.130
663.70	0.129
663.90	0.129
664.09	0.129
664.29	0.129
664.49	0.128
664.69	0.128
664.89	0.128
665.08	0.128
665.28	0.128
665.48	0.128
665.68	0.127
665.88	0.128
666.07	0.127
666.27	0.127
666.47	0.127
666.67	0.127
666.87	0.127
667.06	0.126
667.26	0.126
667.46	0.126
667.66	0.126
667.85	0.125
668.05	0.125
668.25	0.125
668.45	0.125
668.65	0.125
668.84	0.125
669.04	0.124
669.24	0.124
669.44	0.123
669.63	0.123
669.83	0.123
670.03	0.122
670.23	0.122
670.42	0.121
670.62	0.121
670.82	0.120
671.02	0.120
671.22	0.119
671.41	0.119
671.61	0.119
671.81	0.120
672.01	0.120
672.20	0.120
672.40	0.119
672.60	0.119
672.80	0.119
672.99	0.119
673.19	0.119
673.39	0.119
673.58	0.119
673.78	0.119
673.98	0.118
674.18	0.118
674.37	0.117
674.57	0.117
674.77	0.118
674.97	0.117
675.16	0.117
675.36	0.117
675.56	0.116
675.75	0.116
675.95	0.116
676.15	0.116
676.35	0.116
676.54	0.116
676.74	0.115
676.94	0.115
677.13	0.115
677.33	0.114
677.53	0.115
677.73	0.115
677.92	0.115
678.12	0.115
678.32	0.114
678.51	0.114
678.71	0.114
678.91	0.114
679.11	0.113
679.30	0.113
679.50	0.113
679.70	0.113
679.89	0.112
680.09	0.113
680.29	0.112
680.48	0.112
680.68	0.111
680.88	0.111
681.07	0.111
681.27	0.111
681.47	0.111
681.66	0.111
681.86	0.110
682.06	0.110
682.25	0.110
682.45	0.110
682.65	0.110
682.84	0.109
683.04	0.109
683.24	0.109
683.43	0.109
683.63	0.109
683.83	0.109
684.02	0.109
684.22	0.109
684.42	0.108
684.61	0.108
684.81	0.108
685.01	0.107
685.20	0.107
685.40	0.107
685.60	0.107
685.79	0.107
685.99	0.107
686.19	0.106
686.38	0.106
686.58	0.106
686.77	0.106
686.97	0.106
687.17	0.106
687.36	0.106
687.56	0.105
687.76	0.105
687.95	0.105
688.15	0.105
688.34	0.105
688.54	0.104
688.74	0.104
688.93	0.103
689.13	0.103
689.33	0.103
689.52	0.103
689.72	0.104
689.91	0.103
690.11	0.103
690.31	0.102
690.50	0.102
690.70	0.103
690.89	0.102
691.09	0.102
691.29	0.102
691.48	0.102
691.68	0.101
691.87	0.102
692.07	0.102
692.27	0.101
692.46	0.101
692.66	0.101
692.85	0.101
693.05	0.101
693.25	0.101
693.44	0.100
693.64	0.100
693.83	0.100
694.03	0.099
694.22	0.099
694.42	0.099
694.62	0.099
694.81	0.099
695.01	0.099
695.20	0.098
695.40	0.098
695.59	0.098
695.79	0.097
695.99	0.097
696.18	0.097
696.38	0.098
696.57	0.098
696.77	0.097
696.96	0.097
697.16	0.097
697.36	0.097
697.55	0.097
697.75	0.097
697.94	0.097
698.14	0.097
698.33	0.096
698.53	0.096
698.72	0.096
698.92	0.096
699.11	0.096
699.31	0.095
699.51	0.096
699.70	0.095
699.90	0.095
700.09	0.095
700.29	0.095
700.48	0.095
700.68	0.094
700.87	0.094
701.07	0.094
701.26	0.094
701.46	0.094
701.65	0.094
701.85	0.094
702.04	0.093
702.24	0.093
702.43	0.093
702.63	0.093
702.82	0.093
703.02	0.093
703.21	0.093
703.41	0.093
703.60	0.093
703.80	0.092
703.99	0.092
704.19	0.092
704.38	0.092
704.58	0.091
704.77	0.091
704.97	0.091
705.16	0.091
705.36	0.091
705.55	0.091
705.75	0.091
705.94	0.091
706.14	0.091
706.33	0.091
706.53	0.091
706.72	0.091
706.92	0.091
707.11	0.091
707.31	0.090
707.50	0.090
707.70	0.090
707.89	0.090
708.09	0.090
708.28	0.090
708.48	0.090
708.67	0.089
708.86	0.089
709.06	0.089
709.25	0.089
709.45	0.090
709.64	0.089
709.84	0.089
710.03	0.089
710.23	0.089
710.42	0.089
710.62	0.089
710.81	0.089
711.00	0.089
711.20	0.089
711.39	0.089
711.59	0.088
711.78	0.088
711.98	0.088
712.17	0.088
712.37	0.088
712.56	0.088
712.75	0.088
712.95	0.088
713.14	0.088
713.34	0.088
713.53	0.088
713.73	0.088
713.92	0.088
714.11	0.088
714.31	0.088
714.50	0.088
714.70	0.088
714.89	0.088
715.08	0.088
715.28	0.088
715.47	0.088
715.67	0.088
715.86	0.088
716.06	0.088
716.25	0.087
716.44	0.087
716.64	0.087
716.83	0.087
717.03	0.087
717.22	0.086
717.41	0.086
717.61	0.086
717.80	0.086
717.99	0.086
718.19	0.086
718.38	0.086
718.58	0.085
718.77	0.085
718.96	0.085
719.16	0.085
719.35	0.085
719.55	0.085
719.74	0.085
719.93	0.085
720.13	0.085
720.32	0.084
720.51	0.084
720.71	0.085
720.90	0.084
721.10	0.084
721.29	0.084
721.48	0.084
721.68	0.084
721.87	0.084
722.06	0.084
722.26	0.084
722.45	0.084
722.64	0.084
722.84	0.084
723.03	0.084
723.22	0.084
723.42	0.085
723.61	0.085
723.80	0.085
724.00	0.085
724.19	0.085
724.38	0.085
724.58	0.084
724.77	0.084
724.96	0.085
725.16	0.084
725.35	0.084
725.54	0.084
725.74	0.084
725.93	0.084
726.12	0.084
726.32	0.084
726.51	0.084
726.70	0.084
726.90	0.085
727.09	0.084
727.28	0.084
727.48	0.084
727.67	0.084
727.86	0.084
728.06	0.084
728.25	0.084
728.44	0.084
728.64	0.084
728.83	0.084
729.02	0.084
729.21	0.084
729.41	0.084
729.60	0.084
729.79	0.084
729.99	0.083
730.18	0.083
730.37	0.083
730.56	0.083
730.76	0.083
730.95	0.083
731.14	0.083
731.34	0.083
731.53	0.083
731.72	0.083
731.91	0.083
732.11	0.083
732.30	0.084
732.49	0.084
732.69	0.084
732.88	0.084
733.07	0.083
733.26	0.084
733.46	0.083
733.65	0.083
733.84	0.083
734.03	0.084
734.23	0.084
734.42	0.084
734.61	0.084
734.80	0.084
735.00	0.084
735.19	0.084
735.38	0.084
735.57	0.084
735.77	0.084
735.96	0.084
736.15	0.084
736.34	0.084
736.54	0.084
736.73	0.084
736.92	0.084
737.11	0.084
737.31	0.084
737.50	0.084
737.69	0.084
737.88	0.084
738.07	0.084
738.27	0.084
738.46	0.083
738.65	0.083
738.84	0.083
739.04	0.083
739.23	0.083
739.42	0.083
739.61	0.083
739.80	0.082
740.00	0.083
740.19	0.083
740.38	0.083
740.57	0.083
740.76	0.082
740.96	0.082
741.15	0.082
741.34	0.082
741.53	0.082
741.72	0.082
741.92	0.082
742.11	0.082
742.30	0.082
742.49	0.083
742.68	0.083
742.88	0.083
743.07	0.083
743.26	0.083
743.45	0.083
743.64	0.082
743.84	0.082
744.03	0.082
744.22	0.082
744.41	0.082
744.60	0.081
744.79	0.081
744.99	0.081
745.18	0.081
745.37	0.081
745.56	0.081
745.75	0.081
745.94	0.081
746.14	0.081
746.33	0.081
746.52	0.081
746.71	0.081
746.90	0.081
747.09	0.081
747.28	0.081
747.48	0.081
747.67	0.081
747.86	0.081
748.05	0.081
748.24	0.080
748.43	0.080
748.62	0.080
748.82	0.080
749.01	0.079
749.20	0.079
749.39	0.079
749.58	0.079
749.77	0.079
749.96	0.079
750.16	0.079
750.35	0.079
750.54	0.079
750.73	0.079
750.92	0.079
751.11	0.079
751.30	0.079
751.49	0.079
751.68	0.079
751.88	0.079
752.07	0.079
752.26	0.079
752.45	0.079
752.64	0.078
752.83	0.079
753.02	0.078
753.21	0.078
753.40	0.078
753.60	0.078
753.79	0.078
753.98	0.078
754.17	0.078
754.36	0.078
754.55	0.078
754.74	0.077
754.93	0.077
755.12	0.077
755.31	0.077
755.50	0.077
755.70	0.077
755.89	0.077
756.08	0.077
756.27	0.076
756.46	0.077
756.65	0.077
756.84	0.077
757.03	0.077
757.22	0.077
757.41	0.077
757.60	0.077
757.79	0.077
757.98	0.077
758.17	0.078
758.36	0.078
758.56	0.077
758.75	0.077
758.94	0.077
759.13	0.077
759.32	0.076
759.51	0.076
759.70	0.076
759.89	0.076
760.08	0.076
760.27	0.075
760.46	0.075
760.65	0.076
760.84	0.076
761.03	0.075
761.22	0.076
761.41	0.076
761.60	0.076
761.79	0.076
761.98	0.076
762.17	0.076
762.36	0.076
762.55	0.075
762.74	0.076
762.93	0.075
763.12	0.075
763.31	0.075
763.50	0.075
763.69	0.075
763.88	0.075
764.07	0.074
764.26	0.075
764.45	0.075
764.64	0.075
764.83	0.075
765.02	0.075
765.21	0.075
765.40	0.075
765.59	0.074
765.78	0.075
765.97	0.075
766.16	0.075
766.35	0.075
766.54	0.075
766.73	0.075
766.92	0.075
767.11	0.075
767.30	0.075
767.49	0.075
767.68	0.075
767.87	0.075
768.06	0.075
768.25	0.074
768.44	0.075
768.63	0.074
768.82	0.074
769.01	0.074
769.20	0.074
769.39	0.074
769.58	0.074
769.77	0.074
769.96	0.074
770.15	0.073
770.34	0.074
770.53	0.073
770.72	0.073
770.91	0.073
771.10	0.073
771.29	0.073
771.47	0.073
771.66	0.073
771.85	0.073
772.04	0.073
772.23	0.073
772.42	0.073
772.61	0.073
772.80	0.073
772.99	0.074
773.18	0.073
773.37	0.074
773.56	0.073
773.75	0.073
773.94	0.073
774.13	0.073
774.31	0.073
774.50	0.073
774.69	0.073
774.88	0.072
775.07	0.072
775.26	0.072
775.45	0.072
775.64	0.072
775.83	0.072
776.02	0.072
776.21	0.072
776.40	0.072
776.58	0.072
776.77	0.072
776.96	0.072
777.15	0.072
777.34	0.072
777.53	0.072
777.72	0.072
777.91	0.072
778.10	0.071
778.28	0.071
778.47	0.071
778.66	0.071
778.85	0.071
779.04	0.071
779.23	0.071
779.42	0.071
779.61	0.071
779.79	0.071
779.98	0.071
780.17	0.071
780.36	0.071
780.55	0.070
780.74	0.071
780.93	0.070
781.12	0.071
781.30	0.071
781.49	0.071
781.68	0.071
781.87	0.070
782.06	0.070
782.25	0.070
782.44	0.070
782.62	0.070
782.81	0.070
783.00	0.070
783.19	0.070
783.38	0.070
783.57	0.070
783.75	0.069
783.94	0.070
784.13	0.070
784.32	0.070
784.51	0.070
784.70	0.070
784.88	0.070
785.07	0.070
785.26	0.070
785.45	0.070
785.64	0.070
785.83	0.070
786.01	0.069
786.20	0.070
786.39	0.070
786.58	0.070
786.77	0.069
786.95	0.070
787.14	0.069
787.33	0.070
787.52	0.070
787.71	0.070
787.90	0.070
788.08	0.070
788.27	0.069
788.46	0.069
788.65	0.069
788.84	0.069
789.02	0.069
789.21	0.069
789.40	0.069
789.59	0.069
789.77	0.069
789.96	0.069
790.15	0.069
790.34	0.069
790.53	0.069
790.71	0.069
790.90	0.069
791.09	0.068
791.28	0.068
791.46	0.069
791.65	0.068
791.84	0.068
792.03	0.068
792.22	0.068
792.40	0.068
792.59	0.068
792.78	0.069
792.97	0.069
793.15	0.069
793.34	0.069
793.53	0.069
793.72	0.069
793.90	0.069
794.09	0.069
794.28	0.068
794.47	0.068
794.65	0.068
794.84	0.068
795.03	0.068
795.22	0.068
795.40	0.067
795.59	0.067
795.78	0.067
795.97	0.067
796.15	0.067
796.34	0.067
796.53	0.067
796.71	0.068
796.90	0.067
797.09	0.068
797.28	0.067
797.46	0.067
797.65	0.067
797.84	0.067
798.02	0.067
798.21	0.067
798.40	0.067
798.59	0.067
798.77	0.067
798.96	0.067
799.15	0.066
799.33	0.067
799.52	0.066
799.71	0.066
799.90	0.067
800.08	0.067
800.27	0.067
800.46	0.067
800.64	0.067
800.83	0.067
801.02	0.067
801.20	0.067
801.39	0.067
801.58	0.067
801.76	0.067
801.95	0.067
802.14	0.067
802.32	0.067
802.51	0.067
802.70	0.066
802.88	0.066
803.07	0.066
803.26	0.066
803.44	0.065
803.63	0.066
803.82	0.065
804.00	0.065
804.19	0.065
804.38	0.066
804.56	0.066
804.75	0.066
804.94	0.066
805.12	0.066
805.31	0.066
805.50	0.067
805.68	0.066
805.87	0.067
806.06	0.066
806.24	0.067
806.43	0.066
806.62	0.067
806.80	0.067
806.99	0.067
807.17	0.066
807.36	0.066
807.55	0.066
807.73	0.067
807.92	0.067
808.11	0.067
808.29	0.066
808.48	0.066
808.66	0.066
808.85	0.066
809.04	0.065
809.22	0.065
809.41	0.066
809.59	0.065
809.78	0.065
809.97	0.065
810.15	0.065
810.34	0.065
810.53	0.065
810.71	0.065
810.90	0.065
811.08	0.065
811.27	0.065
811.45	0.065
811.64	0.065
811.83	0.065
812.01	0.065
812.20	0.065
812.38	0.065
812.57	0.065
812.76	0.065
812.94	0.065
813.13	0.065
813.31	0.066
813.50	0.066
813.68	0.066
813.87	0.066
814.06	0.066
814.24	0.066
814.43	0.066
814.61	0.066
814.80	0.066
814.98	0.066
815.17	0.066
815.36	0.066
815.54	0.066
815.73	0.065
815.91	0.065
816.10	0.065
816.28	0.065
816.47	0.065
816.65	0.065
816.84	0.065
817.03	0.065
817.21	0.066
817.40	0.066
817.58	0.065
817.77	0.065
817.95	0.065
818.14	0.066
818.32	0.066
818.51	0.066
818.69	0.065
818.88	0.065
819.06	0.065
819.25	0.065
819.43	0.065
819.62	0.065
819.80	0.065
819.99	0.065
820.18	0.065
820.36	0.065
820.55	0.065
820.73	0.065
820.92	0.065
821.10	0.065
821.29	0.065
821.47	0.065
821.66	0.066
821.84	0.066
822.03	0.066
822.21	0.066
822.40	0.066
822.58	0.066
822.77	0.066
822.95	0.066
823.14	0.066
823.32	0.066
823.50	0.066
823.69	0.066
823.87	0.066
824.06	0.066
824.24	0.066
824.43	0.066
824.61	0.066
824.80	0.066
824.98	0.067
825.17	0.067
825.35	0.067
825.54	0.067
825.72	0.067
825.91	0.067
826.09	0.066
826.28	0.066
826.46	0.067
826.64	0.067
826.83	0.067
827.01	0.067
827.20	0.067
827.38	0.067
827.57	0.068
827.75	0.068
827.94	0.068
828.12	0.068
828.31	0.068
828.49	0.069
828.67	0.069
828.86	0.068
829.04	0.069
829.23	0.069
829.41	0.069
829.60	0.069
829.78	0.069
829.96	0.069
830.15	0.069
830.33	0.069
830.52	0.069
830.70	0.070
830.88	0.069
831.07	0.070
831.25	0.070
831.44	0.070
831.62	0.070
831.81	0.070
831.99	0.070
832.17	0.070
832.36	0.070
832.54	0.070
832.73	0.070
832.91	0.071
833.09	0.070
833.28	0.071
833.46	0.071
833.65	0.071
833.83	0.071
834.01	0.071
834.20	0.071
834.38	0.071
834.56	0.071
834.75	0.071
834.93	0.071
835.12	0.071
835.30	0.071
835.48	0.071
835.67	0.070
835.85	0.070
836.03	0.070
836.22	0.070
836.40	0.071
836.59	0.071
836.77	0.071
836.95	0.071
837.14	0.071
837.32	0.071
837.50	0.072
837.69	0.072
837.87	0.072
838.05	0.072
838.24	0.072
838.42	0.072
838.60	0.072
838.79	0.073
838.97	0.072
839.15	0.073
839.34	0.073
839.52	0.073
839.70	0.073
839.89	0.073
840.07	0.073
840.25	0.073
840.44	0.073
840.62	0.073
840.80	0.073
840.99	0.073
841.17	0.072
841.35	0.073
841.54	0.072
841.72	0.072
841.90	0.072
842.09	0.073
842.27	0.073
842.45	0.073
842.64	0.073
842.82	0.073
843.00	0.072
843.19	0.073
843.37	0.072
843.55	0.073
843.73	0.073
843.92	0.072
844.10	0.072
844.28	0.073
844.47	0.073
844.65	0.073
844.83	0.073
845.01	0.073
845.20	0.073
845.38	0.073
845.56	0.073
845.75	0.073
845.93	0.073
846.11	0.073
846.29	0.073
846.48	0.073
846.66	0.073
846.84	0.073
847.02	0.072
847.21	0.072
847.39	0.073
847.57	0.072
847.76	0.073
847.94	0.073
848.12	0.073
848.30	0.073
848.49	0.073
848.67	0.073
848.85	0.073
849.03	0.074
849.22	0.074
849.40	0.074
849.58	0.074
849.76	0.074
849.95	0.074
850.13	0.074
850.31	0.074
850.49	0.074
850.67	0.074
850.86	0.074
851.04	0.074
851.22	0.073
851.40	0.073
851.59	0.073
851.77	0.073
851.95	0.073
852.13	0.073
852.31	0.073
852.50	0.074
852.68	0.074
852.86	0.074
853.04	0.074
853.23	0.074
853.41	0.074
853.59	0.074
853.77	0.074
853.95	0.074
854.14	0.074
854.32	0.074
854.50	0.074
854.68	0.074
854.86	0.074
855.04	0.074
855.23	0.074
855.41	0.075
855.59	0.075
855.77	0.075
855.95	0.075
856.14	0.074
856.32	0.075
856.50	0.074
856.68	0.074
856.86	0.074
857.04	0.074
857.23	0.074
857.41	0.074
857.59	0.074
857.77	0.074
857.95	0.074
858.13	0.074
858.32	0.074
858.50	0.074
858.68	0.074
858.86	0.074
859.04	0.074
859.22	0.074
859.41	0.074
859.59	0.074
859.77	0.074
859.95	0.074
860.13	0.074
860.31	0.074
860.49	0.074
860.68	0.074
860.86	0.074
861.04	0.074
861.22	0.074
861.40	0.074
861.58	0.074
861.76	0.074
861.94	0.074
862.13	0.074
862.31	0.074
862.49	0.074
862.67	0.074
862.85	0.074
863.03	0.075
863.21	0.075
863.39	0.075
863.57	0.075
863.76	0.075
863.94	0.075
864.12	0.075
864.30	0.075
864.48	0.075
864.66	0.075
864.84	0.075
865.02	0.075
865.20	0.075
865.38	0.075
865.57	0.075
865.75	0.076
865.93	0.076
866.11	0.076
866.29	0.076
866.47	0.076
866.65	0.076
866.83	0.076
867.01	0.076
867.19	0.076
867.37	0.075
867.55	0.076
867.73	0.076
867.92	0.075
868.10	0.076
868.28	0.075
868.46	0.075
868.64	0.075
868.82	0.076
869.00	0.076
869.18	0.076
869.36	0.075
869.54	0.076
869.72	0.076
869.90	0.076
870.08	0.076
870.26	0.076
870.44	0.076
870.62	0.076
870.80	0.076
870.98	0.076
871.16	0.076
871.34	0.076
871.53	0.076
871.71	0.076
871.89	0.076
872.07	0.076
872.25	0.076
872.43	0.076
872.61	0.077
872.79	0.077
872.97	0.077
873.15	0.077
873.33	0.077
873.51	0.078
873.69	0.078
873.87	0.077
874.05	0.078
874.23	0.077
874.41	0.077
874.59	0.078
874.77	0.077
874.95	0.077
875.13	0.077
875.31	0.077
875.49	0.077
875.67	0.077
875.85	0.077
876.03	0.077
876.21	0.078
876.39	0.078
876.57	0.078
876.75	0.079
876.93	0.078
877.11	0.078
877.29	0.078
877.47	0.078
877.65	0.078
877.82	0.079
878.00	0.078
878.18	0.079
878.36	0.078
878.54	0.078
878.72	0.078
878.90	0.078
879.08	0.078
879.26	0.078
879.44	0.079
879.62	0.078
879.80	0.078
879.98	0.078
880.16	0.078
880.34	0.078
880.52	0.078
880.70	0.078
880.88	0.078
881.06	0.078
881.24	0.078
881.42	0.078
881.59	0.078
881.77	0.078
881.95	0.078
882.13	0.078
882.31	0.078
882.49	0.078
882.67	0.079
882.85	0.079
883.03	0.079
883.21	0.079
883.39	0.079
883.57	0.079
883.75	0.079
883.92	0.079
884.10	0.079
884.28	0.079
884.46	0.079
884.64	0.079
884.82	0.079
885.00	0.079
885.18	0.080
885.36	0.080
885.54	0.080
885.71	0.080
885.89	0.080
886.07	0.080
886.25	0.080
886.43	0.081
886.61	0.080
886.79	0.080
886.97	0.080
887.15	0.080
887.32	0.080
887.50	0.080
887.68	0.079
887.86	0.079
888.04	0.080
888.22	0.079
888.40	0.079
888.57	0.080
888.75	0.080
888.93	0.080
889.11	0.080
889.29	0.081
889.47	0.081
889.65	0.081
889.82	0.081
890.00	0.081
890.18	0.081
890.36	0.081
890.54	0.081
890.72	0.081
890.90	0.081
891.07	0.081
891.25	0.081
891.43	0.080
891.61	0.081
891.79	0.081
891.97	0.081
892.14	0.081
892.32	0.081
892.50	0.081
892.68	0.081
892.86	0.081
893.03	0.081
893.21	0.081
893.39	0.081
893.57	0.081
893.75	0.081
893.93	0.081
894.10	0.081
894.28	0.081
894.46	0.081
894.64	0.081
894.82	0.081
894.99	0.081
895.17	0.081
895.35	0.081
895.53	0.081
895.71	0.080
895.88	0.081
896.06	0.081
896.24	0.081
896.42	0.081
896.59	0.081
896.77	0.081
896.95	0.081
897.13	0.081
897.31	0.081
897.48	0.081
897.66	0.082
897.84	0.081
898.02	0.082
898.19	0.082
898.37	0.082
898.55	0.082
898.73	0.082
898.91	0.083
899.08	0.083
899.26	0.083
899.44	0.083
899.62	0.083
899.79	0.084
899.97	0.084
900.15	0.083
900.33	0.083
900.50	0.083
900.68	0.083
900.86	0.083
901.04	0.083
901.21	0.083
901.39	0.083
901.57	0.083
901.74	0.083
901.92	0.083
902.10	0.084
902.28	0.084
902.45	0.084
902.63	0.084
902.81	0.083
902.99	0.084
903.16	0.084
903.34	0.084
903.52	0.084
903.69	0.084
903.87	0.084
904.05	0.084
904.22	0.085
904.40	0.085
904.58	0.085
904.76	0.085
904.93	0.085
905.11	0.085
905.29	0.085
905.46	0.085
905.64	0.085
905.82	0.085
905.99	0.085
906.17	0.085
906.35	0.085
906.53	0.085
906.70	0.085
906.88	0.085
907.06	0.086
907.23	0.086
907.41	0.086
907.59	0.086
907.76	0.086
907.94	0.086
908.12	0.086
908.29	0.086
908.47	0.086
908.65	0.086
908.82	0.086
909.00	0.086
909.18	0.086
909.35	0.086
909.53	0.086
909.71	0.086
909.88	0.086
910.06	0.086
910.23	0.086
910.41	0.086
910.59	0.086
910.76	0.086
910.94	0.086
911.12	0.086
911.29	0.086
911.47	0.086
911.65	0.087
911.82	0.087
912.00	0.087
912.17	0.087
912.35	0.088
912.53	0.088
912.70	0.088
912.88	0.088
913.06	0.089
913.23	0.089
913.41	0.088
913.58	0.089
913.76	0.088
913.94	0.088
914.11	0.089
914.29	0.089
914.46	0.089
914.64	0.089
914.82	0.089
914.99	0.089
915.17	0.089
915.34	0.089
915.52	0.090
915.70	0.090
915.87	0.090
916.05	0.090
916.22	0.090
916.40	0.089
916.57	0.090
916.75	0.090
916.93	0.090
917.10	0.090
917.28	0.090
917.45	0.090
917.63	0.090
917.80	0.091
917.98	0.091
918.16	0.091
918.33	0.092
918.51	0.092
918.68	0.092
918.86	0.093
919.03	0.092
919.21	0.093
919.39	0.093
919.56	0.093
919.74	0.093
919.91	0.093
920.09	0.093
920.26	0.093
920.44	0.093
920.61	0.093
920.79	0.094
920.96	0.093
921.14	0.094
921.31	0.094
921.49	0.094
921.67	0.094
921.84	0.095
922.02	0.095
922.19	0.095
922.37	0.095
922.54	0.095
922.72	0.095
922.89	0.096
923.07	0.096
923.24	0.097
923.42	0.097
923.59	0.097
923.77	0.097
923.94	0.098
924.12	0.098
924.29	0.099
924.47	0.099
924.64	0.099
924.82	0.099
924.99	0.100
925.17	0.100
925.34	0.100
925.52	0.100
925.69	0.101
925.87	0.101
926.04	0.101
926.22	0.101
926.39	0.101
926.57	0.102
926.74	0.102
926.91	0.103
927.09	0.103
927.26	0.104
927.44	0.104
927.61	0.105
927.79	0.105
927.96	0.106
928.14	0.106
928.31	0.106
928.49	0.106
928.66	0.106
928.84	0.107
929.01	0.107
929.18	0.108
929.36	0.108
929.53	0.109
929.71	0.109
929.88	0.109
930.06	0.109
930.23	0.110
930.41	0.110
930.58	0.111
930.75	0.111
930.93	0.112
931.10	0.112
931.28	0.113
931.45	0.113
931.63	0.113
931.80	0.113
931.97	0.114
932.15	0.115
932.32	0.115
932.50	0.115
932.67	0.116
932.84	0.116
933.02	0.117
933.19	0.117
933.37	0.118
933.54	0.118
933.71	0.119
933.89	0.120
934.06	0.120
934.24	0.120
934.41	0.120
934.58	0.121
934.76	0.121
934.93	0.122
935.11	0.122
935.28	0.122
935.45	0.123
935.63	0.123
935.80	0.124
935.98	0.124
936.15	0.124
936.32	0.125
936.50	0.126
936.67	0.126
936.84	0.126
937.02	0.127
937.19	0.128
937.36	0.129
937.54	0.129
937.71	0.130
937.89	0.130
938.06	0.130
938.23	0.131
938.41	0.132
938.58	0.132
938.75	0.133
938.93	0.133
939.10	0.134
939.27	0.134
939.45	0.135
939.62	0.135
939.79	0.136
939.97	0.137
940.14	0.137
940.31	0.138
940.49	0.138
940.66	0.139
940.83	0.140
941.01	0.140
941.18	0.141
941.35	0.142
941.53	0.142
941.70	0.143
941.87	0.143
942.05	0.144
942.22	0.144
942.39	0.145
942.57	0.145
942.74	0.146
942.91	0.146
943.08	0.147
943.26	0.148
943.43	0.148
943.60	0.149
943.78	0.150
943.95	0.151
944.12	0.151
944.29	0.152
944.47	0.153
944.64	0.154
944.81	0.155
944.99	0.155
945.16	0.156
945.33	0.156
945.50	0.157
945.68	0.158
945.85	0.158
946.02	0.160
946.20	0.161
946.37	0.161
946.54	0.162
946.71	0.163
946.89	0.163
947.06	0.164
947.23	0.165
947.40	0.167
947.58	0.167
947.75	0.168
947.92	0.169
948.09	0.169
948.27	0.171
948.44	0.172
948.61	0.173
948.78	0.174
948.96	0.175
949.13	0.175
949.30	0.176
949.47	0.177
949.65	0.179
949.82	0.181
949.99	0.181
950.16	0.183
950.33	0.184
950.51	0.185
950.68	0.187
950.85	0.188
951.02	0.190
951.20	0.190
951.37	0.192
951.54	0.192
951.71	0.193
951.88	0.194
952.06	0.195
952.23	0.196
952.40	0.197
952.57	0.198
952.74	0.200
952.92	0.201
953.09	0.203
953.26	0.204
953.43	0.205
953.60	0.206
953.77	0.207
953.95	0.208
954.12	0.210
954.29	0.210
954.46	0.213
954.63	0.213
954.81	0.214
954.98	0.215
955.15	0.217
955.32	0.219
955.49	0.219
955.66	0.220
955.84	0.222
956.01	0.222
956.18	0.225
956.35	0.226
956.52	0.227
956.69	0.228
956.87	0.228
957.04	0.229
957.21	0.231
957.38	0.231
957.55	0.232
957.72	0.233
957.89	0.233
958.07	0.233
958.24	0.235
958.41	0.237
958.58	0.237
958.75	0.238
958.92	0.239
959.09	0.239
959.26	0.240
959.44	0.240
959.61	0.242
959.78	0.243
959.95	0.244
960.12	0.244
960.29	0.246
960.46	0.245
960.63	0.246
960.81	0.246
960.98	0.247
961.15	0.248
961.32	0.248
961.49	0.248
961.66	0.249
961.83	0.249
962.00	0.249
962.17	0.250
962.34	0.250
962.52	0.251
962.69	0.252
962.86	0.251
963.03	0.252
963.20	0.253
963.37	0.252
963.54	0.253
963.71	0.253
963.88	0.253
964.05	0.254
964.22	0.256
964.39	0.254
964.56	0.254
964.74	0.255
964.91	0.255
965.08	0.255
965.25	0.256
965.42	0.256
965.59	0.257
965.76	0.256
965.93	0.258
966.10	0.256
966.27	0.257
966.44	0.257
966.61	0.258
966.78	0.258
966.95	0.257
967.12	0.258
967.29	0.260
967.46	0.259
967.63	0.258
967.80	0.259
967.97	0.259
968.14	0.258
968.32	0.259
968.49	0.260
968.66	0.259
968.83	0.259
969.00	0.260
969.17	0.259
969.34	0.261
969.51	0.261
969.68	0.260
969.85	0.261
970.02	0.261
970.19	0.261
970.36	0.262
970.53	0.262
970.70	0.261
970.87	0.261
971.04	0.261
971.21	0.262
971.38	0.261
971.55	0.261
971.72	0.261
971.89	0.262
972.06	0.261
972.23	0.261
972.40	0.261
972.57	0.260
972.74	0.261
972.91	0.262
973.07	0.261
973.24	0.262
973.41	0.262
973.58	0.260
973.75	0.272
973.92	0.261
974.09	0.260
974.26	0.260
974.43	0.259
974.60	0.260
974.77	0.261
974.94	0.260
975.11	0.260
975.28	0.261
975.45	0.259
975.62	0.261
975.79	0.262
975.96	0.260
976.13	0.260
976.30	0.261
976.47	0.260
976.64	0.260
976.80	0.261
976.97	0.260
977.14	0.260
977.31	0.261
977.48	0.261
977.65	0.260
977.82	0.259
977.99	0.261
978.16	0.260
978.33	0.259
978.50	0.258
978.67	0.258
978.83	0.258
979.00	0.259
979.17	0.258
979.34	0.258
979.51	0.257
979.68	0.258
979.85	0.257
980.02	0.258
980.19	0.256
980.36	0.257
980.52	0.259
980.69	0.257
980.86	0.257
981.03	0.257
981.20	0.255
981.37	0.256
981.54	0.256
981.71	0.255
981.88	0.256
982.04	0.256
982.21	0.255
982.38	0.256
982.55	0.255
982.72	0.254
982.89	0.255
983.06	0.254
983.22	0.254
983.39	0.254
983.56	0.254
983.73	0.253
983.90	0.253
984.07	0.255
984.24	0.253
984.40	0.253
984.57	0.251
984.74	0.253
984.91	0.254
985.08	0.251
985.25	0.250
985.41	0.251
985.58	0.250
985.75	0.252
985.92	0.250
986.09	0.249
986.26	0.249
986.42	0.249
986.59	0.247
986.76	0.249
986.93	0.250
987.10	0.249
987.27	0.247
987.43	0.245
987.60	0.247
987.77	0.247
987.94	0.245
988.11	0.247
988.27	0.247
988.44	0.246
988.61	0.245
988.78	0.243
988.95	0.244
989.11	0.245
989.28	0.244
989.45	0.243
989.62	0.243
989.79	0.243
989.95	0.242
990.12	0.243
990.29	0.243
990.46	0.241
990.62	0.240
990.79	0.241
990.96	0.240
991.13	0.240
991.30	0.239
991.46	0.238
991.63	0.236
991.80	0.236
991.97	0.235
992.13	0.235
992.30	0.236
992.47	0.235
992.64	0.234
992.80	0.235
992.97	0.236
993.14	0.233
993.31	0.230
993.47	0.233
993.64	0.231
993.81	0.231
993.98	0.231
994.14	0.230
994.31	0.229
994.48	0.230
994.64	0.229
994.81	0.227
994.98	0.228
995.15	0.226
995.31	0.227
995.48	0.226
995.65	0.228
995.82	0.226
995.98	0.226
996.15	0.227
996.32	0.229
996.48	0.227
996.65	0.227
996.82	0.225
996.99	0.225
997.15	0.225
997.32	0.226
997.49	0.224
997.65	0.225
997.82	0.224
997.99	0.222
998.15	0.222
998.32	0.223
998.49	0.221
998.65	0.221
998.82	0.220
998.99	0.218
999.15	0.218
999.32	0.217
999.49	0.217
999.65	0.217
999.82	0.215
999.99	0.215
1000.15	0.216
1000.32	0.216
1000.49	0.216
1000.65	0.214
1000.82	0.214
1000.99	0.215
1001.15	0.215
1001.32	0.214
1001.49	0.214
1001.65	0.214
1001.82	0.216
1001.99	0.213
1002.15	0.212
1002.32	0.212
1002.49	0.214
1002.65	0.212
1002.82	0.209
1002.99	0.209
1003.15	0.211
1003.32	0.210
1003.48	0.210
1003.65	0.210
1003.82	0.209
1003.98	0.207
1004.15	0.206
1004.32	0.207
1004.48	0.208
1004.65	0.209
1004.81	0.207
1004.98	0.206
1005.15	0.206
1005.31	0.206
1005.48	0.203
1005.64	0.203
1005.81	0.205
1005.98	0.201
1006.14	0.201
1006.31	0.201
1006.47	0.199
1006.64	0.197
1006.81	0.197
1006.97	0.197
1007.14	0.196
1007.30	0.198
1007.47	0.197
1007.63	0.195
1007.80	0.194
1007.97	0.194
1008.13	0.194
1008.30	0.194
1008.46	0.195
1008.63	0.193
1008.79	0.194
1008.96	0.194
1009.13	0.195
1009.29	0.193
1009.46	0.193
1009.62	0.193
1009.79	0.191
1009.95	0.191
1010.12	0.191
1010.28	0.192
1010.45	0.192
1010.62	0.191
1010.78	0.190
1010.95	0.189
1011.11	0.190
1011.28	0.189
1011.44	0.191
1011.61	0.189
1011.77	0.188
1011.94	0.188
1012.10	0.188
1012.27	0.187
1012.43	0.187
1012.60	0.186
1012.76	0.186
1012.93	0.186
1013.10	0.184
1013.26	0.181
1013.43	0.182
1013.59	0.190
1013.76	0.182
1013.92	0.181
1014.09	0.181
1014.25	0.182
1014.42	0.182
1014.58	0.181
1014.75	0.182
1014.91	0.180
1015.08	0.183
1015.24	0.180
1015.41	0.181
1015.57	0.181
1015.73	0.179
1015.90	0.177
1016.06	0.180
1016.23	0.178
1016.39	0.178
1016.56	0.179
1016.72	0.179
1016.89	0.179
1017.05	0.180
1017.22	0.177
1017.38	0.177
1017.55	0.175
1017.71	0.176
1017.88	0.175
1018.04	0.175
1018.21	0.173
1018.37	0.174
1018.53	0.174
1018.70	0.171
1018.86	0.171
1019.03	0.173
1019.19	0.171
1019.36	0.170
1019.52	0.171
1019.69	0.172
1019.85	0.171
1020.01	0.171
1020.18	0.169
1020.34	0.169
1020.51	0.168
1020.67	0.169
1020.84	0.168
1021.00	0.169
1021.16	0.166
1021.33	0.167
1021.49	0.165
1021.66	0.166
1021.82	0.164
1021.98	0.164
1022.15	0.164
1022.31	0.164
1022.48	0.164
1022.64	0.165
1022.80	0.164
1022.97	0.162
1023.13	0.162
1023.30	0.163
1023.46	0.164
1023.62	0.162
1023.79	0.163
1023.95	0.164
1024.12	0.163
1024.28	0.161
1024.44	0.162
1024.61	0.161
1024.77	0.161
1024.93	0.160
1025.10	0.162
1025.26	0.158
1025.43	0.159
1025.59	0.154
1025.75	0.158
1025.92	0.157
1026.08	0.155
1026.24	0.154
1026.41	0.155
1026.57	0.153
1026.73	0.151
1026.90	0.153
1027.06	0.152
1027.23	0.153
1027.39	0.154
1027.55	0.154
1027.72	0.152
1027.88	0.153
1028.04	0.153
1028.21	0.154
1028.37	0.149
1028.53	0.154
1028.70	0.152
1028.86	0.149
1029.02	0.149
1029.19	0.149
1029.35	0.147
1029.51	0.148
1029.67	0.147
1029.84	0.148
1030.00	0.143
1030.16	0.143
1030.33	0.145
1030.49	0.142
1030.65	0.141
1030.82	0.156
1030.98	0.144
1031.14	0.144
1031.31	0.144
1031.47	0.141
1031.63	0.144
1031.79	0.142
1031.96	0.144
1032.12	0.145
1032.28	0.142
1032.45	0.147
1032.61	0.145
1032.77	0.143
1032.93	0.141
1033.10	0.141
1033.26	0.144
1033.42	0.142
1033.58	0.143
1033.75	0.144
1033.91	0.143
1034.07	0.146
1034.24	0.143
1034.40	0.141
1034.56	0.141
1034.72	0.141
1034.89	0.141
1035.05	0.139
1035.21	0.138
1035.37	0.138
1035.54	0.140
1035.70	0.138
1035.86	0.138
1036.02	0.139
1036.19	0.138
1036.35	0.137
1036.51	0.141
1036.67	0.139
1036.83	0.137
1037.00	0.136
1037.16	0.136
1037.32	0.136
1037.48	0.135
1037.65	0.139
1037.81	0.135
1037.97	0.136
1038.13	0.136
1038.29	0.134
1038.46	0.132
1038.62	0.137
1038.78	0.135
1038.94	0.132
1039.10	0.136
1039.27	0.132
1039.43	0.133
1039.59	0.133
1039.75	0.131
1039.91	0.129
1040.08	0.129
1040.24	0.131
1040.40	0.133
1040.56	0.132
1040.72	0.127
1040.89	0.129
1041.05	0.131
1041.21	0.129
1041.37	0.127
1041.53	0.133
1041.69	0.132
1041.86	0.132
1042.02	0.129
1042.18	0.128
1042.34	0.130
1042.50	0.134
1042.66	0.131
1042.83	0.129
1042.99	0.131
1043.15	0.126
1043.31	0.125
1043.47	0.129
1043.63	0.125
1043.79	0.125
1043.96	0.127
1044.12	0.131
1044.28	0.127
1044.44	0.130
1044.60	0.126
1044.76	0.125
1044.92	0.127
1045.09	0.129
1045.25	0.126
1045.41	0.126
1045.57	0.121
1045.73	0.120
1045.89	0.121
1046.05	0.122
1046.21	0.118
1046.38	0.120
1046.54	0.124
1046.70	0.123
1046.86	0.119
>>>>>End Processed Spectral Data<<<<<
