SpectraSuite Data File
++++++++++++++++++++++++++++++++++++
Date: Mon May 20 12:13:08 CDT 2013
User: Students
Dark Spectrum Present: Yes
Reference Spectrum Present: Yes
Number of Sampled Component Spectra: 1
Spectrometers: USB4H00887
Integration Time (usec): 60000 (USB4H00887)
Spectra Averaged: 5 (USB4H00887)
Boxcar Smoothing: 5 (USB4H00887)
Correct for Electrical Dark: No (USB4H00887)
Strobe/Lamp Enabled: No (USB4H00887)
Correct for Detector Non-linearity: No (USB4H00887)
Correct for Stray Light: No (USB4H00887)
Number of Pixels in Processed Spectrum: 3648
>>>>>Begin Processed Spectral Data<<<<<
345.83	0.357
346.05	0.357
346.26	0.357
346.48	-0.286
346.70	0.477
346.92	-0.081
347.14	-0.011
347.35	-0.008
347.57	-0.075
347.79	0.093
348.01	0.003
348.23	-0.017
348.44	0.107
348.66	0.027
348.88	0.044
349.10	0.213
349.32	-0.073
349.53	0.088
349.75	0.129
349.97	0.058
350.19	0.073
350.41	0.074
350.62	-0.161
350.84	-0.000
351.06	-0.004
351.28	-0.046
351.50	-0.173
351.71	-0.158
351.93	-0.062
352.15	-0.005
352.37	-0.063
352.58	-0.006
352.80	-0.009
353.02	0.008
353.24	0.043
353.46	0.254
353.67	-0.134
353.89	0.051
354.11	0.056
354.33	0.074
354.54	0.121
354.76	0.248
354.98	0.429
355.20	0.406
355.41	0.147
355.63	0.338
355.85	0.147
356.07	-0.000
356.28	0.143
356.50	0.275
356.72	0.094
356.94	0.283
357.15	0.437
357.37	-0.000
357.59	0.188
357.81	0.105
358.02	0.117
358.24	0.091
358.46	0.176
358.68	0.178
358.89	0.087
359.11	-0.000
359.33	0.084
359.55	-0.564
359.76	0.118
359.98	0.130
360.20	0.141
360.42	0.140
360.63	0.140
360.85	0.086
361.07	0.263
361.29	0.073
361.50	0.229
361.72	0.093
361.94	0.311
362.15	0.144
362.37	0.082
362.59	0.102
362.81	0.163
363.02	0.285
363.24	0.463
363.46	0.269
363.68	0.326
363.89	0.194
364.11	0.279
364.33	0.331
364.54	0.179
364.76	0.230
364.98	0.224
365.20	0.262
365.41	0.155
365.63	0.193
365.85	0.136
366.06	0.425
366.28	0.448
366.50	0.285
366.71	0.113
366.93	0.157
367.15	0.108
367.37	0.101
367.58	0.126
367.80	0.151
368.02	0.352
368.23	0.125
368.45	0.124
368.67	0.102
368.88	0.097
369.10	-0.000
369.32	0.133
369.53	0.095
369.75	0.137
369.97	0.328
370.19	0.193
370.40	0.093
370.62	0.250
370.84	0.092
371.05	0.495
371.27	0.139
371.49	0.149
371.70	0.170
371.92	0.261
372.14	0.133
372.35	0.143
372.57	0.165
372.79	0.439
373.00	0.108
373.22	0.216
373.44	0.197
373.65	0.128
373.87	0.178
374.09	1.167
374.30	0.144
374.52	0.160
374.74	0.121
374.95	0.523
375.17	0.133
375.39	-0.000
375.60	0.127
375.82	0.212
376.04	0.105
376.25	0.108
376.47	0.063
376.68	0.145
376.90	0.080
377.12	0.153
377.33	0.106
377.55	0.254
377.77	0.107
377.98	0.180
378.20	0.119
378.42	0.154
378.63	0.209
378.85	-0.000
379.07	0.170
379.28	0.726
379.50	0.385
379.71	0.194
379.93	0.141
380.15	0.199
380.36	0.296
380.58	0.192
380.80	0.428
381.01	0.129
381.23	0.097
381.44	0.102
381.66	0.115
381.88	0.140
382.09	-0.067
382.31	0.096
382.53	0.095
382.74	0.489
382.96	0.167
383.17	0.151
383.39	0.203
383.61	0.288
383.82	0.198
384.04	0.253
384.25	0.334
384.47	0.313
384.69	0.299
384.90	0.283
385.12	0.615
385.33	0.343
385.55	0.248
385.77	0.400
385.98	0.197
386.20	0.269
386.41	0.220
386.63	0.230
386.85	0.188
387.06	0.220
387.28	0.343
387.49	0.232
387.71	0.176
387.93	0.157
388.14	0.394
388.36	0.170
388.57	0.153
388.79	0.178
389.01	1.050
389.22	0.264
389.44	0.242
389.65	0.203
389.87	0.210
390.08	0.253
390.30	0.194
390.52	0.419
390.73	0.410
390.95	0.288
391.16	0.271
391.38	-0.000
391.59	0.290
391.81	0.233
392.03	0.211
392.24	0.234
392.46	0.184
392.67	0.162
392.89	0.234
393.10	0.363
393.32	0.249
393.53	0.292
393.75	0.177
393.97	0.204
394.18	0.290
394.40	0.270
394.61	0.277
394.83	0.260
395.04	0.328
395.26	0.213
395.47	0.313
395.69	0.267
395.91	0.288
396.12	0.382
396.34	0.374
396.55	0.236
396.77	0.356
396.98	-0.000
397.20	0.408
397.41	0.447
397.63	0.309
397.84	0.287
398.06	0.270
398.27	0.273
398.49	0.300
398.71	0.223
398.92	0.273
399.14	0.331
399.35	0.423
399.57	0.414
399.78	0.275
400.00	0.277
400.21	0.334
400.43	0.267
400.64	0.282
400.86	0.668
401.07	0.354
401.29	0.299
401.50	0.327
401.72	0.505
401.93	0.324
402.15	0.406
402.36	0.355
402.58	0.294
402.79	0.327
403.01	0.559
403.22	0.393
403.44	0.270
403.65	0.453
403.87	0.511
404.08	0.382
404.30	0.630
404.51	0.335
404.73	0.407
404.94	0.361
405.16	0.368
405.37	0.289
405.59	0.547
405.80	0.331
406.02	0.407
406.23	0.408
406.45	0.455
406.66	0.450
406.88	0.298
407.09	0.458
407.31	0.364
407.52	0.438
407.74	0.347
407.95	0.432
408.17	0.410
408.38	0.418
408.60	0.276
408.81	0.459
409.03	0.361
409.24	0.367
409.45	0.434
409.67	0.408
409.88	0.377
410.10	0.501
410.31	0.396
410.53	0.378
410.74	0.559
410.96	0.528
411.17	0.568
411.39	0.428
411.60	0.390
411.82	0.445
412.03	0.422
412.24	0.398
412.46	0.581
412.67	0.481
412.89	0.477
413.10	0.469
413.32	0.437
413.53	0.489
413.75	0.505
413.96	0.375
414.17	0.498
414.39	0.514
414.60	0.426
414.82	0.562
415.03	0.427
415.25	0.486
415.46	0.338
415.68	0.480
415.89	0.922
416.10	0.736
416.32	0.396
416.53	0.475
416.75	0.449
416.96	0.547
417.18	0.461
417.39	0.440
417.60	0.433
417.82	0.620
418.03	0.545
418.25	0.456
418.46	0.472
418.67	0.432
418.89	0.465
419.10	0.491
419.32	0.664
419.53	0.604
419.75	0.515
419.96	0.446
420.17	0.555
420.39	0.512
420.60	0.532
420.82	0.670
421.03	0.531
421.24	0.447
421.46	0.496
421.67	0.531
421.89	0.458
422.10	0.491
422.31	0.489
422.53	0.704
422.74	0.508
422.96	0.407
423.17	0.449
423.38	0.544
423.60	0.454
423.81	0.558
424.03	0.491
424.24	0.555
424.45	0.551
424.67	0.543
424.88	0.474
425.09	0.520
425.31	0.478
425.52	0.508
425.74	0.577
425.95	0.629
426.16	0.486
426.38	0.568
426.59	0.514
426.80	0.587
427.02	0.628
427.23	0.501
427.45	0.666
427.66	0.650
427.87	0.499
428.09	0.537
428.30	0.590
428.51	0.584
428.73	0.623
428.94	0.557
429.15	0.555
429.37	0.526
429.58	0.547
429.79	0.495
430.01	0.602
430.22	0.594
430.44	0.604
430.65	0.552
430.86	0.588
431.08	0.579
431.29	0.527
431.50	0.626
431.72	0.838
431.93	0.684
432.14	0.514
432.36	0.566
432.57	0.580
432.78	0.602
433.00	0.553
433.21	0.543
433.42	0.680
433.64	0.590
433.85	0.657
434.06	0.534
434.28	0.561
434.49	0.579
434.70	0.582
434.92	0.586
435.13	0.629
435.34	0.633
435.56	0.606
435.77	0.606
435.98	0.779
436.20	0.663
436.41	0.574
436.62	0.563
436.83	0.638
437.05	0.734
437.26	0.648
437.47	0.572
437.69	0.628
437.90	0.571
438.11	0.561
438.33	0.612
438.54	0.629
438.75	0.792
438.97	0.789
439.18	0.593
439.39	0.611
439.60	0.664
439.82	0.619
440.03	0.569
440.24	0.845
440.46	0.628
440.67	0.609
440.88	0.653
441.10	0.617
441.31	0.605
441.52	0.666
441.73	0.755
441.95	0.661
442.16	0.613
442.37	0.979
442.58	0.592
442.80	0.574
443.01	0.741
443.22	0.677
443.44	0.576
443.65	0.683
443.86	0.676
444.07	0.717
444.29	0.623
444.50	0.792
444.71	0.602
444.92	0.569
445.14	0.722
445.35	0.761
445.56	0.597
445.78	0.699
445.99	0.701
446.20	0.603
446.41	0.686
446.63	0.684
446.84	0.647
447.05	0.654
447.26	0.778
447.48	0.666
447.69	0.636
447.90	0.729
448.11	0.646
448.33	0.669
448.54	0.683
448.75	0.710
448.96	0.719
449.18	0.755
449.39	0.673
449.60	0.658
449.81	0.792
450.03	0.681
450.24	0.739
450.45	0.700
450.66	0.683
450.87	0.723
451.09	0.678
451.30	0.662
451.51	0.739
451.72	0.747
451.94	0.774
452.15	0.851
452.36	0.711
452.57	0.723
452.78	0.723
453.00	0.764
453.21	0.712
453.42	0.686
453.63	0.781
453.85	0.742
454.06	0.739
454.27	0.865
454.48	0.769
454.69	0.693
454.91	0.766
455.12	0.672
455.33	0.747
455.54	0.768
455.75	0.738
455.97	0.769
456.18	0.756
456.39	0.759
456.60	0.785
456.81	0.722
457.03	0.732
457.24	0.735
457.45	0.821
457.66	0.765
457.87	0.718
458.09	0.736
458.30	0.651
458.51	0.773
458.72	0.798
458.93	0.809
459.15	0.712
459.36	0.770
459.57	0.787
459.78	0.829
459.99	0.748
460.20	0.711
460.42	0.789
460.63	0.748
460.84	0.733
461.05	0.754
461.26	0.816
461.47	0.732
461.69	0.789
461.90	0.824
462.11	0.784
462.32	0.838
462.53	0.774
462.74	0.866
462.96	0.757
463.17	0.745
463.38	0.785
463.59	0.890
463.80	0.746
464.01	0.768
464.23	0.853
464.44	0.813
464.65	0.819
464.86	0.846
465.07	0.853
465.28	0.807
465.49	0.829
465.71	0.779
465.92	0.816
466.13	0.861
466.34	0.796
466.55	0.849
466.76	0.810
466.97	0.834
467.19	0.825
467.40	0.860
467.61	0.868
467.82	0.791
468.03	0.775
468.24	0.842
468.45	0.875
468.66	0.860
468.88	0.869
469.09	0.872
469.30	0.920
469.51	0.844
469.72	0.890
469.93	0.863
470.14	0.842
470.35	0.942
470.57	0.888
470.78	0.828
470.99	0.954
471.20	0.893
471.41	0.849
471.62	0.898
471.83	0.871
472.04	0.900
472.25	0.938
472.47	0.856
472.68	0.856
472.89	0.865
473.10	0.906
473.31	0.859
473.52	0.913
473.73	0.932
473.94	0.854
474.15	0.880
474.36	0.876
474.57	0.902
474.79	0.873
475.00	0.872
475.21	0.857
475.42	0.941
475.63	0.850
475.84	0.880
476.05	0.886
476.26	0.861
476.47	0.889
476.68	0.934
476.89	0.871
477.10	0.923
477.32	0.914
477.53	0.965
477.74	0.887
477.95	0.928
478.16	0.880
478.37	0.923
478.58	0.928
478.79	0.946
479.00	0.946
479.21	0.902
479.42	0.940
479.63	0.945
479.84	0.910
480.05	0.911
480.26	0.941
480.47	0.958
480.69	0.963
480.90	0.928
481.11	0.924
481.32	0.984
481.53	0.923
481.74	0.978
481.95	0.942
482.16	0.960
482.37	0.967
482.58	0.931
482.79	0.950
483.00	0.976
483.21	0.920
483.42	0.894
483.63	0.967
483.84	0.993
484.05	0.980
484.26	0.952
484.47	0.946
484.68	0.908
484.89	0.914
485.10	0.961
485.31	0.941
485.52	0.944
485.73	0.945
485.94	0.985
486.15	0.936
486.37	0.950
486.58	0.918
486.79	0.930
487.00	0.982
487.21	0.972
487.42	0.967
487.63	0.972
487.84	0.992
488.05	0.985
488.26	0.945
488.47	0.952
488.68	0.983
488.89	0.959
489.10	0.957
489.31	0.964
489.52	0.995
489.73	0.966
489.94	1.000
490.15	0.959
490.36	1.000
490.57	0.957
490.78	0.940
490.99	0.974
491.20	1.050
491.41	1.002
491.62	0.949
491.83	0.978
492.04	0.971
492.25	0.978
492.45	0.980
492.66	1.003
492.87	0.990
493.08	0.978
493.29	0.966
493.50	0.956
493.71	0.965
493.92	0.963
494.13	0.976
494.34	0.995
494.55	1.003
494.76	1.028
494.97	1.020
495.18	0.987
495.39	1.004
495.60	0.954
495.81	0.958
496.02	0.977
496.23	0.971
496.44	1.004
496.65	0.995
496.86	0.998
497.07	1.027
497.28	1.022
497.49	0.972
497.70	0.975
497.91	0.994
498.12	0.975
498.32	1.016
498.53	0.997
498.74	0.987
498.95	1.011
499.16	0.972
499.37	0.975
499.58	0.985
499.79	1.014
500.00	1.012
500.21	1.039
500.42	0.987
500.63	0.988
500.84	1.009
501.05	0.989
501.26	1.017
501.46	1.054
501.67	1.016
501.88	1.017
502.09	0.992
502.30	0.999
502.51	1.046
502.72	1.002
502.93	1.016
503.14	1.038
503.35	1.010
503.56	1.003
503.77	1.031
503.97	1.008
504.18	1.007
504.39	1.040
504.60	1.007
504.81	1.033
505.02	1.022
505.23	1.023
505.44	1.006
505.65	1.013
505.86	0.995
506.07	1.058
506.27	1.019
506.48	1.024
506.69	1.009
506.90	1.030
507.11	1.030
507.32	1.006
507.53	1.016
507.74	1.008
507.95	1.020
508.15	1.026
508.36	1.031
508.57	1.043
508.78	1.027
508.99	1.028
509.20	1.005
509.41	1.028
509.62	1.016
509.82	1.014
510.03	1.023
510.24	1.023
510.45	1.043
510.66	1.034
510.87	1.028
511.08	0.989
511.29	1.029
511.49	1.007
511.70	1.053
511.91	0.990
512.12	0.987
512.33	1.019
512.54	1.035
512.75	1.021
512.95	1.046
513.16	1.038
513.37	1.017
513.58	1.056
513.79	1.019
514.00	1.021
514.20	1.038
514.41	1.026
514.62	0.996
514.83	1.037
515.04	1.028
515.25	1.007
515.46	1.019
515.66	1.021
515.87	1.031
516.08	1.001
516.29	1.026
516.50	1.009
516.71	1.004
516.91	1.011
517.12	1.024
517.33	1.009
517.54	0.997
517.75	0.999
517.95	1.008
518.16	1.018
518.37	0.989
518.58	0.994
518.79	0.969
519.00	0.998
519.20	1.009
519.41	0.984
519.62	1.002
519.83	1.013
520.04	0.981
520.24	0.979
520.45	0.988
520.66	1.011
520.87	0.976
521.08	0.974
521.28	0.978
521.49	0.993
521.70	0.963
521.91	0.978
522.12	0.961
522.32	0.981
522.53	0.963
522.74	0.952
522.95	0.961
523.16	0.963
523.36	0.971
523.57	0.954
523.78	0.949
523.99	0.956
524.20	0.948
524.40	0.960
524.61	0.967
524.82	0.943
525.03	0.948
525.23	0.949
525.44	0.932
525.65	0.932
525.86	0.953
526.06	0.924
526.27	0.924
526.48	0.930
526.69	0.911
526.90	0.915
527.10	0.949
527.31	0.906
527.52	0.899
527.73	0.892
527.93	0.902
528.14	0.907
528.35	0.899
528.56	0.900
528.76	0.894
528.97	0.886
529.18	0.878
529.39	0.878
529.59	0.881
529.80	0.911
530.01	0.885
530.22	0.883
530.42	0.853
530.63	0.869
530.84	0.846
531.05	0.860
531.25	0.862
531.46	0.854
531.67	0.833
531.88	0.850
532.08	0.843
532.29	0.840
532.50	0.832
532.70	0.825
532.91	0.816
533.12	0.820
533.33	0.844
533.53	0.816
533.74	0.816
533.95	0.822
534.15	0.812
534.36	0.813
534.57	0.796
534.78	0.797
534.98	0.808
535.19	0.780
535.40	0.780
535.60	0.798
535.81	0.777
536.02	0.780
536.23	0.771
536.43	0.772
536.64	0.760
536.85	0.768
537.05	0.777
537.26	0.754
537.47	0.757
537.67	0.747
537.88	0.742
538.09	0.751
538.30	0.741
538.50	0.733
538.71	0.744
538.92	0.731
539.12	0.726
539.33	0.721
539.54	0.722
539.74	0.726
539.95	0.716
540.16	0.712
540.36	0.703
540.57	0.702
540.78	0.694
540.98	0.693
541.19	0.691
541.40	0.680
541.60	0.690
541.81	0.685
542.02	0.686
542.22	0.676
542.43	0.672
542.64	0.668
542.84	0.668
543.05	0.660
543.26	0.661
543.46	0.664
543.67	0.663
543.88	0.659
544.08	0.649
544.29	0.643
544.50	0.643
544.70	0.644
544.91	0.635
545.12	0.636
545.32	0.632
545.53	0.636
545.74	0.624
545.94	0.621
546.15	0.619
546.35	0.616
546.56	0.613
546.77	0.611
546.97	0.609
547.18	0.601
547.39	0.601
547.59	0.599
547.80	0.595
548.01	0.599
548.21	0.595
548.42	0.587
548.62	0.585
548.83	0.582
549.04	0.579
549.24	0.572
549.45	0.570
549.65	0.567
549.86	0.562
550.07	0.562
550.27	0.560
550.48	0.567
550.69	0.553
550.89	0.553
551.10	0.550
551.30	0.548
551.51	0.547
551.72	0.537
551.92	0.539
552.13	0.539
552.33	0.540
552.54	0.534
552.75	0.528
552.95	0.529
553.16	0.524
553.36	0.522
553.57	0.520
553.78	0.518
553.98	0.518
554.19	0.509
554.39	0.506
554.60	0.509
554.80	0.509
555.01	0.501
555.22	0.502
555.42	0.499
555.63	0.493
555.83	0.496
556.04	0.490
556.25	0.493
556.45	0.484
556.66	0.482
556.86	0.486
557.07	0.483
557.27	0.482
557.48	0.477
557.68	0.474
557.89	0.475
558.10	0.472
558.30	0.469
558.51	0.467
558.71	0.464
558.92	0.459
559.12	0.461
559.33	0.464
559.54	0.459
559.74	0.455
559.95	0.453
560.15	0.452
560.36	0.450
560.56	0.444
560.77	0.445
560.97	0.445
561.18	0.440
561.38	0.439
561.59	0.442
561.79	0.437
562.00	0.435
562.21	0.432
562.41	0.431
562.62	0.430
562.82	0.428
563.03	0.424
563.23	0.423
563.44	0.423
563.64	0.420
563.85	0.421
564.05	0.415
564.26	0.414
564.46	0.413
564.67	0.413
564.87	0.409
565.08	0.406
565.28	0.405
565.49	0.406
565.69	0.404
565.90	0.401
566.10	0.403
566.31	0.396
566.51	0.398
566.72	0.399
566.92	0.394
567.13	0.393
567.33	0.391
567.54	0.390
567.74	0.388
567.95	0.384
568.15	0.385
568.36	0.385
568.56	0.384
568.77	0.379
568.97	0.378
569.18	0.377
569.38	0.376
569.59	0.377
569.79	0.375
570.00	0.373
570.20	0.372
570.41	0.370
570.61	0.368
570.82	0.369
571.02	0.365
571.23	0.367
571.43	0.363
571.64	0.362
571.84	0.361
572.05	0.359
572.25	0.358
572.45	0.356
572.66	0.353
572.86	0.352
573.07	0.350
573.27	0.350
573.48	0.349
573.68	0.345
573.89	0.344
574.09	0.345
574.30	0.343
574.50	0.341
574.70	0.342
574.91	0.339
575.11	0.340
575.32	0.339
575.52	0.335
575.73	0.334
575.93	0.334
576.14	0.333
576.34	0.332
576.54	0.331
576.75	0.329
576.95	0.328
577.16	0.327
577.36	0.325
577.57	0.325
577.77	0.323
577.97	0.321
578.18	0.322
578.38	0.319
578.59	0.317
578.79	0.315
579.00	0.316
579.20	0.314
579.40	0.313
579.61	0.312
579.81	0.311
580.02	0.309
580.22	0.308
580.42	0.307
580.63	0.308
580.83	0.307
581.04	0.304
581.24	0.303
581.45	0.302
581.65	0.302
581.85	0.301
582.06	0.299
582.26	0.299
582.47	0.297
582.67	0.297
582.87	0.296
583.08	0.294
583.28	0.295
583.48	0.293
583.69	0.290
583.89	0.290
584.10	0.292
584.30	0.289
584.50	0.287
584.71	0.286
584.91	0.286
585.12	0.284
585.32	0.285
585.52	0.282
585.73	0.281
585.93	0.280
586.13	0.279
586.34	0.278
586.54	0.278
586.75	0.277
586.95	0.276
587.15	0.276
587.36	0.275
587.56	0.274
587.76	0.273
587.97	0.272
588.17	0.271
588.37	0.271
588.58	0.271
588.78	0.267
588.98	0.268
589.19	0.267
589.39	0.265
589.60	0.267
589.80	0.264
590.00	0.263
590.21	0.263
590.41	0.262
590.61	0.261
590.82	0.260
591.02	0.260
591.22	0.258
591.43	0.259
591.63	0.257
591.83	0.257
592.04	0.255
592.24	0.255
592.44	0.253
592.65	0.252
592.85	0.252
593.05	0.252
593.26	0.250
593.46	0.250
593.66	0.250
593.86	0.249
594.07	0.247
594.27	0.247
594.47	0.246
594.68	0.245
594.88	0.246
595.08	0.245
595.29	0.246
595.49	0.243
595.69	0.243
595.90	0.241
596.10	0.242
596.30	0.241
596.50	0.240
596.71	0.240
596.91	0.238
597.11	0.238
597.32	0.237
597.52	0.236
597.72	0.236
597.93	0.236
598.13	0.234
598.33	0.234
598.53	0.233
598.74	0.233
598.94	0.232
599.14	0.232
599.35	0.232
599.55	0.231
599.75	0.230
599.95	0.230
600.16	0.230
600.36	0.228
600.56	0.228
600.76	0.227
600.97	0.226
601.17	0.226
601.37	0.226
601.58	0.224
601.78	0.225
601.98	0.224
602.18	0.223
602.39	0.223
602.59	0.224
602.79	0.223
602.99	0.222
603.20	0.221
603.40	0.221
603.60	0.221
603.80	0.220
604.01	0.220
604.21	0.219
604.41	0.218
604.61	0.216
604.82	0.215
605.02	0.216
605.22	0.215
605.42	0.215
605.62	0.214
605.83	0.213
606.03	0.212
606.23	0.213
606.43	0.212
606.64	0.212
606.84	0.211
607.04	0.211
607.24	0.211
607.45	0.211
607.65	0.209
607.85	0.210
608.05	0.209
608.25	0.208
608.46	0.207
608.66	0.207
608.86	0.206
609.06	0.205
609.26	0.204
609.47	0.205
609.67	0.203
609.87	0.205
610.07	0.203
610.28	0.202
610.48	0.202
610.68	0.202
610.88	0.201
611.08	0.202
611.29	0.200
611.49	0.200
611.69	0.201
611.89	0.198
612.09	0.198
612.29	0.198
612.50	0.198
612.70	0.197
612.90	0.197
613.10	0.196
613.30	0.195
613.51	0.196
613.71	0.195
613.91	0.200
614.11	0.195
614.31	0.194
614.51	0.194
614.72	0.193
614.92	0.193
615.12	0.193
615.32	0.193
615.52	0.193
615.72	0.194
615.93	0.194
616.13	0.193
616.33	0.193
616.53	0.193
616.73	0.193
616.93	0.192
617.14	0.192
617.34	0.191
617.54	0.191
617.74	0.191
617.94	0.190
618.14	0.189
618.34	0.188
618.55	0.188
618.75	0.188
618.95	0.188
619.15	0.188
619.35	0.187
619.55	0.186
619.75	0.188
619.96	0.186
620.16	0.187
620.36	0.187
620.56	0.186
620.76	0.186
620.96	0.186
621.16	0.186
621.36	0.185
621.57	0.185
621.77	0.186
621.97	0.184
622.17	0.184
622.37	0.184
622.57	0.184
622.77	0.183
622.97	0.182
623.18	0.182
623.38	0.182
623.58	0.182
623.78	0.181
623.98	0.181
624.18	0.180
624.38	0.179
624.58	0.179
624.78	0.180
624.98	0.180
625.19	0.179
625.39	0.179
625.59	0.179
625.79	0.179
625.99	0.178
626.19	0.178
626.39	0.178
626.59	0.178
626.79	0.178
626.99	0.177
627.19	0.177
627.40	0.178
627.60	0.177
627.80	0.177
628.00	0.177
628.20	0.176
628.40	0.176
628.60	0.176
628.80	0.174
629.00	0.175
629.20	0.174
629.40	0.174
629.60	0.172
629.80	0.173
630.00	0.172
630.20	0.172
630.41	0.171
630.61	0.171
630.81	0.171
631.01	0.172
631.21	0.171
631.41	0.171
631.61	0.171
631.81	0.171
632.01	0.171
632.21	0.171
632.41	0.170
632.61	0.169
632.81	0.170
633.01	0.170
633.21	0.170
633.41	0.170
633.61	0.169
633.81	0.169
634.01	0.168
634.21	0.168
634.41	0.167
634.61	0.168
634.81	0.167
635.01	0.167
635.22	0.167
635.42	0.167
635.62	0.166
635.82	0.167
636.02	0.166
636.22	0.165
636.42	0.165
636.62	0.165
636.82	0.165
637.02	0.164
637.22	0.164
637.42	0.164
637.62	0.163
637.82	0.163
638.02	0.162
638.22	0.162
638.42	0.162
638.62	0.162
638.82	0.162
639.02	0.162
639.22	0.161
639.42	0.161
639.62	0.161
639.82	0.160
640.02	0.160
640.22	0.161
640.42	0.160
640.62	0.161
640.82	0.160
641.02	0.160
641.22	0.160
641.42	0.159
641.61	0.159
641.81	0.159
642.01	0.159
642.21	0.159
642.41	0.159
642.61	0.159
642.81	0.158
643.01	0.158
643.21	0.158
643.41	0.158
643.61	0.158
643.81	0.157
644.01	0.156
644.21	0.156
644.41	0.156
644.61	0.156
644.81	0.156
645.01	0.155
645.21	0.155
645.41	0.155
645.61	0.154
645.81	0.154
646.01	0.154
646.21	0.154
646.40	0.154
646.60	0.154
646.80	0.155
647.00	0.154
647.20	0.153
647.40	0.153
647.60	0.153
647.80	0.153
648.00	0.153
648.20	0.153
648.40	0.152
648.60	0.152
648.80	0.152
649.00	0.152
649.20	0.152
649.39	0.152
649.59	0.151
649.79	0.151
649.99	0.151
650.19	0.150
650.39	0.149
650.59	0.149
650.79	0.149
650.99	0.149
651.19	0.148
651.39	0.149
651.58	0.148
651.78	0.148
651.98	0.147
652.18	0.147
652.38	0.147
652.58	0.147
652.78	0.147
652.98	0.146
653.18	0.147
653.38	0.147
653.57	0.147
653.77	0.147
653.97	0.146
654.17	0.146
654.37	0.146
654.57	0.146
654.77	0.146
654.97	0.146
655.16	0.146
655.36	0.145
655.56	0.145
655.76	0.144
655.96	0.145
656.16	0.144
656.36	0.144
656.56	0.144
656.75	0.143
656.95	0.143
657.15	0.142
657.35	0.142
657.55	0.141
657.75	0.142
657.95	0.142
658.14	0.141
658.34	0.141
658.54	0.141
658.74	0.141
658.94	0.141
659.14	0.141
659.34	0.140
659.53	0.140
659.73	0.140
659.93	0.139
660.13	0.139
660.33	0.139
660.53	0.139
660.72	0.139
660.92	0.139
661.12	0.139
661.32	0.139
661.52	0.138
661.72	0.138
661.91	0.138
662.11	0.138
662.31	0.138
662.51	0.138
662.71	0.138
662.90	0.137
663.10	0.136
663.30	0.136
663.50	0.136
663.70	0.136
663.90	0.136
664.09	0.136
664.29	0.135
664.49	0.134
664.69	0.135
664.89	0.134
665.08	0.135
665.28	0.134
665.48	0.134
665.68	0.133
665.88	0.133
666.07	0.133
666.27	0.132
666.47	0.132
666.67	0.132
666.87	0.132
667.06	0.131
667.26	0.130
667.46	0.130
667.66	0.131
667.85	0.131
668.05	0.131
668.25	0.131
668.45	0.131
668.65	0.131
668.84	0.131
669.04	0.131
669.24	0.131
669.44	0.130
669.63	0.130
669.83	0.130
670.03	0.129
670.23	0.129
670.42	0.128
670.62	0.128
670.82	0.128
671.02	0.128
671.22	0.127
671.41	0.126
671.61	0.126
671.81	0.127
672.01	0.126
672.20	0.126
672.40	0.126
672.60	0.126
672.80	0.125
672.99	0.125
673.19	0.124
673.39	0.125
673.58	0.124
673.78	0.124
673.98	0.124
674.18	0.123
674.37	0.123
674.57	0.123
674.77	0.123
674.97	0.123
675.16	0.123
675.36	0.122
675.56	0.122
675.75	0.122
675.95	0.122
676.15	0.122
676.35	0.122
676.54	0.122
676.74	0.122
676.94	0.122
677.13	0.122
677.33	0.121
677.53	0.122
677.73	0.121
677.92	0.121
678.12	0.121
678.32	0.120
678.51	0.120
678.71	0.120
678.91	0.120
679.11	0.119
679.30	0.119
679.50	0.119
679.70	0.118
679.89	0.119
680.09	0.119
680.29	0.119
680.48	0.118
680.68	0.118
680.88	0.118
681.07	0.118
681.27	0.117
681.47	0.117
681.66	0.117
681.86	0.116
682.06	0.116
682.25	0.116
682.45	0.116
682.65	0.115
682.84	0.115
683.04	0.115
683.24	0.115
683.43	0.116
683.63	0.115
683.83	0.115
684.02	0.115
684.22	0.115
684.42	0.115
684.61	0.115
684.81	0.115
685.01	0.115
685.20	0.114
685.40	0.114
685.60	0.114
685.79	0.113
685.99	0.114
686.19	0.113
686.38	0.113
686.58	0.113
686.77	0.113
686.97	0.113
687.17	0.113
687.36	0.113
687.56	0.112
687.76	0.112
687.95	0.112
688.15	0.112
688.34	0.112
688.54	0.111
688.74	0.111
688.93	0.110
689.13	0.110
689.33	0.110
689.52	0.109
689.72	0.110
689.91	0.109
690.11	0.109
690.31	0.108
690.50	0.109
690.70	0.109
690.89	0.109
691.09	0.109
691.29	0.109
691.48	0.108
691.68	0.108
691.87	0.108
692.07	0.108
692.27	0.108
692.46	0.108
692.66	0.108
692.85	0.107
693.05	0.107
693.25	0.108
693.44	0.107
693.64	0.107
693.83	0.107
694.03	0.107
694.22	0.106
694.42	0.106
694.62	0.106
694.81	0.106
695.01	0.106
695.20	0.106
695.40	0.105
695.59	0.105
695.79	0.105
695.99	0.105
696.18	0.105
696.38	0.105
696.57	0.105
696.77	0.104
696.96	0.105
697.16	0.105
697.36	0.104
697.55	0.104
697.75	0.104
697.94	0.104
698.14	0.104
698.33	0.103
698.53	0.103
698.72	0.103
698.92	0.103
699.11	0.103
699.31	0.103
699.51	0.103
699.70	0.102
699.90	0.102
700.09	0.103
700.29	0.102
700.48	0.102
700.68	0.101
700.87	0.102
701.07	0.101
701.26	0.101
701.46	0.101
701.65	0.101
701.85	0.101
702.04	0.100
702.24	0.100
702.43	0.100
702.63	0.100
702.82	0.100
703.02	0.100
703.21	0.100
703.41	0.100
703.60	0.100
703.80	0.099
703.99	0.099
704.19	0.100
704.38	0.100
704.58	0.099
704.77	0.099
704.97	0.099
705.16	0.099
705.36	0.099
705.55	0.099
705.75	0.099
705.94	0.099
706.14	0.099
706.33	0.099
706.53	0.099
706.72	0.099
706.92	0.099
707.11	0.099
707.31	0.098
707.50	0.098
707.70	0.098
707.89	0.098
708.09	0.098
708.28	0.097
708.48	0.098
708.67	0.097
708.86	0.097
709.06	0.097
709.25	0.097
709.45	0.097
709.64	0.097
709.84	0.097
710.03	0.096
710.23	0.096
710.42	0.096
710.62	0.097
710.81	0.096
711.00	0.096
711.20	0.096
711.39	0.095
711.59	0.096
711.78	0.096
711.98	0.096
712.17	0.096
712.37	0.096
712.56	0.095
712.75	0.095
712.95	0.096
713.14	0.095
713.34	0.095
713.53	0.096
713.73	0.096
713.92	0.095
714.11	0.095
714.31	0.095
714.50	0.095
714.70	0.095
714.89	0.095
715.08	0.095
715.28	0.095
715.47	0.094
715.67	0.094
715.86	0.094
716.06	0.095
716.25	0.094
716.44	0.094
716.64	0.094
716.83	0.094
717.03	0.094
717.22	0.093
717.41	0.093
717.61	0.093
717.80	0.094
717.99	0.094
718.19	0.093
718.38	0.094
718.58	0.093
718.77	0.093
718.96	0.093
719.16	0.093
719.35	0.093
719.55	0.093
719.74	0.093
719.93	0.093
720.13	0.092
720.32	0.092
720.51	0.092
720.71	0.092
720.90	0.092
721.10	0.092
721.29	0.092
721.48	0.092
721.68	0.092
721.87	0.092
722.06	0.091
722.26	0.092
722.45	0.092
722.64	0.092
722.84	0.092
723.03	0.092
723.22	0.092
723.42	0.092
723.61	0.092
723.80	0.092
724.00	0.093
724.19	0.093
724.38	0.093
724.58	0.092
724.77	0.092
724.96	0.092
725.16	0.092
725.35	0.092
725.54	0.092
725.74	0.092
725.93	0.093
726.12	0.092
726.32	0.092
726.51	0.092
726.70	0.093
726.90	0.093
727.09	0.092
727.28	0.092
727.48	0.092
727.67	0.092
727.86	0.092
728.06	0.092
728.25	0.092
728.44	0.092
728.64	0.092
728.83	0.092
729.02	0.091
729.21	0.092
729.41	0.092
729.60	0.092
729.79	0.092
729.99	0.092
730.18	0.092
730.37	0.092
730.56	0.091
730.76	0.091
730.95	0.092
731.14	0.092
731.34	0.092
731.53	0.092
731.72	0.092
731.91	0.092
732.11	0.092
732.30	0.092
732.49	0.092
732.69	0.092
732.88	0.093
733.07	0.093
733.26	0.093
733.46	0.092
733.65	0.092
733.84	0.092
734.03	0.093
734.23	0.092
734.42	0.092
734.61	0.092
734.80	0.092
735.00	0.092
735.19	0.091
735.38	0.092
735.57	0.092
735.77	0.092
735.96	0.092
736.15	0.092
736.34	0.092
736.54	0.092
736.73	0.092
736.92	0.092
737.11	0.092
737.31	0.092
737.50	0.092
737.69	0.093
737.88	0.092
738.07	0.092
738.27	0.092
738.46	0.092
738.65	0.092
738.84	0.092
739.04	0.092
739.23	0.092
739.42	0.092
739.61	0.092
739.80	0.092
740.00	0.092
740.19	0.092
740.38	0.092
740.57	0.092
740.76	0.092
740.96	0.092
741.15	0.092
741.34	0.091
741.53	0.092
741.72	0.091
741.92	0.091
742.11	0.091
742.30	0.091
742.49	0.092
742.68	0.092
742.88	0.091
743.07	0.091
743.26	0.092
743.45	0.092
743.64	0.091
743.84	0.091
744.03	0.091
744.22	0.091
744.41	0.091
744.60	0.091
744.79	0.091
744.99	0.091
745.18	0.091
745.37	0.090
745.56	0.090
745.75	0.089
745.94	0.089
746.14	0.089
746.33	0.089
746.52	0.090
746.71	0.089
746.90	0.089
747.09	0.089
747.28	0.089
747.48	0.089
747.67	0.089
747.86	0.089
748.05	0.090
748.24	0.089
748.43	0.089
748.62	0.089
748.82	0.089
749.01	0.089
749.20	0.088
749.39	0.088
749.58	0.088
749.77	0.088
749.96	0.088
750.16	0.088
750.35	0.088
750.54	0.088
750.73	0.088
750.92	0.088
751.11	0.088
751.30	0.088
751.49	0.089
751.68	0.089
751.88	0.089
752.07	0.089
752.26	0.089
752.45	0.089
752.64	0.089
752.83	0.089
753.02	0.089
753.21	0.088
753.40	0.088
753.60	0.088
753.79	0.088
753.98	0.087
754.17	0.087
754.36	0.087
754.55	0.087
754.74	0.087
754.93	0.087
755.12	0.087
755.31	0.087
755.50	0.087
755.70	0.087
755.89	0.086
756.08	0.086
756.27	0.086
756.46	0.087
756.65	0.087
756.84	0.087
757.03	0.087
757.22	0.086
757.41	0.087
757.60	0.086
757.79	0.087
757.98	0.087
758.17	0.087
758.36	0.087
758.56	0.087
758.75	0.086
758.94	0.086
759.13	0.087
759.32	0.086
759.51	0.086
759.70	0.086
759.89	0.086
760.08	0.086
760.27	0.085
760.46	0.085
760.65	0.085
760.84	0.085
761.03	0.085
761.22	0.085
761.41	0.085
761.60	0.085
761.79	0.085
761.98	0.085
762.17	0.085
762.36	0.085
762.55	0.085
762.74	0.085
762.93	0.084
763.12	0.084
763.31	0.084
763.50	0.084
763.69	0.084
763.88	0.084
764.07	0.084
764.26	0.084
764.45	0.084
764.64	0.084
764.83	0.083
765.02	0.084
765.21	0.084
765.40	0.084
765.59	0.084
765.78	0.084
765.97	0.084
766.16	0.084
766.35	0.084
766.54	0.084
766.73	0.084
766.92	0.084
767.11	0.084
767.30	0.084
767.49	0.084
767.68	0.084
767.87	0.084
768.06	0.084
768.25	0.084
768.44	0.084
768.63	0.084
768.82	0.084
769.01	0.084
769.20	0.084
769.39	0.084
769.58	0.084
769.77	0.084
769.96	0.084
770.15	0.084
770.34	0.084
770.53	0.084
770.72	0.083
770.91	0.083
771.10	0.083
771.29	0.083
771.47	0.083
771.66	0.082
771.85	0.083
772.04	0.083
772.23	0.083
772.42	0.083
772.61	0.083
772.80	0.083
772.99	0.083
773.18	0.083
773.37	0.083
773.56	0.083
773.75	0.083
773.94	0.083
774.13	0.082
774.31	0.083
774.50	0.083
774.69	0.083
774.88	0.082
775.07	0.082
775.26	0.082
775.45	0.082
775.64	0.082
775.83	0.082
776.02	0.081
776.21	0.081
776.40	0.082
776.58	0.081
776.77	0.081
776.96	0.082
777.15	0.082
777.34	0.082
777.53	0.082
777.72	0.082
777.91	0.082
778.10	0.082
778.28	0.082
778.47	0.082
778.66	0.081
778.85	0.081
779.04	0.081
779.23	0.080
779.42	0.081
779.61	0.080
779.79	0.080
779.98	0.080
780.17	0.080
780.36	0.080
780.55	0.080
780.74	0.080
780.93	0.080
781.12	0.080
781.30	0.080
781.49	0.080
781.68	0.080
781.87	0.080
782.06	0.080
782.25	0.080
782.44	0.080
782.62	0.080
782.81	0.080
783.00	0.080
783.19	0.080
783.38	0.080
783.57	0.080
783.75	0.079
783.94	0.079
784.13	0.079
784.32	0.079
784.51	0.080
784.70	0.080
784.88	0.080
785.07	0.079
785.26	0.079
785.45	0.080
785.64	0.079
785.83	0.080
786.01	0.079
786.20	0.080
786.39	0.080
786.58	0.079
786.77	0.079
786.95	0.079
787.14	0.079
787.33	0.079
787.52	0.079
787.71	0.079
787.90	0.079
788.08	0.079
788.27	0.079
788.46	0.079
788.65	0.079
788.84	0.079
789.02	0.079
789.21	0.079
789.40	0.079
789.59	0.079
789.77	0.079
789.96	0.079
790.15	0.079
790.34	0.079
790.53	0.079
790.71	0.079
790.90	0.079
791.09	0.078
791.28	0.079
791.46	0.079
791.65	0.079
791.84	0.079
792.03	0.079
792.22	0.079
792.40	0.078
792.59	0.079
792.78	0.079
792.97	0.079
793.15	0.079
793.34	0.079
793.53	0.079
793.72	0.078
793.90	0.078
794.09	0.078
794.28	0.078
794.47	0.078
794.65	0.078
794.84	0.078
795.03	0.077
795.22	0.077
795.40	0.077
795.59	0.077
795.78	0.077
795.97	0.078
796.15	0.078
796.34	0.078
796.53	0.078
796.71	0.078
796.90	0.078
797.09	0.079
797.28	0.079
797.46	0.078
797.65	0.078
797.84	0.078
798.02	0.078
798.21	0.077
798.40	0.077
798.59	0.077
798.77	0.077
798.96	0.076
799.15	0.076
799.33	0.076
799.52	0.076
799.71	0.076
799.90	0.077
800.08	0.076
800.27	0.077
800.46	0.077
800.64	0.077
800.83	0.077
801.02	0.077
801.20	0.077
801.39	0.077
801.58	0.077
801.76	0.077
801.95	0.077
802.14	0.077
802.32	0.077
802.51	0.076
802.70	0.076
802.88	0.076
803.07	0.076
803.26	0.075
803.44	0.075
803.63	0.076
803.82	0.075
804.00	0.075
804.19	0.076
804.38	0.076
804.56	0.076
804.75	0.076
804.94	0.076
805.12	0.076
805.31	0.076
805.50	0.076
805.68	0.076
805.87	0.076
806.06	0.076
806.24	0.076
806.43	0.076
806.62	0.076
806.80	0.076
806.99	0.076
807.17	0.076
807.36	0.076
807.55	0.076
807.73	0.076
807.92	0.076
808.11	0.076
808.29	0.075
808.48	0.075
808.66	0.075
808.85	0.075
809.04	0.075
809.22	0.075
809.41	0.075
809.59	0.075
809.78	0.075
809.97	0.075
810.15	0.075
810.34	0.075
810.53	0.075
810.71	0.074
810.90	0.074
811.08	0.075
811.27	0.074
811.45	0.075
811.64	0.074
811.83	0.074
812.01	0.074
812.20	0.074
812.38	0.075
812.57	0.075
812.76	0.075
812.94	0.075
813.13	0.075
813.31	0.075
813.50	0.075
813.68	0.075
813.87	0.075
814.06	0.075
814.24	0.075
814.43	0.075
814.61	0.075
814.80	0.075
814.98	0.075
815.17	0.075
815.36	0.075
815.54	0.075
815.73	0.075
815.91	0.075
816.10	0.075
816.28	0.075
816.47	0.075
816.65	0.075
816.84	0.075
817.03	0.075
817.21	0.075
817.40	0.076
817.58	0.076
817.77	0.075
817.95	0.075
818.14	0.076
818.32	0.075
818.51	0.075
818.69	0.075
818.88	0.076
819.06	0.075
819.25	0.075
819.43	0.075
819.62	0.075
819.80	0.075
819.99	0.075
820.18	0.075
820.36	0.075
820.55	0.075
820.73	0.075
820.92	0.075
821.10	0.075
821.29	0.075
821.47	0.075
821.66	0.075
821.84	0.076
822.03	0.075
822.21	0.075
822.40	0.075
822.58	0.075
822.77	0.075
822.95	0.075
823.14	0.076
823.32	0.076
823.50	0.076
823.69	0.076
823.87	0.076
824.06	0.077
824.24	0.077
824.43	0.077
824.61	0.077
824.80	0.077
824.98	0.077
825.17	0.077
825.35	0.077
825.54	0.077
825.72	0.077
825.91	0.077
826.09	0.077
826.28	0.077
826.46	0.078
826.64	0.077
826.83	0.077
827.01	0.077
827.20	0.077
827.38	0.078
827.57	0.078
827.75	0.078
827.94	0.078
828.12	0.078
828.31	0.078
828.49	0.078
828.67	0.079
828.86	0.079
829.04	0.079
829.23	0.079
829.41	0.079
829.60	0.079
829.78	0.079
829.96	0.080
830.15	0.080
830.33	0.080
830.52	0.080
830.70	0.080
830.88	0.080
831.07	0.080
831.25	0.080
831.44	0.080
831.62	0.080
831.81	0.080
831.99	0.080
832.17	0.080
832.36	0.080
832.54	0.080
832.73	0.080
832.91	0.080
833.09	0.080
833.28	0.080
833.46	0.080
833.65	0.080
833.83	0.081
834.01	0.081
834.20	0.081
834.38	0.081
834.56	0.081
834.75	0.081
834.93	0.081
835.12	0.081
835.30	0.081
835.48	0.082
835.67	0.081
835.85	0.081
836.03	0.081
836.22	0.081
836.40	0.081
836.59	0.081
836.77	0.081
836.95	0.082
837.14	0.081
837.32	0.081
837.50	0.081
837.69	0.081
837.87	0.082
838.05	0.082
838.24	0.082
838.42	0.082
838.60	0.082
838.79	0.083
838.97	0.082
839.15	0.082
839.34	0.083
839.52	0.083
839.70	0.083
839.89	0.083
840.07	0.083
840.25	0.083
840.44	0.083
840.62	0.082
840.80	0.082
840.99	0.082
841.17	0.082
841.35	0.082
841.54	0.082
841.72	0.082
841.90	0.083
842.09	0.083
842.27	0.083
842.45	0.083
842.64	0.083
842.82	0.083
843.00	0.083
843.19	0.083
843.37	0.083
843.55	0.083
843.73	0.082
843.92	0.082
844.10	0.083
844.28	0.083
844.47	0.083
844.65	0.083
844.83	0.083
845.01	0.083
845.20	0.083
845.38	0.084
845.56	0.084
845.75	0.084
845.93	0.084
846.11	0.084
846.29	0.084
846.48	0.084
846.66	0.084
846.84	0.083
847.02	0.083
847.21	0.083
847.39	0.083
847.57	0.083
847.76	0.083
847.94	0.083
848.12	0.083
848.30	0.084
848.49	0.084
848.67	0.084
848.85	0.084
849.03	0.084
849.22	0.084
849.40	0.085
849.58	0.085
849.76	0.085
849.95	0.084
850.13	0.085
850.31	0.084
850.49	0.084
850.67	0.084
850.86	0.084
851.04	0.084
851.22	0.084
851.40	0.084
851.59	0.084
851.77	0.084
851.95	0.084
852.13	0.084
852.31	0.083
852.50	0.084
852.68	0.084
852.86	0.084
853.04	0.084
853.23	0.084
853.41	0.084
853.59	0.084
853.77	0.084
853.95	0.085
854.14	0.085
854.32	0.085
854.50	0.085
854.68	0.084
854.86	0.084
855.04	0.085
855.23	0.085
855.41	0.085
855.59	0.085
855.77	0.085
855.95	0.085
856.14	0.085
856.32	0.085
856.50	0.085
856.68	0.085
856.86	0.085
857.04	0.084
857.23	0.084
857.41	0.084
857.59	0.084
857.77	0.084
857.95	0.084
858.13	0.084
858.32	0.084
858.50	0.085
858.68	0.084
858.86	0.084
859.04	0.085
859.22	0.085
859.41	0.085
859.59	0.085
859.77	0.085
859.95	0.085
860.13	0.085
860.31	0.085
860.49	0.085
860.68	0.085
860.86	0.085
861.04	0.086
861.22	0.085
861.40	0.086
861.58	0.086
861.76	0.085
861.94	0.085
862.13	0.085
862.31	0.086
862.49	0.086
862.67	0.086
862.85	0.086
863.03	0.086
863.21	0.086
863.39	0.086
863.57	0.086
863.76	0.086
863.94	0.086
864.12	0.086
864.30	0.085
864.48	0.085
864.66	0.085
864.84	0.085
865.02	0.086
865.20	0.086
865.38	0.086
865.57	0.086
865.75	0.086
865.93	0.086
866.11	0.086
866.29	0.086
866.47	0.086
866.65	0.086
866.83	0.086
867.01	0.086
867.19	0.086
867.37	0.086
867.55	0.085
867.73	0.086
867.92	0.086
868.10	0.086
868.28	0.085
868.46	0.085
868.64	0.085
868.82	0.086
869.00	0.086
869.18	0.086
869.36	0.086
869.54	0.086
869.72	0.086
869.90	0.086
870.08	0.086
870.26	0.086
870.44	0.087
870.62	0.086
870.80	0.086
870.98	0.086
871.16	0.086
871.34	0.086
871.53	0.086
871.71	0.086
871.89	0.086
872.07	0.087
872.25	0.086
872.43	0.086
872.61	0.086
872.79	0.087
872.97	0.087
873.15	0.087
873.33	0.088
873.51	0.088
873.69	0.088
873.87	0.088
874.05	0.088
874.23	0.088
874.41	0.088
874.59	0.088
874.77	0.088
874.95	0.088
875.13	0.088
875.31	0.088
875.49	0.088
875.67	0.088
875.85	0.088
876.03	0.088
876.21	0.089
876.39	0.089
876.57	0.088
876.75	0.089
876.93	0.088
877.11	0.088
877.29	0.088
877.47	0.088
877.65	0.089
877.82	0.089
878.00	0.089
878.18	0.089
878.36	0.089
878.54	0.089
878.72	0.089
878.90	0.090
879.08	0.090
879.26	0.090
879.44	0.090
879.62	0.090
879.80	0.089
879.98	0.089
880.16	0.089
880.34	0.089
880.52	0.089
880.70	0.089
880.88	0.089
881.06	0.089
881.24	0.088
881.42	0.088
881.59	0.088
881.77	0.088
881.95	0.088
882.13	0.088
882.31	0.089
882.49	0.088
882.67	0.089
882.85	0.089
883.03	0.089
883.21	0.089
883.39	0.089
883.57	0.089
883.75	0.090
883.92	0.089
884.10	0.089
884.28	0.089
884.46	0.089
884.64	0.089
884.82	0.089
885.00	0.089
885.18	0.089
885.36	0.090
885.54	0.089
885.71	0.089
885.89	0.090
886.07	0.090
886.25	0.091
886.43	0.090
886.61	0.090
886.79	0.090
886.97	0.090
887.15	0.090
887.32	0.090
887.50	0.090
887.68	0.090
887.86	0.090
888.04	0.090
888.22	0.090
888.40	0.090
888.57	0.090
888.75	0.090
888.93	0.090
889.11	0.090
889.29	0.091
889.47	0.091
889.65	0.091
889.82	0.091
890.00	0.091
890.18	0.091
890.36	0.091
890.54	0.091
890.72	0.091
890.90	0.092
891.07	0.092
891.25	0.091
891.43	0.091
891.61	0.092
891.79	0.092
891.97	0.092
892.14	0.092
892.32	0.092
892.50	0.091
892.68	0.092
892.86	0.092
893.03	0.092
893.21	0.092
893.39	0.092
893.57	0.092
893.75	0.092
893.93	0.092
894.10	0.092
894.28	0.092
894.46	0.092
894.64	0.092
894.82	0.092
894.99	0.092
895.17	0.092
895.35	0.092
895.53	0.092
895.71	0.092
895.88	0.092
896.06	0.092
896.24	0.093
896.42	0.093
896.59	0.093
896.77	0.093
896.95	0.092
897.13	0.093
897.31	0.093
897.48	0.093
897.66	0.093
897.84	0.093
898.02	0.093
898.19	0.093
898.37	0.093
898.55	0.093
898.73	0.093
898.91	0.093
899.08	0.093
899.26	0.093
899.44	0.094
899.62	0.094
899.79	0.094
899.97	0.094
900.15	0.094
900.33	0.094
900.50	0.094
900.68	0.094
900.86	0.094
901.04	0.094
901.21	0.094
901.39	0.094
901.57	0.094
901.74	0.094
901.92	0.094
902.10	0.094
902.28	0.094
902.45	0.094
902.63	0.094
902.81	0.094
902.99	0.094
903.16	0.094
903.34	0.094
903.52	0.094
903.69	0.094
903.87	0.094
904.05	0.095
904.22	0.095
904.40	0.095
904.58	0.095
904.76	0.095
904.93	0.095
905.11	0.096
905.29	0.096
905.46	0.096
905.64	0.096
905.82	0.096
905.99	0.096
906.17	0.096
906.35	0.095
906.53	0.096
906.70	0.096
906.88	0.096
907.06	0.096
907.23	0.096
907.41	0.096
907.59	0.096
907.76	0.096
907.94	0.096
908.12	0.096
908.29	0.096
908.47	0.096
908.65	0.097
908.82	0.097
909.00	0.096
909.18	0.097
909.35	0.097
909.53	0.097
909.71	0.097
909.88	0.097
910.06	0.097
910.23	0.097
910.41	0.098
910.59	0.097
910.76	0.097
910.94	0.097
911.12	0.098
911.29	0.098
911.47	0.097
911.65	0.098
911.82	0.098
912.00	0.098
912.17	0.097
912.35	0.098
912.53	0.098
912.70	0.098
912.88	0.098
913.06	0.099
913.23	0.099
913.41	0.099
913.58	0.099
913.76	0.099
913.94	0.099
914.11	0.100
914.29	0.100
914.46	0.100
914.64	0.100
914.82	0.100
914.99	0.100
915.17	0.100
915.34	0.100
915.52	0.100
915.70	0.100
915.87	0.100
916.05	0.100
916.22	0.100
916.40	0.100
916.57	0.101
916.75	0.101
916.93	0.101
917.10	0.101
917.28	0.101
917.45	0.101
917.63	0.101
917.80	0.101
917.98	0.101
918.16	0.101
918.33	0.101
918.51	0.102
918.68	0.101
918.86	0.102
919.03	0.102
919.21	0.103
919.39	0.103
919.56	0.104
919.74	0.104
919.91	0.104
920.09	0.104
920.26	0.104
920.44	0.104
920.61	0.104
920.79	0.104
920.96	0.104
921.14	0.104
921.31	0.104
921.49	0.104
921.67	0.105
921.84	0.105
922.02	0.105
922.19	0.106
922.37	0.106
922.54	0.106
922.72	0.107
922.89	0.107
923.07	0.107
923.24	0.107
923.42	0.108
923.59	0.108
923.77	0.108
923.94	0.109
924.12	0.109
924.29	0.109
924.47	0.109
924.64	0.110
924.82	0.110
924.99	0.110
925.17	0.111
925.34	0.111
925.52	0.112
925.69	0.112
925.87	0.112
926.04	0.112
926.22	0.113
926.39	0.113
926.57	0.113
926.74	0.113
926.91	0.114
927.09	0.114
927.26	0.114
927.44	0.114
927.61	0.114
927.79	0.114
927.96	0.115
928.14	0.115
928.31	0.116
928.49	0.116
928.66	0.117
928.84	0.117
929.01	0.117
929.18	0.118
929.36	0.118
929.53	0.119
929.71	0.119
929.88	0.120
930.06	0.120
930.23	0.120
930.41	0.120
930.58	0.121
930.75	0.121
930.93	0.121
931.10	0.121
931.28	0.122
931.45	0.123
931.63	0.123
931.80	0.123
931.97	0.124
932.15	0.124
932.32	0.125
932.50	0.125
932.67	0.126
932.84	0.126
933.02	0.127
933.19	0.127
933.37	0.128
933.54	0.128
933.71	0.129
933.89	0.130
934.06	0.130
934.24	0.130
934.41	0.130
934.58	0.131
934.76	0.131
934.93	0.132
935.11	0.132
935.28	0.132
935.45	0.133
935.63	0.134
935.80	0.134
935.98	0.135
936.15	0.135
936.32	0.135
936.50	0.136
936.67	0.137
936.84	0.137
937.02	0.138
937.19	0.139
937.36	0.139
937.54	0.139
937.71	0.140
937.89	0.140
938.06	0.141
938.23	0.142
938.41	0.142
938.58	0.142
938.75	0.142
938.93	0.143
939.10	0.143
939.27	0.143
939.45	0.145
939.62	0.145
939.79	0.145
939.97	0.146
940.14	0.147
940.31	0.148
940.49	0.148
940.66	0.149
940.83	0.150
941.01	0.150
941.18	0.151
941.35	0.151
941.53	0.152
941.70	0.153
941.87	0.153
942.05	0.154
942.22	0.155
942.39	0.156
942.57	0.156
942.74	0.157
942.91	0.157
943.08	0.158
943.26	0.158
943.43	0.159
943.60	0.160
943.78	0.161
943.95	0.162
944.12	0.161
944.29	0.162
944.47	0.163
944.64	0.163
944.81	0.165
944.99	0.165
945.16	0.166
945.33	0.166
945.50	0.167
945.68	0.168
945.85	0.169
946.02	0.171
946.20	0.171
946.37	0.172
946.54	0.173
946.71	0.174
946.89	0.174
947.06	0.175
947.23	0.176
947.40	0.178
947.58	0.178
947.75	0.179
947.92	0.179
948.09	0.179
948.27	0.181
948.44	0.182
948.61	0.183
948.78	0.184
948.96	0.185
949.13	0.185
949.30	0.186
949.47	0.187
949.65	0.188
949.82	0.190
949.99	0.191
950.16	0.193
950.33	0.193
950.51	0.195
950.68	0.196
950.85	0.197
951.02	0.199
951.20	0.200
951.37	0.201
951.54	0.202
951.71	0.203
951.88	0.205
952.06	0.205
952.23	0.206
952.40	0.208
952.57	0.209
952.74	0.210
952.92	0.211
953.09	0.213
953.26	0.214
953.43	0.214
953.60	0.215
953.77	0.216
953.95	0.217
954.12	0.219
954.29	0.220
954.46	0.222
954.63	0.223
954.81	0.224
954.98	0.224
955.15	0.227
955.32	0.228
955.49	0.228
955.66	0.230
955.84	0.231
956.01	0.231
956.18	0.233
956.35	0.235
956.52	0.235
956.69	0.237
956.87	0.237
957.04	0.239
957.21	0.241
957.38	0.241
957.55	0.242
957.72	0.242
957.89	0.243
958.07	0.244
958.24	0.246
958.41	0.248
958.58	0.247
958.75	0.248
958.92	0.249
959.09	0.249
959.26	0.250
959.44	0.251
959.61	0.252
959.78	0.253
959.95	0.254
960.12	0.254
960.29	0.256
960.46	0.255
960.63	0.255
960.81	0.256
960.98	0.257
961.15	0.257
961.32	0.258
961.49	0.257
961.66	0.259
961.83	0.259
962.00	0.259
962.17	0.260
962.34	0.260
962.52	0.261
962.69	0.262
962.86	0.261
963.03	0.262
963.20	0.263
963.37	0.262
963.54	0.263
963.71	0.263
963.88	0.263
964.05	0.264
964.22	0.266
964.39	0.264
964.56	0.264
964.74	0.265
964.91	0.264
965.08	0.264
965.25	0.265
965.42	0.265
965.59	0.266
965.76	0.265
965.93	0.266
966.10	0.264
966.27	0.265
966.44	0.265
966.61	0.266
966.78	0.266
966.95	0.266
967.12	0.267
967.29	0.269
967.46	0.268
967.63	0.267
967.80	0.268
967.97	0.268
968.14	0.268
968.32	0.268
968.49	0.269
968.66	0.268
968.83	0.269
969.00	0.269
969.17	0.269
969.34	0.271
969.51	0.271
969.68	0.270
969.85	0.270
970.02	0.271
970.19	0.270
970.36	0.271
970.53	0.271
970.70	0.270
970.87	0.271
971.04	0.270
971.21	0.270
971.38	0.270
971.55	0.271
971.72	0.271
971.89	0.272
972.06	0.271
972.23	0.271
972.40	0.271
972.57	0.270
972.74	0.269
972.91	0.270
973.07	0.270
973.24	0.270
973.41	0.270
973.58	0.268
973.75	0.281
973.92	0.268
974.09	0.268
974.26	0.268
974.43	0.268
974.60	0.270
974.77	0.270
974.94	0.269
975.11	0.270
975.28	0.270
975.45	0.269
975.62	0.271
975.79	0.272
975.96	0.270
976.13	0.269
976.30	0.270
976.47	0.268
976.64	0.269
976.80	0.269
976.97	0.269
977.14	0.269
977.31	0.269
977.48	0.269
977.65	0.268
977.82	0.267
977.99	0.269
978.16	0.268
978.33	0.268
978.50	0.267
978.67	0.267
978.83	0.267
979.00	0.267
979.17	0.267
979.34	0.266
979.51	0.266
979.68	0.267
979.85	0.267
980.02	0.268
980.19	0.266
980.36	0.267
980.52	0.268
980.69	0.267
980.86	0.267
981.03	0.266
981.20	0.265
981.37	0.265
981.54	0.265
981.71	0.264
981.88	0.265
982.04	0.264
982.21	0.263
982.38	0.264
982.55	0.263
982.72	0.262
982.89	0.263
983.06	0.262
983.22	0.262
983.39	0.262
983.56	0.262
983.73	0.261
983.90	0.260
984.07	0.262
984.24	0.260
984.40	0.260
984.57	0.259
984.74	0.261
984.91	0.262
985.08	0.260
985.25	0.257
985.41	0.258
985.58	0.258
985.75	0.259
985.92	0.258
986.09	0.257
986.26	0.258
986.42	0.256
986.59	0.255
986.76	0.256
986.93	0.256
987.10	0.257
987.27	0.254
987.43	0.253
987.60	0.255
987.77	0.255
987.94	0.253
988.11	0.253
988.27	0.254
988.44	0.254
988.61	0.252
988.78	0.250
988.95	0.250
989.11	0.252
989.28	0.250
989.45	0.250
989.62	0.250
989.79	0.250
989.95	0.249
990.12	0.251
990.29	0.250
990.46	0.248
990.62	0.248
990.79	0.248
990.96	0.248
991.13	0.248
991.30	0.247
991.46	0.246
991.63	0.245
991.80	0.244
991.97	0.244
992.13	0.244
992.30	0.245
992.47	0.243
992.64	0.243
992.80	0.243
992.97	0.243
993.14	0.241
993.31	0.238
993.47	0.241
993.64	0.239
993.81	0.238
993.98	0.239
994.14	0.238
994.31	0.237
994.48	0.238
994.64	0.238
994.81	0.237
994.98	0.237
995.15	0.235
995.31	0.235
995.48	0.235
995.65	0.238
995.82	0.234
995.98	0.234
996.15	0.235
996.32	0.237
996.48	0.235
996.65	0.235
996.82	0.233
996.99	0.233
997.15	0.233
997.32	0.235
997.49	0.232
997.65	0.234
997.82	0.233
997.99	0.232
998.15	0.232
998.32	0.234
998.49	0.232
998.65	0.231
998.82	0.231
998.99	0.228
999.15	0.228
999.32	0.227
999.49	0.226
999.65	0.227
999.82	0.224
999.99	0.224
1000.15	0.224
1000.32	0.225
1000.49	0.225
1000.65	0.223
1000.82	0.223
1000.99	0.223
1001.15	0.223
1001.32	0.222
1001.49	0.222
1001.65	0.222
1001.82	0.224
1001.99	0.221
1002.15	0.220
1002.32	0.220
1002.49	0.221
1002.65	0.220
1002.82	0.219
1002.99	0.218
1003.15	0.220
1003.32	0.219
1003.48	0.219
1003.65	0.219
1003.82	0.218
1003.98	0.215
1004.15	0.215
1004.32	0.215
1004.48	0.215
1004.65	0.216
1004.81	0.214
1004.98	0.212
1005.15	0.214
1005.31	0.213
1005.48	0.211
1005.64	0.211
1005.81	0.214
1005.98	0.210
1006.14	0.210
1006.31	0.210
1006.47	0.208
1006.64	0.207
1006.81	0.207
1006.97	0.207
1007.14	0.206
1007.30	0.207
1007.47	0.206
1007.63	0.204
1007.80	0.203
1007.97	0.203
1008.13	0.203
1008.30	0.203
1008.46	0.204
1008.63	0.202
1008.79	0.202
1008.96	0.202
1009.13	0.203
1009.29	0.200
1009.46	0.200
1009.62	0.201
1009.79	0.199
1009.95	0.198
1010.12	0.199
1010.28	0.199
1010.45	0.199
1010.62	0.199
1010.78	0.197
1010.95	0.195
1011.11	0.196
1011.28	0.195
1011.44	0.197
1011.61	0.195
1011.77	0.194
1011.94	0.194
1012.10	0.194
1012.27	0.194
1012.43	0.194
1012.60	0.193
1012.76	0.194
1012.93	0.193
1013.10	0.192
1013.26	0.189
1013.43	0.191
1013.59	0.198
1013.76	0.191
1013.92	0.190
1014.09	0.189
1014.25	0.190
1014.42	0.191
1014.58	0.191
1014.75	0.192
1014.91	0.191
1015.08	0.193
1015.24	0.189
1015.41	0.191
1015.57	0.191
1015.73	0.189
1015.90	0.186
1016.06	0.188
1016.23	0.186
1016.39	0.187
1016.56	0.187
1016.72	0.186
1016.89	0.186
1017.05	0.188
1017.22	0.184
1017.38	0.184
1017.55	0.183
1017.71	0.185
1017.88	0.185
1018.04	0.185
1018.21	0.182
1018.37	0.181
1018.53	0.182
1018.70	0.180
1018.86	0.180
1019.03	0.181
1019.19	0.180
1019.36	0.180
1019.52	0.181
1019.69	0.180
1019.85	0.180
1020.01	0.181
1020.18	0.180
1020.34	0.180
1020.51	0.179
1020.67	0.180
1020.84	0.179
1021.00	0.179
1021.16	0.176
1021.33	0.177
1021.49	0.175
1021.66	0.175
1021.82	0.172
1021.98	0.172
1022.15	0.172
1022.31	0.171
1022.48	0.170
1022.64	0.173
1022.80	0.171
1022.97	0.170
1023.13	0.168
1023.30	0.170
1023.46	0.171
1023.62	0.169
1023.79	0.170
1023.95	0.170
1024.12	0.170
1024.28	0.168
1024.44	0.168
1024.61	0.167
1024.77	0.167
1024.93	0.166
1025.10	0.166
1025.26	0.163
1025.43	0.164
1025.59	0.159
1025.75	0.163
1025.92	0.162
1026.08	0.162
1026.24	0.161
1026.41	0.162
1026.57	0.160
1026.73	0.158
1026.90	0.161
1027.06	0.159
1027.23	0.161
1027.39	0.162
1027.55	0.162
1027.72	0.161
1027.88	0.161
1028.04	0.161
1028.21	0.161
1028.37	0.156
1028.53	0.160
1028.70	0.158
1028.86	0.156
1029.02	0.156
1029.19	0.157
1029.35	0.154
1029.51	0.153
1029.67	0.153
1029.84	0.155
1030.00	0.150
1030.16	0.150
1030.33	0.154
1030.49	0.152
1030.65	0.150
1030.82	0.166
1030.98	0.153
1031.14	0.153
1031.31	0.154
1031.47	0.151
1031.63	0.154
1031.79	0.153
1031.96	0.155
1032.12	0.156
1032.28	0.154
1032.45	0.159
1032.61	0.156
1032.77	0.154
1032.93	0.152
1033.10	0.153
1033.26	0.155
1033.42	0.153
1033.58	0.154
1033.75	0.154
1033.91	0.151
1034.07	0.153
1034.24	0.150
1034.40	0.149
1034.56	0.150
1034.72	0.150
1034.89	0.150
1035.05	0.148
1035.21	0.148
1035.37	0.145
1035.54	0.148
1035.70	0.146
1035.86	0.146
1036.02	0.148
1036.19	0.144
1036.35	0.142
1036.51	0.146
1036.67	0.144
1036.83	0.144
1037.00	0.143
1037.16	0.144
1037.32	0.144
1037.48	0.144
1037.65	0.147
1037.81	0.142
1037.97	0.142
1038.13	0.141
1038.29	0.140
1038.46	0.138
1038.62	0.143
1038.78	0.140
1038.94	0.137
1039.10	0.142
1039.27	0.137
1039.43	0.139
1039.59	0.140
1039.75	0.140
1039.91	0.139
1040.08	0.140
1040.24	0.142
1040.40	0.143
1040.56	0.142
1040.72	0.137
1040.89	0.138
1041.05	0.140
1041.21	0.139
1041.37	0.136
1041.53	0.143
1041.69	0.141
1041.86	0.139
1042.02	0.136
1042.18	0.136
1042.34	0.137
1042.50	0.140
1042.66	0.138
1042.83	0.137
1042.99	0.140
1043.15	0.136
1043.31	0.136
1043.47	0.140
1043.63	0.137
1043.79	0.136
1043.96	0.137
1044.12	0.142
1044.28	0.138
1044.44	0.140
1044.60	0.135
1044.76	0.133
1044.92	0.136
1045.09	0.137
1045.25	0.134
1045.41	0.134
1045.57	0.131
1045.73	0.130
1045.89	0.130
1046.05	0.132
1046.21	0.134
1046.38	0.138
1046.54	0.132
1046.70	0.121
1046.86	0.125
>>>>>End Processed Spectral Data<<<<<
