SpectraSuite Data File
++++++++++++++++++++++++++++++++++++
Date: Mon May 20 12:11:13 CDT 2013
User: Students
Dark Spectrum Present: Yes
Reference Spectrum Present: Yes
Number of Sampled Component Spectra: 1
Spectrometers: USB4H00887
Integration Time (usec): 60000 (USB4H00887)
Spectra Averaged: 5 (USB4H00887)
Boxcar Smoothing: 5 (USB4H00887)
Correct for Electrical Dark: No (USB4H00887)
Strobe/Lamp Enabled: No (USB4H00887)
Correct for Detector Non-linearity: No (USB4H00887)
Correct for Stray Light: No (USB4H00887)
Number of Pixels in Processed Spectrum: 3648
>>>>>Begin Processed Spectral Data<<<<<
345.83	-0.189
346.05	-0.189
346.26	-0.189
346.48	-0.000
346.70	0.251
346.92	0.116
347.14	0.063
347.35	0.065
347.57	0.331
347.79	-0.229
348.01	-0.168
348.23	-0.269
348.44	-0.000
348.66	0.158
348.88	-0.285
349.10	-0.083
349.32	0.004
349.53	0.025
349.75	0.101
349.97	0.090
350.19	0.185
350.41	0.162
350.62	-0.390
350.84	0.041
351.06	0.018
351.28	0.002
351.50	-0.105
351.71	-0.076
351.93	-0.031
352.15	0.005
352.37	0.061
352.58	0.012
352.80	0.048
353.02	0.071
353.24	0.117
353.46	-0.000
353.67	-0.269
353.89	0.122
354.11	0.110
354.33	0.099
354.54	0.137
354.76	0.221
354.98	0.403
355.20	0.267
355.41	0.125
355.63	0.237
355.85	0.108
356.07	-0.000
356.28	0.110
356.50	0.214
356.72	0.098
356.94	0.284
357.15	0.335
357.37	-0.000
357.59	0.191
357.81	0.096
358.02	0.191
358.24	0.121
358.46	0.234
358.68	0.179
358.89	0.089
359.11	-0.000
359.33	0.072
359.55	-0.499
359.76	0.094
359.98	0.079
360.20	0.099
360.42	0.062
360.63	0.063
360.85	0.041
361.07	0.222
361.29	0.036
361.50	0.065
361.72	0.050
361.94	0.229
362.15	0.098
362.37	0.055
362.59	0.057
362.81	0.120
363.02	0.242
363.24	0.477
363.46	0.243
363.68	0.391
363.89	0.255
364.11	0.344
364.33	0.424
364.54	0.264
364.76	0.338
364.98	0.360
365.20	0.422
365.41	0.216
365.63	0.243
365.85	0.161
366.06	0.398
366.28	0.340
366.50	0.200
366.71	0.093
366.93	0.108
367.15	0.103
367.37	0.094
367.58	0.104
367.80	0.129
368.02	0.308
368.23	0.118
368.45	0.143
368.67	0.119
368.88	0.130
369.10	-0.000
369.32	0.119
369.53	0.075
369.75	0.116
369.97	0.282
370.19	0.155
370.40	0.077
370.62	0.230
370.84	0.088
371.05	0.598
371.27	0.153
371.49	0.172
371.70	0.195
371.92	0.315
372.14	0.142
372.35	0.149
372.57	0.176
372.79	0.460
373.00	0.111
373.22	0.198
373.44	0.178
373.65	0.131
373.87	0.211
374.09	1.475
374.30	0.152
374.52	0.164
374.74	0.124
374.95	0.522
375.17	0.129
375.39	-0.000
375.60	0.109
375.82	0.180
376.04	0.068
376.25	0.079
376.47	0.062
376.68	0.170
376.90	0.109
377.12	0.241
377.33	0.138
377.55	0.351
377.77	0.190
377.98	0.285
378.20	0.162
378.42	0.209
378.63	0.260
378.85	-0.000
379.07	0.144
379.28	0.543
379.50	0.291
379.71	0.156
379.93	0.104
380.15	0.144
380.36	0.222
380.58	0.162
380.80	0.435
381.01	0.147
381.23	0.119
381.44	0.146
381.66	0.172
381.88	0.227
382.09	-0.104
382.31	0.174
382.53	0.165
382.74	1.279
382.96	0.225
383.17	0.177
383.39	0.217
383.61	0.272
383.82	0.182
384.04	0.208
384.25	0.241
384.47	0.202
384.69	0.205
384.90	0.203
385.12	0.426
385.33	0.253
385.55	0.188
385.77	0.285
385.98	0.152
386.20	0.217
386.41	0.191
386.63	0.206
386.85	0.168
387.06	0.198
387.28	0.305
387.49	0.209
387.71	0.163
387.93	0.161
388.14	0.526
388.36	0.230
388.57	0.200
388.79	0.227
389.01	-0.000
389.22	0.310
389.44	0.256
389.65	0.213
389.87	0.210
390.08	0.252
390.30	0.178
390.52	0.331
390.73	0.329
390.95	0.227
391.16	0.218
391.38	-0.000
391.59	0.269
391.81	0.249
392.03	0.246
392.24	0.270
392.46	0.232
392.67	0.209
392.89	0.298
393.10	0.474
393.32	0.311
393.53	0.359
393.75	0.217
393.97	0.234
394.18	0.317
394.40	0.250
394.61	0.283
394.83	0.233
395.04	0.293
395.26	0.199
395.47	0.299
395.69	0.257
395.91	0.274
396.12	0.334
396.34	0.339
396.55	0.210
396.77	0.331
396.98	1.840
397.20	0.415
397.41	0.457
397.63	0.309
397.84	0.274
398.06	0.262
398.27	0.277
398.49	0.322
398.71	0.239
398.92	0.293
399.14	0.364
399.35	0.463
399.57	0.443
399.78	0.301
400.00	0.296
400.21	0.362
400.43	0.288
400.64	0.291
400.86	0.640
401.07	0.344
401.29	0.302
401.50	0.324
401.72	0.484
401.93	0.296
402.15	0.349
402.36	0.313
402.58	0.272
402.79	0.307
403.01	0.525
403.22	0.415
403.44	0.279
403.65	0.432
403.87	0.472
404.08	0.359
404.30	0.590
404.51	0.316
404.73	0.381
404.94	0.321
405.16	0.334
405.37	0.267
405.59	0.478
405.80	0.302
406.02	0.381
406.23	0.393
406.45	0.441
406.66	0.477
406.88	0.324
407.09	0.504
407.31	0.406
407.52	0.479
407.74	0.386
407.95	0.467
408.17	0.438
408.38	0.466
408.60	0.296
408.81	0.499
409.03	0.361
409.24	0.354
409.45	0.420
409.67	0.401
409.88	0.372
410.10	0.474
410.31	0.386
410.53	0.367
410.74	0.517
410.96	0.525
411.17	0.558
411.39	0.431
411.60	0.396
411.82	0.449
412.03	0.429
412.24	0.401
412.46	0.582
412.67	0.465
412.89	0.451
413.10	0.443
413.32	0.402
413.53	0.464
413.75	0.477
413.96	0.359
414.17	0.476
414.39	0.485
414.60	0.400
414.82	0.533
415.03	0.418
415.25	0.459
415.46	0.319
415.68	0.439
415.89	0.786
416.10	0.642
416.32	0.366
416.53	0.442
416.75	0.415
416.96	0.502
417.18	0.424
417.39	0.406
417.60	0.421
417.82	0.608
418.03	0.540
418.25	0.444
418.46	0.465
418.67	0.423
418.89	0.457
419.10	0.475
419.32	0.652
419.53	0.590
419.75	0.498
419.96	0.431
420.17	0.534
420.39	0.498
420.60	0.518
420.82	0.634
421.03	0.515
421.24	0.422
421.46	0.465
421.67	0.504
421.89	0.445
422.10	0.479
422.31	0.469
422.53	0.671
422.74	0.499
422.96	0.397
423.17	0.449
423.38	0.553
423.60	0.470
423.81	0.582
424.03	0.491
424.24	0.538
424.45	0.532
424.67	0.545
424.88	0.485
425.09	0.537
425.31	0.493
425.52	0.514
425.74	0.574
425.95	0.615
426.16	0.483
426.38	0.563
426.59	0.520
426.80	0.603
427.02	0.625
427.23	0.494
427.45	0.632
427.66	0.629
427.87	0.488
428.09	0.517
428.30	0.585
428.51	0.569
428.73	0.623
428.94	0.549
429.15	0.538
429.37	0.519
429.58	0.539
429.79	0.494
430.01	0.596
430.22	0.594
430.44	0.608
430.65	0.544
430.86	0.589
431.08	0.577
431.29	0.526
431.50	0.625
431.72	0.812
431.93	0.666
432.14	0.498
432.36	0.540
432.57	0.549
432.78	0.567
433.00	0.519
433.21	0.515
433.42	0.648
433.64	0.562
433.85	0.628
434.06	0.518
434.28	0.544
434.49	0.567
434.70	0.577
434.92	0.590
435.13	0.634
435.34	0.645
435.56	0.612
435.77	0.606
435.98	0.792
436.20	0.662
436.41	0.571
436.62	0.557
436.83	0.634
437.05	0.715
437.26	0.626
437.47	0.559
437.69	0.605
437.90	0.550
438.11	0.535
438.33	0.581
438.54	0.600
438.75	0.762
438.97	0.740
439.18	0.560
439.39	0.584
439.60	0.618
439.82	0.580
440.03	0.539
440.24	0.761
440.46	0.583
440.67	0.561
440.88	0.593
441.10	0.553
441.31	0.559
441.52	0.599
441.73	0.668
441.95	0.599
442.16	0.558
442.37	0.845
442.58	0.556
442.80	0.548
443.01	0.704
443.22	0.651
443.44	0.556
443.65	0.647
443.86	0.645
444.07	0.688
444.29	0.606
444.50	0.758
444.71	0.586
444.92	0.549
445.14	0.688
445.35	0.728
445.56	0.584
445.78	0.679
445.99	0.680
446.20	0.594
446.41	0.663
446.63	0.666
446.84	0.629
447.05	0.626
447.26	0.753
447.48	0.642
447.69	0.607
447.90	0.685
448.11	0.619
448.33	0.641
448.54	0.659
448.75	0.688
448.96	0.702
449.18	0.743
449.39	0.668
449.60	0.645
449.81	0.773
450.03	0.672
450.24	0.724
450.45	0.688
450.66	0.671
450.87	0.693
451.09	0.651
451.30	0.625
451.51	0.688
451.72	0.704
451.94	0.719
452.15	0.780
452.36	0.659
452.57	0.667
452.78	0.660
453.00	0.691
453.21	0.660
453.42	0.638
453.63	0.730
453.85	0.693
454.06	0.681
454.27	0.795
454.48	0.716
454.69	0.653
454.91	0.722
455.12	0.638
455.33	0.709
455.54	0.726
455.75	0.701
455.97	0.717
456.18	0.713
456.39	0.725
456.60	0.750
456.81	0.688
457.03	0.700
457.24	0.704
457.45	0.786
457.66	0.738
457.87	0.695
458.09	0.716
458.30	0.643
458.51	0.761
458.72	0.782
458.93	0.783
459.15	0.699
459.36	0.758
459.57	0.774
459.78	0.815
459.99	0.733
460.20	0.700
460.42	0.773
460.63	0.728
460.84	0.713
461.05	0.727
461.26	0.780
461.47	0.704
461.69	0.747
461.90	0.785
462.11	0.743
462.32	0.791
462.53	0.735
462.74	0.815
462.96	0.715
463.17	0.708
463.38	0.740
463.59	0.840
463.80	0.710
464.01	0.728
464.23	0.804
464.44	0.772
464.65	0.779
464.86	0.800
465.07	0.807
465.28	0.776
465.49	0.792
465.71	0.753
465.92	0.785
466.13	0.829
466.34	0.775
466.55	0.816
466.76	0.784
466.97	0.804
467.19	0.796
467.40	0.832
467.61	0.830
467.82	0.760
468.03	0.748
468.24	0.812
468.45	0.840
468.66	0.825
468.88	0.835
469.09	0.832
469.30	0.875
469.51	0.807
469.72	0.842
469.93	0.816
470.14	0.798
470.35	0.878
470.57	0.828
470.78	0.773
470.99	0.880
471.20	0.828
471.41	0.792
471.62	0.833
471.83	0.805
472.04	0.828
472.25	0.861
472.47	0.790
472.68	0.796
472.89	0.802
473.10	0.837
473.31	0.799
473.52	0.850
473.73	0.869
473.94	0.805
474.15	0.826
474.36	0.827
474.57	0.852
474.79	0.830
475.00	0.826
475.21	0.815
475.42	0.892
475.63	0.810
475.84	0.837
476.05	0.840
476.26	0.817
476.47	0.845
476.68	0.884
476.89	0.823
477.10	0.867
477.32	0.859
477.53	0.905
477.74	0.837
477.95	0.872
478.16	0.826
478.37	0.864
478.58	0.866
478.79	0.880
479.00	0.878
479.21	0.845
479.42	0.873
479.63	0.875
479.84	0.844
480.05	0.843
480.26	0.867
480.47	0.884
480.69	0.882
480.90	0.856
481.11	0.855
481.32	0.905
481.53	0.855
481.74	0.902
481.95	0.873
482.16	0.887
482.37	0.893
482.58	0.865
482.79	0.878
483.00	0.907
483.21	0.859
483.42	0.837
483.63	0.898
483.84	0.920
484.05	0.911
484.26	0.889
484.47	0.889
484.68	0.857
484.89	0.861
485.10	0.901
485.31	0.883
485.52	0.889
485.73	0.889
485.94	0.927
486.15	0.884
486.37	0.897
486.58	0.866
486.79	0.878
487.00	0.919
487.21	0.911
487.42	0.907
487.63	0.910
487.84	0.926
488.05	0.921
488.26	0.888
488.47	0.892
488.68	0.916
488.89	0.895
489.10	0.890
489.31	0.899
489.52	0.928
489.73	0.899
489.94	0.929
490.15	0.892
490.36	0.925
490.57	0.883
490.78	0.867
490.99	0.896
491.20	0.958
491.41	0.921
491.62	0.877
491.83	0.900
492.04	0.897
492.25	0.904
492.45	0.904
492.66	0.922
492.87	0.913
493.08	0.906
493.29	0.894
493.50	0.887
493.71	0.893
493.92	0.889
494.13	0.901
494.34	0.917
494.55	0.922
494.76	0.944
494.97	0.941
495.18	0.913
495.39	0.926
495.60	0.888
495.81	0.891
496.02	0.909
496.23	0.904
496.44	0.927
496.65	0.921
496.86	0.923
497.07	0.948
497.28	0.942
497.49	0.903
497.70	0.906
497.91	0.922
498.12	0.907
498.32	0.940
498.53	0.928
498.74	0.920
498.95	0.939
499.16	0.903
499.37	0.905
499.58	0.915
499.79	0.938
500.00	0.934
500.21	0.955
500.42	0.910
500.63	0.909
500.84	0.923
501.05	0.908
501.26	0.930
501.46	0.960
501.67	0.929
501.88	0.929
502.09	0.910
502.30	0.915
502.51	0.953
502.72	0.921
502.93	0.935
503.14	0.952
503.35	0.930
503.56	0.926
503.77	0.949
503.97	0.933
504.18	0.933
504.39	0.960
504.60	0.936
504.81	0.957
505.02	0.949
505.23	0.951
505.44	0.936
505.65	0.941
505.86	0.926
506.07	0.978
506.27	0.944
506.48	0.949
506.69	0.937
506.90	0.953
507.11	0.950
507.32	0.930
507.53	0.937
507.74	0.932
507.95	0.942
508.15	0.948
508.36	0.951
508.57	0.962
508.78	0.948
508.99	0.948
509.20	0.930
509.41	0.950
509.62	0.941
509.82	0.938
510.03	0.947
510.24	0.948
510.45	0.965
510.66	0.958
510.87	0.953
511.08	0.923
511.29	0.955
511.49	0.936
511.70	0.973
511.91	0.921
512.12	0.919
512.33	0.944
512.54	0.956
512.75	0.943
512.95	0.964
513.16	0.956
513.37	0.937
513.58	0.963
513.79	0.937
514.00	0.941
514.20	0.955
514.41	0.946
514.62	0.919
514.83	0.949
515.04	0.941
515.25	0.926
515.46	0.937
515.66	0.937
515.87	0.949
516.08	0.924
516.29	0.942
516.50	0.926
516.71	0.921
516.91	0.931
517.12	0.946
517.33	0.934
517.54	0.923
517.75	0.924
517.95	0.933
518.16	0.940
518.37	0.913
518.58	0.918
518.79	0.898
519.00	0.922
519.20	0.928
519.41	0.906
519.62	0.921
519.83	0.929
520.04	0.901
520.24	0.900
520.45	0.907
520.66	0.925
520.87	0.894
521.08	0.893
521.28	0.897
521.49	0.909
521.70	0.887
521.91	0.898
522.12	0.883
522.32	0.901
522.53	0.886
522.74	0.877
522.95	0.884
523.16	0.886
523.36	0.893
523.57	0.877
523.78	0.871
523.99	0.874
524.20	0.867
524.40	0.878
524.61	0.881
524.82	0.861
525.03	0.864
525.23	0.864
525.44	0.850
525.65	0.848
525.86	0.866
526.06	0.844
526.27	0.845
526.48	0.853
526.69	0.839
526.90	0.841
527.10	0.869
527.31	0.833
527.52	0.827
527.73	0.821
527.93	0.830
528.14	0.833
528.35	0.825
528.56	0.824
528.76	0.819
528.97	0.810
529.18	0.804
529.39	0.803
529.59	0.805
529.80	0.829
530.01	0.808
530.22	0.806
530.42	0.781
530.63	0.795
530.84	0.777
531.05	0.787
531.25	0.789
531.46	0.783
531.67	0.766
531.88	0.782
532.08	0.777
532.29	0.772
532.50	0.767
532.70	0.761
532.91	0.752
533.12	0.754
533.33	0.773
533.53	0.748
533.74	0.748
533.95	0.753
534.15	0.742
534.36	0.742
534.57	0.728
534.78	0.729
534.98	0.737
535.19	0.714
535.40	0.714
535.60	0.729
535.81	0.713
536.02	0.714
536.23	0.707
536.43	0.708
536.64	0.698
536.85	0.704
537.05	0.710
537.26	0.692
537.47	0.695
537.67	0.686
537.88	0.682
538.09	0.688
538.30	0.679
538.50	0.671
538.71	0.680
538.92	0.669
539.12	0.666
539.33	0.662
539.54	0.662
539.74	0.666
539.95	0.657
540.16	0.655
540.36	0.648
540.57	0.648
540.78	0.643
540.98	0.641
541.19	0.639
541.40	0.629
541.60	0.637
541.81	0.631
542.02	0.631
542.22	0.622
542.43	0.618
542.64	0.614
542.84	0.613
543.05	0.606
543.26	0.605
543.46	0.607
543.67	0.606
543.88	0.603
544.08	0.595
544.29	0.590
544.50	0.591
544.70	0.591
544.91	0.583
545.12	0.584
545.32	0.580
545.53	0.584
545.74	0.574
545.94	0.571
546.15	0.569
546.35	0.565
546.56	0.563
546.77	0.560
546.97	0.558
547.18	0.552
547.39	0.552
547.59	0.550
547.80	0.546
548.01	0.549
548.21	0.545
548.42	0.538
548.62	0.538
548.83	0.535
549.04	0.532
549.24	0.525
549.45	0.525
549.65	0.522
549.86	0.520
550.07	0.519
550.27	0.517
550.48	0.524
550.69	0.511
550.89	0.511
551.10	0.507
551.30	0.506
551.51	0.507
551.72	0.498
551.92	0.499
552.13	0.498
552.33	0.499
552.54	0.494
552.75	0.488
552.95	0.490
553.16	0.486
553.36	0.485
553.57	0.483
553.78	0.481
553.98	0.481
554.19	0.473
554.39	0.470
554.60	0.473
554.80	0.474
555.01	0.467
555.22	0.469
555.42	0.466
555.63	0.460
555.83	0.463
556.04	0.457
556.25	0.459
556.45	0.451
556.66	0.449
556.86	0.451
557.07	0.448
557.27	0.447
557.48	0.442
557.68	0.440
557.89	0.441
558.10	0.437
558.30	0.435
558.51	0.434
558.71	0.432
558.92	0.428
559.12	0.429
559.33	0.432
559.54	0.428
559.74	0.424
559.95	0.422
560.15	0.421
560.36	0.420
560.56	0.414
560.77	0.415
560.97	0.415
561.18	0.410
561.38	0.410
561.59	0.412
561.79	0.408
562.00	0.405
562.21	0.403
562.41	0.402
562.62	0.401
562.82	0.400
563.03	0.397
563.23	0.396
563.44	0.396
563.64	0.394
563.85	0.395
564.05	0.390
564.26	0.389
564.46	0.388
564.67	0.389
564.87	0.384
565.08	0.381
565.28	0.381
565.49	0.382
565.69	0.379
565.90	0.375
566.10	0.378
566.31	0.372
566.51	0.374
566.72	0.375
566.92	0.369
567.13	0.369
567.33	0.368
567.54	0.367
567.74	0.366
567.95	0.363
568.15	0.364
568.36	0.363
568.56	0.362
568.77	0.358
568.97	0.356
569.18	0.356
569.38	0.355
569.59	0.355
569.79	0.353
570.00	0.351
570.20	0.349
570.41	0.348
570.61	0.347
570.82	0.347
571.02	0.344
571.23	0.345
571.43	0.341
571.64	0.339
571.84	0.339
572.05	0.338
572.25	0.337
572.45	0.335
572.66	0.333
572.86	0.332
573.07	0.332
573.27	0.332
573.48	0.331
573.68	0.328
573.89	0.329
574.09	0.329
574.30	0.327
574.50	0.326
574.70	0.327
574.91	0.325
575.11	0.325
575.32	0.324
575.52	0.320
575.73	0.320
575.93	0.320
576.14	0.318
576.34	0.316
576.54	0.315
576.75	0.313
576.95	0.312
577.16	0.310
577.36	0.309
577.57	0.308
577.77	0.307
577.97	0.304
578.18	0.306
578.38	0.303
578.59	0.302
578.79	0.301
579.00	0.301
579.20	0.300
579.40	0.299
579.61	0.299
579.81	0.298
580.02	0.296
580.22	0.296
580.42	0.295
580.63	0.295
580.83	0.294
581.04	0.292
581.24	0.291
581.45	0.290
581.65	0.290
581.85	0.289
582.06	0.287
582.26	0.287
582.47	0.286
582.67	0.285
582.87	0.284
583.08	0.282
583.28	0.283
583.48	0.282
583.69	0.279
583.89	0.280
584.10	0.281
584.30	0.279
584.50	0.278
584.71	0.277
584.91	0.277
585.12	0.275
585.32	0.275
585.52	0.273
585.73	0.272
585.93	0.272
586.13	0.271
586.34	0.271
586.54	0.269
586.75	0.268
586.95	0.267
587.15	0.267
587.36	0.266
587.56	0.265
587.76	0.264
587.97	0.263
588.17	0.261
588.37	0.261
588.58	0.261
588.78	0.259
588.98	0.260
589.19	0.258
589.39	0.256
589.60	0.258
589.80	0.255
590.00	0.255
590.21	0.255
590.41	0.254
590.61	0.254
590.82	0.253
591.02	0.252
591.22	0.250
591.43	0.251
591.63	0.249
591.83	0.249
592.04	0.248
592.24	0.249
592.44	0.246
592.65	0.245
592.85	0.245
593.05	0.245
593.26	0.243
593.46	0.244
593.66	0.243
593.86	0.242
594.07	0.241
594.27	0.240
594.47	0.239
594.68	0.239
594.88	0.240
595.08	0.239
595.29	0.239
595.49	0.237
595.69	0.236
595.90	0.236
596.10	0.236
596.30	0.235
596.50	0.234
596.71	0.234
596.91	0.234
597.11	0.233
597.32	0.233
597.52	0.232
597.72	0.231
597.93	0.230
598.13	0.229
598.33	0.229
598.53	0.228
598.74	0.228
598.94	0.227
599.14	0.226
599.35	0.227
599.55	0.227
599.75	0.226
599.95	0.225
600.16	0.226
600.36	0.224
600.56	0.225
600.76	0.224
600.97	0.222
601.17	0.221
601.37	0.222
601.58	0.221
601.78	0.220
601.98	0.220
602.18	0.219
602.39	0.219
602.59	0.219
602.79	0.218
602.99	0.218
603.20	0.217
603.40	0.217
603.60	0.217
603.80	0.216
604.01	0.216
604.21	0.215
604.41	0.214
604.61	0.213
604.82	0.213
605.02	0.213
605.22	0.212
605.42	0.212
605.62	0.212
605.83	0.211
606.03	0.210
606.23	0.210
606.43	0.210
606.64	0.209
606.84	0.209
607.04	0.208
607.24	0.208
607.45	0.209
607.65	0.207
607.85	0.208
608.05	0.206
608.25	0.205
608.46	0.205
608.66	0.205
608.86	0.204
609.06	0.203
609.26	0.202
609.47	0.203
609.67	0.201
609.87	0.202
610.07	0.201
610.28	0.200
610.48	0.200
610.68	0.201
610.88	0.199
611.08	0.200
611.29	0.199
611.49	0.198
611.69	0.199
611.89	0.197
612.09	0.197
612.29	0.197
612.50	0.196
612.70	0.196
612.90	0.195
613.10	0.194
613.30	0.194
613.51	0.194
613.71	0.194
613.91	0.198
614.11	0.193
614.31	0.193
614.51	0.192
614.72	0.191
614.92	0.191
615.12	0.191
615.32	0.191
615.52	0.191
615.72	0.191
615.93	0.191
616.13	0.190
616.33	0.190
616.53	0.189
616.73	0.190
616.93	0.188
617.14	0.189
617.34	0.189
617.54	0.189
617.74	0.189
617.94	0.188
618.14	0.187
618.34	0.186
618.55	0.186
618.75	0.187
618.95	0.186
619.15	0.186
619.35	0.185
619.55	0.185
619.75	0.185
619.96	0.184
620.16	0.184
620.36	0.184
620.56	0.184
620.76	0.184
620.96	0.184
621.16	0.184
621.36	0.183
621.57	0.183
621.77	0.183
621.97	0.182
622.17	0.182
622.37	0.182
622.57	0.182
622.77	0.181
622.97	0.180
623.18	0.180
623.38	0.180
623.58	0.180
623.78	0.180
623.98	0.179
624.18	0.179
624.38	0.179
624.58	0.179
624.78	0.179
624.98	0.179
625.19	0.180
625.39	0.179
625.59	0.178
625.79	0.178
625.99	0.178
626.19	0.178
626.39	0.177
626.59	0.177
626.79	0.177
626.99	0.177
627.19	0.176
627.40	0.177
627.60	0.176
627.80	0.176
628.00	0.177
628.20	0.176
628.40	0.175
628.60	0.175
628.80	0.174
629.00	0.174
629.20	0.173
629.40	0.173
629.60	0.171
629.80	0.172
630.00	0.172
630.20	0.171
630.41	0.170
630.61	0.170
630.81	0.170
631.01	0.171
631.21	0.170
631.41	0.170
631.61	0.170
631.81	0.170
632.01	0.169
632.21	0.170
632.41	0.169
632.61	0.169
632.81	0.169
633.01	0.170
633.21	0.169
633.41	0.170
633.61	0.168
633.81	0.168
634.01	0.167
634.21	0.167
634.41	0.167
634.61	0.167
634.81	0.166
635.01	0.165
635.22	0.165
635.42	0.165
635.62	0.165
635.82	0.166
636.02	0.165
636.22	0.165
636.42	0.164
636.62	0.165
636.82	0.164
637.02	0.164
637.22	0.164
637.42	0.163
637.62	0.162
637.82	0.162
638.02	0.162
638.22	0.161
638.42	0.161
638.62	0.161
638.82	0.161
639.02	0.161
639.22	0.161
639.42	0.161
639.62	0.161
639.82	0.160
640.02	0.161
640.22	0.160
640.42	0.160
640.62	0.160
640.82	0.160
641.02	0.159
641.22	0.159
641.42	0.158
641.61	0.158
641.81	0.159
642.01	0.159
642.21	0.159
642.41	0.158
642.61	0.158
642.81	0.157
643.01	0.157
643.21	0.157
643.41	0.157
643.61	0.157
643.81	0.156
644.01	0.155
644.21	0.154
644.41	0.154
644.61	0.154
644.81	0.154
645.01	0.155
645.21	0.154
645.41	0.154
645.61	0.153
645.81	0.153
646.01	0.152
646.21	0.153
646.40	0.153
646.60	0.153
646.80	0.153
647.00	0.153
647.20	0.152
647.40	0.152
647.60	0.152
647.80	0.152
648.00	0.152
648.20	0.152
648.40	0.151
648.60	0.151
648.80	0.151
649.00	0.150
649.20	0.151
649.39	0.150
649.59	0.149
649.79	0.149
649.99	0.148
650.19	0.148
650.39	0.148
650.59	0.148
650.79	0.148
650.99	0.148
651.19	0.147
651.39	0.147
651.58	0.147
651.78	0.147
651.98	0.147
652.18	0.147
652.38	0.146
652.58	0.146
652.78	0.146
652.98	0.145
653.18	0.145
653.38	0.146
653.57	0.145
653.77	0.145
653.97	0.144
654.17	0.144
654.37	0.144
654.57	0.144
654.77	0.144
654.97	0.143
655.16	0.143
655.36	0.143
655.56	0.142
655.76	0.142
655.96	0.142
656.16	0.141
656.36	0.141
656.56	0.141
656.75	0.141
656.95	0.140
657.15	0.140
657.35	0.140
657.55	0.139
657.75	0.140
657.95	0.140
658.14	0.140
658.34	0.139
658.54	0.139
658.74	0.139
658.94	0.139
659.14	0.139
659.34	0.138
659.53	0.138
659.73	0.138
659.93	0.137
660.13	0.137
660.33	0.137
660.53	0.137
660.72	0.137
660.92	0.137
661.12	0.136
661.32	0.136
661.52	0.136
661.72	0.135
661.91	0.135
662.11	0.135
662.31	0.135
662.51	0.135
662.71	0.135
662.90	0.134
663.10	0.133
663.30	0.133
663.50	0.133
663.70	0.133
663.90	0.133
664.09	0.133
664.29	0.132
664.49	0.131
664.69	0.131
664.89	0.131
665.08	0.131
665.28	0.130
665.48	0.131
665.68	0.130
665.88	0.130
666.07	0.130
666.27	0.130
666.47	0.130
666.67	0.130
666.87	0.130
667.06	0.129
667.26	0.129
667.46	0.129
667.66	0.129
667.85	0.129
668.05	0.129
668.25	0.129
668.45	0.129
668.65	0.129
668.84	0.128
669.04	0.128
669.24	0.128
669.44	0.127
669.63	0.127
669.83	0.126
670.03	0.126
670.23	0.125
670.42	0.125
670.62	0.125
670.82	0.124
671.02	0.124
671.22	0.123
671.41	0.123
671.61	0.123
671.81	0.123
672.01	0.123
672.20	0.123
672.40	0.122
672.60	0.122
672.80	0.122
672.99	0.122
673.19	0.121
673.39	0.121
673.58	0.121
673.78	0.121
673.98	0.121
674.18	0.120
674.37	0.120
674.57	0.120
674.77	0.120
674.97	0.120
675.16	0.120
675.36	0.119
675.56	0.119
675.75	0.119
675.95	0.118
676.15	0.118
676.35	0.118
676.54	0.118
676.74	0.118
676.94	0.118
677.13	0.118
677.33	0.117
677.53	0.118
677.73	0.117
677.92	0.117
678.12	0.117
678.32	0.117
678.51	0.116
678.71	0.116
678.91	0.116
679.11	0.115
679.30	0.115
679.50	0.115
679.70	0.114
679.89	0.114
680.09	0.115
680.29	0.114
680.48	0.114
680.68	0.114
680.88	0.114
681.07	0.114
681.27	0.114
681.47	0.114
681.66	0.114
681.86	0.113
682.06	0.113
682.25	0.113
682.45	0.113
682.65	0.112
682.84	0.112
683.04	0.111
683.24	0.111
683.43	0.112
683.63	0.111
683.83	0.111
684.02	0.111
684.22	0.110
684.42	0.110
684.61	0.110
684.81	0.110
685.01	0.110
685.20	0.109
685.40	0.109
685.60	0.109
685.79	0.109
685.99	0.109
686.19	0.109
686.38	0.108
686.58	0.109
686.77	0.109
686.97	0.108
687.17	0.108
687.36	0.108
687.56	0.108
687.76	0.107
687.95	0.108
688.15	0.107
688.34	0.107
688.54	0.107
688.74	0.107
688.93	0.106
689.13	0.107
689.33	0.107
689.52	0.106
689.72	0.106
689.91	0.106
690.11	0.105
690.31	0.105
690.50	0.105
690.70	0.105
690.89	0.105
691.09	0.104
691.29	0.104
691.48	0.103
691.68	0.103
691.87	0.103
692.07	0.103
692.27	0.103
692.46	0.103
692.66	0.102
692.85	0.102
693.05	0.102
693.25	0.102
693.44	0.102
693.64	0.102
693.83	0.102
694.03	0.101
694.22	0.101
694.42	0.101
694.62	0.101
694.81	0.101
695.01	0.102
695.20	0.102
695.40	0.101
695.59	0.101
695.79	0.101
695.99	0.101
696.18	0.101
696.38	0.101
696.57	0.100
696.77	0.100
696.96	0.100
697.16	0.100
697.36	0.099
697.55	0.099
697.75	0.099
697.94	0.099
698.14	0.099
698.33	0.099
698.53	0.098
698.72	0.098
698.92	0.098
699.11	0.098
699.31	0.098
699.51	0.098
699.70	0.097
699.90	0.097
700.09	0.097
700.29	0.097
700.48	0.097
700.68	0.097
700.87	0.097
701.07	0.097
701.26	0.096
701.46	0.096
701.65	0.096
701.85	0.096
702.04	0.096
702.24	0.096
702.43	0.096
702.63	0.096
702.82	0.096
703.02	0.095
703.21	0.095
703.41	0.095
703.60	0.095
703.80	0.094
703.99	0.094
704.19	0.094
704.38	0.094
704.58	0.093
704.77	0.093
704.97	0.092
705.16	0.093
705.36	0.093
705.55	0.093
705.75	0.093
705.94	0.093
706.14	0.093
706.33	0.093
706.53	0.093
706.72	0.093
706.92	0.092
707.11	0.093
707.31	0.092
707.50	0.092
707.70	0.092
707.89	0.092
708.09	0.092
708.28	0.092
708.48	0.092
708.67	0.092
708.86	0.092
709.06	0.092
709.25	0.091
709.45	0.092
709.64	0.091
709.84	0.091
710.03	0.091
710.23	0.091
710.42	0.090
710.62	0.090
710.81	0.090
711.00	0.090
711.20	0.090
711.39	0.090
711.59	0.090
711.78	0.090
711.98	0.090
712.17	0.090
712.37	0.090
712.56	0.090
712.75	0.090
712.95	0.090
713.14	0.090
713.34	0.090
713.53	0.091
713.73	0.091
713.92	0.091
714.11	0.091
714.31	0.091
714.50	0.090
714.70	0.091
714.89	0.090
715.08	0.090
715.28	0.090
715.47	0.090
715.67	0.089
715.86	0.089
716.06	0.089
716.25	0.089
716.44	0.089
716.64	0.089
716.83	0.088
717.03	0.088
717.22	0.088
717.41	0.088
717.61	0.088
717.80	0.088
717.99	0.088
718.19	0.088
718.38	0.088
718.58	0.087
718.77	0.087
718.96	0.087
719.16	0.087
719.35	0.087
719.55	0.086
719.74	0.086
719.93	0.086
720.13	0.086
720.32	0.086
720.51	0.086
720.71	0.086
720.90	0.086
721.10	0.086
721.29	0.086
721.48	0.086
721.68	0.086
721.87	0.085
722.06	0.085
722.26	0.086
722.45	0.086
722.64	0.086
722.84	0.086
723.03	0.086
723.22	0.086
723.42	0.086
723.61	0.086
723.80	0.086
724.00	0.086
724.19	0.086
724.38	0.086
724.58	0.086
724.77	0.086
724.96	0.086
725.16	0.086
725.35	0.086
725.54	0.086
725.74	0.086
725.93	0.086
726.12	0.086
726.32	0.086
726.51	0.086
726.70	0.086
726.90	0.086
727.09	0.086
727.28	0.086
727.48	0.086
727.67	0.086
727.86	0.086
728.06	0.086
728.25	0.086
728.44	0.086
728.64	0.085
728.83	0.085
729.02	0.085
729.21	0.086
729.41	0.085
729.60	0.084
729.79	0.084
729.99	0.084
730.18	0.085
730.37	0.085
730.56	0.085
730.76	0.084
730.95	0.085
731.14	0.085
731.34	0.085
731.53	0.085
731.72	0.085
731.91	0.085
732.11	0.085
732.30	0.085
732.49	0.085
732.69	0.085
732.88	0.086
733.07	0.085
733.26	0.086
733.46	0.085
733.65	0.085
733.84	0.085
734.03	0.085
734.23	0.085
734.42	0.085
734.61	0.085
734.80	0.085
735.00	0.085
735.19	0.085
735.38	0.085
735.57	0.085
735.77	0.085
735.96	0.085
736.15	0.085
736.34	0.085
736.54	0.085
736.73	0.085
736.92	0.085
737.11	0.085
737.31	0.085
737.50	0.085
737.69	0.085
737.88	0.085
738.07	0.085
738.27	0.085
738.46	0.085
738.65	0.085
738.84	0.085
739.04	0.085
739.23	0.084
739.42	0.085
739.61	0.085
739.80	0.084
740.00	0.084
740.19	0.084
740.38	0.085
740.57	0.084
740.76	0.084
740.96	0.084
741.15	0.084
741.34	0.084
741.53	0.084
741.72	0.084
741.92	0.084
742.11	0.084
742.30	0.084
742.49	0.084
742.68	0.084
742.88	0.084
743.07	0.084
743.26	0.084
743.45	0.084
743.64	0.083
743.84	0.083
744.03	0.083
744.22	0.083
744.41	0.083
744.60	0.082
744.79	0.082
744.99	0.082
745.18	0.082
745.37	0.082
745.56	0.082
745.75	0.082
745.94	0.082
746.14	0.082
746.33	0.082
746.52	0.082
746.71	0.082
746.90	0.082
747.09	0.082
747.28	0.082
747.48	0.082
747.67	0.082
747.86	0.081
748.05	0.082
748.24	0.081
748.43	0.081
748.62	0.081
748.82	0.081
749.01	0.081
749.20	0.080
749.39	0.080
749.58	0.081
749.77	0.080
749.96	0.080
750.16	0.081
750.35	0.080
750.54	0.080
750.73	0.081
750.92	0.081
751.11	0.080
751.30	0.081
751.49	0.081
751.68	0.080
751.88	0.080
752.07	0.080
752.26	0.080
752.45	0.080
752.64	0.080
752.83	0.080
753.02	0.080
753.21	0.080
753.40	0.079
753.60	0.080
753.79	0.080
753.98	0.080
754.17	0.080
754.36	0.080
754.55	0.080
754.74	0.080
754.93	0.079
755.12	0.079
755.31	0.080
755.50	0.079
755.70	0.079
755.89	0.079
756.08	0.079
756.27	0.079
756.46	0.079
756.65	0.078
756.84	0.078
757.03	0.079
757.22	0.078
757.41	0.078
757.60	0.078
757.79	0.078
757.98	0.078
758.17	0.078
758.36	0.078
758.56	0.078
758.75	0.078
758.94	0.078
759.13	0.078
759.32	0.078
759.51	0.078
759.70	0.078
759.89	0.078
760.08	0.077
760.27	0.077
760.46	0.077
760.65	0.077
760.84	0.078
761.03	0.077
761.22	0.077
761.41	0.077
761.60	0.077
761.79	0.077
761.98	0.077
762.17	0.077
762.36	0.077
762.55	0.077
762.74	0.077
762.93	0.077
763.12	0.077
763.31	0.076
763.50	0.076
763.69	0.076
763.88	0.076
764.07	0.076
764.26	0.077
764.45	0.077
764.64	0.077
764.83	0.076
765.02	0.076
765.21	0.076
765.40	0.077
765.59	0.076
765.78	0.077
765.97	0.077
766.16	0.076
766.35	0.076
766.54	0.076
766.73	0.076
766.92	0.076
767.11	0.076
767.30	0.076
767.49	0.076
767.68	0.076
767.87	0.075
768.06	0.075
768.25	0.075
768.44	0.076
768.63	0.076
768.82	0.075
769.01	0.075
769.20	0.075
769.39	0.075
769.58	0.075
769.77	0.075
769.96	0.075
770.15	0.075
770.34	0.075
770.53	0.074
770.72	0.074
770.91	0.074
771.10	0.075
771.29	0.074
771.47	0.074
771.66	0.074
771.85	0.074
772.04	0.074
772.23	0.074
772.42	0.074
772.61	0.074
772.80	0.074
772.99	0.074
773.18	0.073
773.37	0.074
773.56	0.074
773.75	0.074
773.94	0.074
774.13	0.073
774.31	0.073
774.50	0.073
774.69	0.074
774.88	0.074
775.07	0.074
775.26	0.074
775.45	0.073
775.64	0.073
775.83	0.073
776.02	0.073
776.21	0.073
776.40	0.073
776.58	0.073
776.77	0.073
776.96	0.073
777.15	0.073
777.34	0.074
777.53	0.074
777.72	0.074
777.91	0.074
778.10	0.074
778.28	0.074
778.47	0.074
778.66	0.074
778.85	0.073
779.04	0.073
779.23	0.073
779.42	0.073
779.61	0.073
779.79	0.073
779.98	0.073
780.17	0.073
780.36	0.072
780.55	0.071
780.74	0.071
780.93	0.071
781.12	0.071
781.30	0.071
781.49	0.071
781.68	0.071
781.87	0.071
782.06	0.071
782.25	0.070
782.44	0.071
782.62	0.071
782.81	0.072
783.00	0.072
783.19	0.072
783.38	0.072
783.57	0.072
783.75	0.071
783.94	0.072
784.13	0.072
784.32	0.072
784.51	0.071
784.70	0.071
784.88	0.071
785.07	0.071
785.26	0.071
785.45	0.071
785.64	0.071
785.83	0.071
786.01	0.071
786.20	0.071
786.39	0.071
786.58	0.071
786.77	0.070
786.95	0.070
787.14	0.070
787.33	0.070
787.52	0.070
787.71	0.070
787.90	0.070
788.08	0.069
788.27	0.069
788.46	0.069
788.65	0.069
788.84	0.069
789.02	0.070
789.21	0.070
789.40	0.070
789.59	0.070
789.77	0.070
789.96	0.070
790.15	0.070
790.34	0.070
790.53	0.070
790.71	0.070
790.90	0.070
791.09	0.069
791.28	0.070
791.46	0.070
791.65	0.070
791.84	0.070
792.03	0.069
792.22	0.069
792.40	0.070
792.59	0.070
792.78	0.070
792.97	0.070
793.15	0.070
793.34	0.070
793.53	0.070
793.72	0.069
793.90	0.069
794.09	0.070
794.28	0.069
794.47	0.069
794.65	0.069
794.84	0.069
795.03	0.069
795.22	0.069
795.40	0.069
795.59	0.069
795.78	0.069
795.97	0.069
796.15	0.069
796.34	0.069
796.53	0.069
796.71	0.069
796.90	0.069
797.09	0.070
797.28	0.070
797.46	0.070
797.65	0.069
797.84	0.069
798.02	0.069
798.21	0.069
798.40	0.069
798.59	0.069
798.77	0.069
798.96	0.068
799.15	0.068
799.33	0.068
799.52	0.067
799.71	0.067
799.90	0.068
800.08	0.068
800.27	0.068
800.46	0.067
800.64	0.067
800.83	0.067
801.02	0.068
801.20	0.068
801.39	0.068
801.58	0.068
801.76	0.068
801.95	0.068
802.14	0.068
802.32	0.068
802.51	0.068
802.70	0.068
802.88	0.068
803.07	0.068
803.26	0.068
803.44	0.067
803.63	0.068
803.82	0.067
804.00	0.067
804.19	0.068
804.38	0.068
804.56	0.068
804.75	0.068
804.94	0.068
805.12	0.068
805.31	0.068
805.50	0.068
805.68	0.068
805.87	0.068
806.06	0.067
806.24	0.067
806.43	0.067
806.62	0.067
806.80	0.067
806.99	0.067
807.17	0.067
807.36	0.067
807.55	0.067
807.73	0.067
807.92	0.067
808.11	0.067
808.29	0.067
808.48	0.067
808.66	0.067
808.85	0.066
809.04	0.066
809.22	0.066
809.41	0.066
809.59	0.066
809.78	0.066
809.97	0.066
810.15	0.066
810.34	0.066
810.53	0.066
810.71	0.065
810.90	0.066
811.08	0.066
811.27	0.066
811.45	0.066
811.64	0.066
811.83	0.066
812.01	0.066
812.20	0.066
812.38	0.066
812.57	0.066
812.76	0.066
812.94	0.066
813.13	0.066
813.31	0.066
813.50	0.066
813.68	0.066
813.87	0.066
814.06	0.066
814.24	0.066
814.43	0.066
814.61	0.066
814.80	0.066
814.98	0.066
815.17	0.066
815.36	0.066
815.54	0.066
815.73	0.066
815.91	0.066
816.10	0.066
816.28	0.066
816.47	0.066
816.65	0.066
816.84	0.066
817.03	0.066
817.21	0.067
817.40	0.067
817.58	0.066
817.77	0.067
817.95	0.067
818.14	0.067
818.32	0.067
818.51	0.067
818.69	0.067
818.88	0.067
819.06	0.067
819.25	0.067
819.43	0.066
819.62	0.067
819.80	0.066
819.99	0.066
820.18	0.066
820.36	0.066
820.55	0.066
820.73	0.066
820.92	0.066
821.10	0.066
821.29	0.066
821.47	0.066
821.66	0.066
821.84	0.066
822.03	0.066
822.21	0.066
822.40	0.066
822.58	0.066
822.77	0.066
822.95	0.067
823.14	0.067
823.32	0.067
823.50	0.067
823.69	0.067
823.87	0.068
824.06	0.068
824.24	0.068
824.43	0.068
824.61	0.068
824.80	0.068
824.98	0.068
825.17	0.068
825.35	0.068
825.54	0.068
825.72	0.068
825.91	0.068
826.09	0.068
826.28	0.068
826.46	0.068
826.64	0.068
826.83	0.068
827.01	0.068
827.20	0.068
827.38	0.068
827.57	0.069
827.75	0.069
827.94	0.069
828.12	0.069
828.31	0.069
828.49	0.069
828.67	0.069
828.86	0.069
829.04	0.069
829.23	0.070
829.41	0.070
829.60	0.070
829.78	0.070
829.96	0.071
830.15	0.071
830.33	0.071
830.52	0.071
830.70	0.071
830.88	0.071
831.07	0.071
831.25	0.071
831.44	0.071
831.62	0.071
831.81	0.071
831.99	0.071
832.17	0.071
832.36	0.071
832.54	0.071
832.73	0.071
832.91	0.071
833.09	0.071
833.28	0.071
833.46	0.071
833.65	0.072
833.83	0.072
834.01	0.072
834.20	0.072
834.38	0.072
834.56	0.072
834.75	0.072
834.93	0.072
835.12	0.072
835.30	0.072
835.48	0.072
835.67	0.072
835.85	0.072
836.03	0.072
836.22	0.072
836.40	0.072
836.59	0.072
836.77	0.072
836.95	0.072
837.14	0.072
837.32	0.072
837.50	0.072
837.69	0.072
837.87	0.072
838.05	0.073
838.24	0.073
838.42	0.072
838.60	0.073
838.79	0.074
838.97	0.073
839.15	0.074
839.34	0.074
839.52	0.074
839.70	0.074
839.89	0.074
840.07	0.074
840.25	0.074
840.44	0.074
840.62	0.074
840.80	0.073
840.99	0.073
841.17	0.073
841.35	0.073
841.54	0.073
841.72	0.073
841.90	0.073
842.09	0.073
842.27	0.073
842.45	0.073
842.64	0.074
842.82	0.074
843.00	0.074
843.19	0.074
843.37	0.074
843.55	0.073
843.73	0.074
843.92	0.073
844.10	0.073
844.28	0.074
844.47	0.074
844.65	0.073
844.83	0.074
845.01	0.074
845.20	0.074
845.38	0.074
845.56	0.074
845.75	0.074
845.93	0.074
846.11	0.074
846.29	0.074
846.48	0.074
846.66	0.075
846.84	0.074
847.02	0.074
847.21	0.074
847.39	0.074
847.57	0.074
847.76	0.074
847.94	0.074
848.12	0.074
848.30	0.074
848.49	0.074
848.67	0.074
848.85	0.074
849.03	0.074
849.22	0.074
849.40	0.074
849.58	0.074
849.76	0.075
849.95	0.075
850.13	0.075
850.31	0.075
850.49	0.075
850.67	0.075
850.86	0.075
851.04	0.075
851.22	0.074
851.40	0.074
851.59	0.074
851.77	0.074
851.95	0.074
852.13	0.074
852.31	0.074
852.50	0.074
852.68	0.075
852.86	0.074
853.04	0.074
853.23	0.074
853.41	0.074
853.59	0.074
853.77	0.075
853.95	0.075
854.14	0.075
854.32	0.075
854.50	0.075
854.68	0.075
854.86	0.075
855.04	0.075
855.23	0.075
855.41	0.075
855.59	0.075
855.77	0.075
855.95	0.075
856.14	0.075
856.32	0.075
856.50	0.075
856.68	0.075
856.86	0.075
857.04	0.075
857.23	0.075
857.41	0.075
857.59	0.075
857.77	0.075
857.95	0.075
858.13	0.075
858.32	0.075
858.50	0.075
858.68	0.075
858.86	0.075
859.04	0.076
859.22	0.076
859.41	0.076
859.59	0.076
859.77	0.075
859.95	0.075
860.13	0.075
860.31	0.075
860.49	0.075
860.68	0.075
860.86	0.075
861.04	0.075
861.22	0.075
861.40	0.075
861.58	0.075
861.76	0.075
861.94	0.075
862.13	0.075
862.31	0.075
862.49	0.075
862.67	0.076
862.85	0.076
863.03	0.076
863.21	0.076
863.39	0.076
863.57	0.076
863.76	0.076
863.94	0.076
864.12	0.076
864.30	0.076
864.48	0.076
864.66	0.076
864.84	0.077
865.02	0.077
865.20	0.077
865.38	0.077
865.57	0.077
865.75	0.077
865.93	0.077
866.11	0.077
866.29	0.077
866.47	0.077
866.65	0.077
866.83	0.077
867.01	0.077
867.19	0.077
867.37	0.076
867.55	0.076
867.73	0.077
867.92	0.076
868.10	0.076
868.28	0.076
868.46	0.076
868.64	0.076
868.82	0.076
869.00	0.077
869.18	0.077
869.36	0.077
869.54	0.077
869.72	0.077
869.90	0.077
870.08	0.077
870.26	0.078
870.44	0.078
870.62	0.077
870.80	0.077
870.98	0.077
871.16	0.077
871.34	0.077
871.53	0.077
871.71	0.077
871.89	0.077
872.07	0.077
872.25	0.077
872.43	0.077
872.61	0.077
872.79	0.078
872.97	0.078
873.15	0.078
873.33	0.079
873.51	0.079
873.69	0.079
873.87	0.078
874.05	0.078
874.23	0.078
874.41	0.078
874.59	0.079
874.77	0.078
874.95	0.078
875.13	0.078
875.31	0.077
875.49	0.078
875.67	0.078
875.85	0.078
876.03	0.079
876.21	0.079
876.39	0.079
876.57	0.079
876.75	0.079
876.93	0.079
877.11	0.079
877.29	0.079
877.47	0.079
877.65	0.079
877.82	0.079
878.00	0.078
878.18	0.079
878.36	0.078
878.54	0.079
878.72	0.078
878.90	0.079
879.08	0.079
879.26	0.079
879.44	0.080
879.62	0.079
879.80	0.080
879.98	0.080
880.16	0.079
880.34	0.079
880.52	0.079
880.70	0.079
880.88	0.079
881.06	0.079
881.24	0.079
881.42	0.079
881.59	0.079
881.77	0.078
881.95	0.079
882.13	0.079
882.31	0.079
882.49	0.079
882.67	0.079
882.85	0.079
883.03	0.079
883.21	0.079
883.39	0.079
883.57	0.080
883.75	0.080
883.92	0.079
884.10	0.080
884.28	0.080
884.46	0.080
884.64	0.080
884.82	0.080
885.00	0.080
885.18	0.080
885.36	0.080
885.54	0.080
885.71	0.080
885.89	0.081
886.07	0.081
886.25	0.081
886.43	0.081
886.61	0.081
886.79	0.081
886.97	0.081
887.15	0.081
887.32	0.081
887.50	0.081
887.68	0.081
887.86	0.081
888.04	0.081
888.22	0.081
888.40	0.081
888.57	0.081
888.75	0.081
888.93	0.081
889.11	0.081
889.29	0.081
889.47	0.081
889.65	0.082
889.82	0.082
890.00	0.082
890.18	0.082
890.36	0.082
890.54	0.082
890.72	0.082
890.90	0.082
891.07	0.082
891.25	0.081
891.43	0.081
891.61	0.081
891.79	0.081
891.97	0.081
892.14	0.081
892.32	0.081
892.50	0.081
892.68	0.082
892.86	0.082
893.03	0.082
893.21	0.082
893.39	0.083
893.57	0.083
893.75	0.083
893.93	0.083
894.10	0.083
894.28	0.083
894.46	0.083
894.64	0.083
894.82	0.083
894.99	0.083
895.17	0.083
895.35	0.083
895.53	0.083
895.71	0.082
895.88	0.083
896.06	0.083
896.24	0.083
896.42	0.083
896.59	0.082
896.77	0.082
896.95	0.082
897.13	0.083
897.31	0.083
897.48	0.083
897.66	0.083
897.84	0.083
898.02	0.083
898.19	0.083
898.37	0.083
898.55	0.084
898.73	0.084
898.91	0.084
899.08	0.084
899.26	0.084
899.44	0.084
899.62	0.084
899.79	0.084
899.97	0.084
900.15	0.084
900.33	0.084
900.50	0.084
900.68	0.084
900.86	0.084
901.04	0.085
901.21	0.085
901.39	0.085
901.57	0.085
901.74	0.084
901.92	0.084
902.10	0.085
902.28	0.085
902.45	0.084
902.63	0.084
902.81	0.084
902.99	0.085
903.16	0.085
903.34	0.085
903.52	0.085
903.69	0.085
903.87	0.085
904.05	0.085
904.22	0.086
904.40	0.086
904.58	0.085
904.76	0.085
904.93	0.085
905.11	0.086
905.29	0.085
905.46	0.086
905.64	0.086
905.82	0.086
905.99	0.086
906.17	0.086
906.35	0.086
906.53	0.086
906.70	0.086
906.88	0.086
907.06	0.086
907.23	0.086
907.41	0.087
907.59	0.087
907.76	0.087
907.94	0.087
908.12	0.087
908.29	0.087
908.47	0.087
908.65	0.088
908.82	0.088
909.00	0.087
909.18	0.088
909.35	0.088
909.53	0.087
909.71	0.088
909.88	0.088
910.06	0.088
910.23	0.088
910.41	0.088
910.59	0.088
910.76	0.088
910.94	0.088
911.12	0.088
911.29	0.088
911.47	0.088
911.65	0.088
911.82	0.088
912.00	0.088
912.17	0.088
912.35	0.089
912.53	0.089
912.70	0.089
912.88	0.089
913.06	0.090
913.23	0.089
913.41	0.089
913.58	0.090
913.76	0.090
913.94	0.090
914.11	0.090
914.29	0.090
914.46	0.090
914.64	0.090
914.82	0.090
914.99	0.090
915.17	0.090
915.34	0.090
915.52	0.090
915.70	0.090
915.87	0.090
916.05	0.091
916.22	0.091
916.40	0.091
916.57	0.092
916.75	0.092
916.93	0.092
917.10	0.092
917.28	0.092
917.45	0.092
917.63	0.092
917.80	0.092
917.98	0.092
918.16	0.092
918.33	0.092
918.51	0.092
918.68	0.092
918.86	0.093
919.03	0.093
919.21	0.093
919.39	0.093
919.56	0.094
919.74	0.094
919.91	0.094
920.09	0.094
920.26	0.094
920.44	0.095
920.61	0.095
920.79	0.095
920.96	0.095
921.14	0.096
921.31	0.096
921.49	0.096
921.67	0.096
921.84	0.096
922.02	0.097
922.19	0.097
922.37	0.097
922.54	0.097
922.72	0.097
922.89	0.098
923.07	0.098
923.24	0.098
923.42	0.098
923.59	0.098
923.77	0.098
923.94	0.098
924.12	0.099
924.29	0.099
924.47	0.099
924.64	0.100
924.82	0.100
924.99	0.100
925.17	0.101
925.34	0.101
925.52	0.102
925.69	0.102
925.87	0.102
926.04	0.103
926.22	0.103
926.39	0.103
926.57	0.103
926.74	0.103
926.91	0.104
927.09	0.104
927.26	0.104
927.44	0.104
927.61	0.105
927.79	0.105
927.96	0.106
928.14	0.106
928.31	0.106
928.49	0.107
928.66	0.107
928.84	0.108
929.01	0.108
929.18	0.109
929.36	0.109
929.53	0.109
929.71	0.110
929.88	0.110
930.06	0.110
930.23	0.111
930.41	0.111
930.58	0.112
930.75	0.112
930.93	0.113
931.10	0.113
931.28	0.114
931.45	0.114
931.63	0.115
931.80	0.115
931.97	0.115
932.15	0.116
932.32	0.116
932.50	0.116
932.67	0.117
932.84	0.117
933.02	0.118
933.19	0.118
933.37	0.119
933.54	0.119
933.71	0.119
933.89	0.120
934.06	0.120
934.24	0.121
934.41	0.121
934.58	0.122
934.76	0.122
934.93	0.122
935.11	0.122
935.28	0.123
935.45	0.123
935.63	0.124
935.80	0.124
935.98	0.124
936.15	0.124
936.32	0.125
936.50	0.125
936.67	0.126
936.84	0.127
937.02	0.128
937.19	0.129
937.36	0.129
937.54	0.130
937.71	0.131
937.89	0.131
938.06	0.132
938.23	0.133
938.41	0.134
938.58	0.134
938.75	0.134
938.93	0.135
939.10	0.134
939.27	0.135
939.45	0.136
939.62	0.136
939.79	0.137
939.97	0.137
940.14	0.138
940.31	0.138
940.49	0.139
940.66	0.139
940.83	0.139
941.01	0.140
941.18	0.141
941.35	0.142
941.53	0.142
941.70	0.143
941.87	0.144
942.05	0.144
942.22	0.145
942.39	0.146
942.57	0.147
942.74	0.148
942.91	0.148
943.08	0.148
943.26	0.149
943.43	0.149
943.60	0.150
943.78	0.150
943.95	0.151
944.12	0.151
944.29	0.152
944.47	0.153
944.64	0.153
944.81	0.155
944.99	0.156
945.16	0.156
945.33	0.157
945.50	0.158
945.68	0.159
945.85	0.159
946.02	0.161
946.20	0.162
946.37	0.162
946.54	0.163
946.71	0.164
946.89	0.164
947.06	0.165
947.23	0.166
947.40	0.167
947.58	0.167
947.75	0.169
947.92	0.169
948.09	0.170
948.27	0.171
948.44	0.172
948.61	0.174
948.78	0.174
948.96	0.176
949.13	0.177
949.30	0.178
949.47	0.178
949.65	0.180
949.82	0.181
949.99	0.181
950.16	0.184
950.33	0.185
950.51	0.186
950.68	0.187
950.85	0.188
951.02	0.190
951.20	0.191
951.37	0.192
951.54	0.193
951.71	0.194
951.88	0.196
952.06	0.197
952.23	0.197
952.40	0.198
952.57	0.199
952.74	0.201
952.92	0.202
953.09	0.203
953.26	0.205
953.43	0.205
953.60	0.207
953.77	0.207
953.95	0.209
954.12	0.211
954.29	0.212
954.46	0.214
954.63	0.214
954.81	0.216
954.98	0.216
955.15	0.218
955.32	0.220
955.49	0.220
955.66	0.222
955.84	0.223
956.01	0.223
956.18	0.225
956.35	0.226
956.52	0.226
956.69	0.228
956.87	0.228
957.04	0.229
957.21	0.231
957.38	0.231
957.55	0.232
957.72	0.233
957.89	0.234
958.07	0.235
958.24	0.237
958.41	0.239
958.58	0.239
958.75	0.240
958.92	0.240
959.09	0.241
959.26	0.242
959.44	0.242
959.61	0.243
959.78	0.244
959.95	0.245
960.12	0.245
960.29	0.247
960.46	0.246
960.63	0.247
960.81	0.247
960.98	0.248
961.15	0.249
961.32	0.250
961.49	0.249
961.66	0.251
961.83	0.251
962.00	0.251
962.17	0.252
962.34	0.251
962.52	0.252
962.69	0.253
962.86	0.252
963.03	0.253
963.20	0.253
963.37	0.252
963.54	0.253
963.71	0.253
963.88	0.253
964.05	0.254
964.22	0.256
964.39	0.255
964.56	0.255
964.74	0.256
964.91	0.256
965.08	0.256
965.25	0.257
965.42	0.257
965.59	0.258
965.76	0.257
965.93	0.259
966.10	0.257
966.27	0.258
966.44	0.258
966.61	0.259
966.78	0.258
966.95	0.258
967.12	0.259
967.29	0.261
967.46	0.261
967.63	0.260
967.80	0.260
967.97	0.260
968.14	0.260
968.32	0.261
968.49	0.261
968.66	0.261
968.83	0.261
969.00	0.261
969.17	0.261
969.34	0.262
969.51	0.263
969.68	0.261
969.85	0.262
970.02	0.262
970.19	0.262
970.36	0.262
970.53	0.262
970.70	0.260
970.87	0.261
971.04	0.260
971.21	0.261
971.38	0.261
971.55	0.262
971.72	0.262
971.89	0.262
972.06	0.261
972.23	0.262
972.40	0.262
972.57	0.261
972.74	0.261
972.91	0.262
973.07	0.262
973.24	0.262
973.41	0.262
973.58	0.261
973.75	0.273
973.92	0.261
974.09	0.261
974.26	0.261
974.43	0.260
974.60	0.261
974.77	0.262
974.94	0.261
975.11	0.262
975.28	0.262
975.45	0.260
975.62	0.262
975.79	0.263
975.96	0.262
976.13	0.261
976.30	0.263
976.47	0.261
976.64	0.260
976.80	0.261
976.97	0.261
977.14	0.261
977.31	0.261
977.48	0.261
977.65	0.260
977.82	0.259
977.99	0.260
978.16	0.260
978.33	0.260
978.50	0.259
978.67	0.259
978.83	0.259
979.00	0.259
979.17	0.258
979.34	0.258
979.51	0.257
979.68	0.258
979.85	0.257
980.02	0.258
980.19	0.255
980.36	0.257
980.52	0.258
980.69	0.257
980.86	0.257
981.03	0.257
981.20	0.255
981.37	0.256
981.54	0.256
981.71	0.256
981.88	0.256
982.04	0.256
982.21	0.255
982.38	0.256
982.55	0.255
982.72	0.254
982.89	0.255
983.06	0.254
983.22	0.254
983.39	0.254
983.56	0.254
983.73	0.253
983.90	0.252
984.07	0.254
984.24	0.253
984.40	0.252
984.57	0.251
984.74	0.253
984.91	0.254
985.08	0.252
985.25	0.250
985.41	0.251
985.58	0.252
985.75	0.253
985.92	0.252
986.09	0.250
986.26	0.251
986.42	0.250
986.59	0.249
986.76	0.250
986.93	0.250
987.10	0.250
987.27	0.248
987.43	0.246
987.60	0.247
987.77	0.248
987.94	0.246
988.11	0.247
988.27	0.247
988.44	0.246
988.61	0.244
988.78	0.243
988.95	0.243
989.11	0.245
989.28	0.243
989.45	0.243
989.62	0.242
989.79	0.243
989.95	0.242
990.12	0.243
990.29	0.243
990.46	0.241
990.62	0.240
990.79	0.240
990.96	0.240
991.13	0.240
991.30	0.239
991.46	0.239
991.63	0.237
991.80	0.236
991.97	0.237
992.13	0.237
992.30	0.238
992.47	0.236
992.64	0.236
992.80	0.236
992.97	0.236
993.14	0.234
993.31	0.231
993.47	0.233
993.64	0.231
993.81	0.231
993.98	0.231
994.14	0.229
994.31	0.229
994.48	0.230
994.64	0.230
994.81	0.229
994.98	0.229
995.15	0.227
995.31	0.227
995.48	0.226
995.65	0.229
995.82	0.227
995.98	0.226
996.15	0.227
996.32	0.229
996.48	0.227
996.65	0.227
996.82	0.224
996.99	0.225
997.15	0.225
997.32	0.226
997.49	0.224
997.65	0.225
997.82	0.224
997.99	0.222
998.15	0.222
998.32	0.224
998.49	0.223
998.65	0.224
998.82	0.223
998.99	0.220
999.15	0.221
999.32	0.221
999.49	0.220
999.65	0.221
999.82	0.218
999.99	0.219
1000.15	0.218
1000.32	0.219
1000.49	0.218
1000.65	0.216
1000.82	0.217
1000.99	0.216
1001.15	0.216
1001.32	0.215
1001.49	0.216
1001.65	0.215
1001.82	0.218
1001.99	0.215
1002.15	0.214
1002.32	0.214
1002.49	0.214
1002.65	0.213
1002.82	0.212
1002.99	0.211
1003.15	0.213
1003.32	0.211
1003.48	0.211
1003.65	0.211
1003.82	0.209
1003.98	0.207
1004.15	0.207
1004.32	0.207
1004.48	0.207
1004.65	0.208
1004.81	0.207
1004.98	0.205
1005.15	0.206
1005.31	0.205
1005.48	0.203
1005.64	0.203
1005.81	0.205
1005.98	0.202
1006.14	0.201
1006.31	0.201
1006.47	0.200
1006.64	0.199
1006.81	0.198
1006.97	0.198
1007.14	0.198
1007.30	0.200
1007.47	0.199
1007.63	0.197
1007.80	0.195
1007.97	0.195
1008.13	0.195
1008.30	0.194
1008.46	0.194
1008.63	0.193
1008.79	0.193
1008.96	0.193
1009.13	0.194
1009.29	0.192
1009.46	0.192
1009.62	0.192
1009.79	0.191
1009.95	0.192
1010.12	0.193
1010.28	0.193
1010.45	0.191
1010.62	0.191
1010.78	0.189
1010.95	0.188
1011.11	0.188
1011.28	0.187
1011.44	0.189
1011.61	0.187
1011.77	0.186
1011.94	0.186
1012.10	0.186
1012.27	0.186
1012.43	0.187
1012.60	0.186
1012.76	0.187
1012.93	0.187
1013.10	0.185
1013.26	0.183
1013.43	0.184
1013.59	0.191
1013.76	0.184
1013.92	0.183
1014.09	0.182
1014.25	0.182
1014.42	0.183
1014.58	0.183
1014.75	0.184
1014.91	0.183
1015.08	0.186
1015.24	0.182
1015.41	0.183
1015.57	0.183
1015.73	0.181
1015.90	0.180
1016.06	0.182
1016.23	0.180
1016.39	0.180
1016.56	0.180
1016.72	0.178
1016.89	0.177
1017.05	0.180
1017.22	0.176
1017.38	0.176
1017.55	0.174
1017.71	0.175
1017.88	0.174
1018.04	0.175
1018.21	0.172
1018.37	0.173
1018.53	0.173
1018.70	0.172
1018.86	0.171
1019.03	0.174
1019.19	0.172
1019.36	0.172
1019.52	0.174
1019.69	0.174
1019.85	0.173
1020.01	0.173
1020.18	0.171
1020.34	0.170
1020.51	0.170
1020.67	0.171
1020.84	0.168
1021.00	0.169
1021.16	0.166
1021.33	0.167
1021.49	0.166
1021.66	0.167
1021.82	0.165
1021.98	0.166
1022.15	0.166
1022.31	0.165
1022.48	0.164
1022.64	0.166
1022.80	0.165
1022.97	0.165
1023.13	0.164
1023.30	0.164
1023.46	0.164
1023.62	0.162
1023.79	0.163
1023.95	0.163
1024.12	0.162
1024.28	0.162
1024.44	0.161
1024.61	0.160
1024.77	0.159
1024.93	0.158
1025.10	0.158
1025.26	0.156
1025.43	0.157
1025.59	0.153
1025.75	0.156
1025.92	0.155
1026.08	0.154
1026.24	0.154
1026.41	0.156
1026.57	0.154
1026.73	0.152
1026.90	0.155
1027.06	0.153
1027.23	0.154
1027.39	0.154
1027.55	0.154
1027.72	0.153
1027.88	0.153
1028.04	0.154
1028.21	0.155
1028.37	0.150
1028.53	0.155
1028.70	0.153
1028.86	0.151
1029.02	0.151
1029.19	0.154
1029.35	0.151
1029.51	0.150
1029.67	0.150
1029.84	0.150
1030.00	0.145
1030.16	0.145
1030.33	0.148
1030.49	0.146
1030.65	0.143
1030.82	0.159
1030.98	0.145
1031.14	0.146
1031.31	0.146
1031.47	0.143
1031.63	0.145
1031.79	0.144
1031.96	0.145
1032.12	0.146
1032.28	0.143
1032.45	0.147
1032.61	0.145
1032.77	0.144
1032.93	0.142
1033.10	0.142
1033.26	0.145
1033.42	0.141
1033.58	0.142
1033.75	0.143
1033.91	0.141
1034.07	0.144
1034.24	0.141
1034.40	0.140
1034.56	0.140
1034.72	0.140
1034.89	0.141
1035.05	0.139
1035.21	0.139
1035.37	0.139
1035.54	0.141
1035.70	0.138
1035.86	0.138
1036.02	0.140
1036.19	0.139
1036.35	0.137
1036.51	0.141
1036.67	0.139
1036.83	0.138
1037.00	0.137
1037.16	0.137
1037.32	0.137
1037.48	0.137
1037.65	0.141
1037.81	0.137
1037.97	0.136
1038.13	0.136
1038.29	0.133
1038.46	0.131
1038.62	0.135
1038.78	0.133
1038.94	0.130
1039.10	0.135
1039.27	0.130
1039.43	0.131
1039.59	0.130
1039.75	0.131
1039.91	0.129
1040.08	0.129
1040.24	0.132
1040.40	0.133
1040.56	0.132
1040.72	0.126
1040.89	0.128
1041.05	0.132
1041.21	0.132
1041.37	0.130
1041.53	0.135
1041.69	0.132
1041.86	0.131
1042.02	0.129
1042.18	0.128
1042.34	0.130
1042.50	0.134
1042.66	0.131
1042.83	0.129
1042.99	0.131
1043.15	0.126
1043.31	0.127
1043.47	0.132
1043.63	0.130
1043.79	0.130
1043.96	0.132
1044.12	0.136
1044.28	0.132
1044.44	0.135
1044.60	0.129
1044.76	0.128
1044.92	0.129
1045.09	0.131
1045.25	0.126
1045.41	0.127
1045.57	0.120
1045.73	0.120
1045.89	0.122
1046.05	0.124
1046.21	0.126
1046.38	0.120
1046.54	0.127
1046.70	0.135
1046.86	0.129
>>>>>End Processed Spectral Data<<<<<
