SpectraSuite Data File
++++++++++++++++++++++++++++++++++++
Date: Mon May 20 12:11:34 CDT 2013
User: Students
Dark Spectrum Present: Yes
Reference Spectrum Present: Yes
Number of Sampled Component Spectra: 1
Spectrometers: USB4H00887
Integration Time (usec): 60000 (USB4H00887)
Spectra Averaged: 5 (USB4H00887)
Boxcar Smoothing: 5 (USB4H00887)
Correct for Electrical Dark: No (USB4H00887)
Strobe/Lamp Enabled: No (USB4H00887)
Correct for Detector Non-linearity: No (USB4H00887)
Correct for Stray Light: No (USB4H00887)
Number of Pixels in Processed Spectrum: 3648
>>>>>Begin Processed Spectral Data<<<<<
345.83	-0.232
346.05	-0.232
346.26	-0.232
346.48	-0.000
346.70	-0.050
346.92	0.141
347.14	0.098
347.35	0.100
347.57	0.582
347.79	-0.261
348.01	-0.173
348.23	-0.281
348.44	-0.000
348.66	0.239
348.88	-0.313
349.10	-0.137
349.32	0.016
349.53	0.043
349.75	0.140
349.97	0.104
350.19	0.137
350.41	0.153
350.62	-0.363
350.84	0.046
351.06	0.064
351.28	0.068
351.50	0.195
351.71	0.187
351.93	0.154
352.15	0.040
352.37	0.204
352.58	0.062
352.80	0.081
353.02	0.142
353.24	0.235
353.46	-0.000
353.67	-0.385
353.89	0.188
354.11	0.168
354.33	0.197
354.54	0.310
354.76	0.618
354.98	-0.000
355.20	1.277
355.41	0.254
355.63	0.826
355.85	0.273
356.07	-0.000
356.28	0.194
356.50	0.353
356.72	0.106
356.94	0.335
357.15	0.725
357.37	-0.000
357.59	0.276
357.81	0.174
358.02	0.254
358.24	0.163
358.46	0.347
358.68	0.416
358.89	0.215
359.11	-0.000
359.33	0.236
359.55	-0.827
359.76	0.248
359.98	0.288
360.20	0.285
360.42	0.217
360.63	0.284
360.85	0.193
361.07	-0.000
361.29	0.153
361.50	0.516
361.72	0.167
361.94	0.909
362.15	0.305
362.37	0.170
362.59	0.181
362.81	0.378
363.02	0.793
363.24	-0.000
363.46	0.481
363.68	0.819
363.89	0.375
364.11	0.579
364.33	0.845
364.54	0.356
364.76	0.456
364.98	0.524
365.20	0.521
365.41	0.267
365.63	0.329
365.85	0.220
366.06	1.072
366.28	1.911
366.50	0.598
366.71	0.199
366.93	0.262
367.15	0.239
367.37	0.216
367.58	0.313
367.80	0.363
368.02	-0.000
368.23	0.368
368.45	0.353
368.67	0.302
368.88	0.295
369.10	-0.000
369.32	0.369
369.53	0.207
369.75	0.334
369.97	-0.000
370.19	0.624
370.40	0.185
370.62	0.900
370.84	0.228
371.05	-0.000
371.27	0.319
371.49	0.314
371.70	0.389
371.92	0.798
372.14	0.231
372.35	0.231
372.57	0.290
372.79	-0.000
373.00	0.186
373.22	0.348
373.44	0.386
373.65	0.294
373.87	0.599
374.09	-0.000
374.30	0.371
374.52	0.426
374.74	0.289
374.95	-0.000
375.17	0.315
375.39	-0.000
375.60	0.350
375.82	0.761
376.04	0.243
376.25	0.274
376.47	0.172
376.68	0.494
376.90	0.274
377.12	1.038
377.33	0.314
377.55	1.271
377.77	0.396
377.98	0.571
378.20	0.241
378.42	0.312
378.63	0.396
378.85	-0.000
379.07	0.251
379.28	-0.000
379.50	0.717
379.71	0.328
379.93	0.233
380.15	0.331
380.36	0.585
380.58	0.442
380.80	-0.000
381.01	0.330
381.23	0.269
381.44	0.299
381.66	0.372
381.88	0.489
382.09	-0.141
382.31	0.253
382.53	0.264
382.74	-0.000
382.96	0.414
383.17	0.336
383.39	0.546
383.61	0.881
383.82	0.459
384.04	0.537
384.25	0.699
384.47	0.673
384.69	0.643
384.90	0.559
385.12	-0.000
385.33	0.758
385.55	0.475
385.77	0.829
385.98	0.331
386.20	0.466
386.41	0.376
386.63	0.470
386.85	0.374
387.06	0.503
387.28	1.030
387.49	0.525
387.71	0.347
387.93	0.293
388.14	-0.000
388.36	0.367
388.57	0.329
388.79	0.409
389.01	-0.000
389.22	0.565
389.44	0.455
389.65	0.361
389.87	0.339
390.08	0.430
390.30	0.334
390.52	0.943
390.73	0.941
390.95	0.521
391.16	0.479
391.38	-0.000
391.59	0.542
391.81	0.463
392.03	0.448
392.24	0.551
392.46	0.434
392.67	0.382
392.89	0.607
393.10	-0.000
393.32	0.677
393.53	0.902
393.75	0.438
393.97	0.519
394.18	0.756
394.40	0.599
394.61	0.680
394.83	0.525
395.04	0.641
395.26	0.366
395.47	0.656
395.69	0.497
395.91	0.566
396.12	0.772
396.34	0.737
396.55	0.394
396.77	0.680
396.98	-0.000
397.20	1.112
397.41	1.515
397.63	0.623
397.84	0.521
398.06	0.480
398.27	0.479
398.49	0.588
398.71	0.404
398.92	0.517
399.14	0.765
399.35	1.178
399.57	0.924
399.78	0.522
400.00	0.486
400.21	0.685
400.43	0.515
400.64	0.537
400.86	-0.000
401.07	0.720
401.29	0.583
401.50	0.647
401.72	1.385
401.93	0.562
402.15	0.739
402.36	0.639
402.58	0.478
402.79	0.535
403.01	1.256
403.22	0.724
403.44	0.414
403.65	0.820
403.87	0.949
404.08	0.617
404.30	-0.000
404.51	0.530
404.73	0.732
404.94	0.580
405.16	0.605
405.37	0.453
405.59	1.364
405.80	0.545
406.02	0.712
406.23	0.715
406.45	0.870
406.66	0.945
406.88	0.478
407.09	0.883
407.31	0.602
407.52	0.813
407.74	0.624
407.95	0.785
408.17	0.699
408.38	0.757
408.60	0.427
408.81	0.951
409.03	0.590
409.24	0.597
409.45	0.705
409.67	0.688
409.88	0.594
410.10	0.816
410.31	0.630
410.53	0.598
410.74	1.022
410.96	1.009
411.17	1.101
411.39	0.687
411.60	0.616
411.82	0.784
412.03	0.728
412.24	0.684
412.46	1.458
412.67	0.857
412.89	0.801
413.10	0.787
413.32	0.659
413.53	0.813
413.75	0.848
413.96	0.576
414.17	0.875
414.39	0.903
414.60	0.651
414.82	1.024
415.03	0.666
415.25	0.814
415.46	0.499
415.68	0.795
415.89	-0.000
416.10	-0.000
416.32	0.595
416.53	0.758
416.75	0.692
416.96	0.964
417.18	0.732
417.39	0.696
417.60	0.679
417.82	1.311
418.03	0.962
418.25	0.688
418.46	0.729
418.67	0.639
418.89	0.699
419.10	0.736
419.32	1.254
419.53	1.014
419.75	0.756
419.96	0.648
420.17	0.885
420.39	0.812
420.60	0.880
420.82	1.324
421.03	0.834
421.24	0.657
421.46	0.755
421.67	0.849
421.89	0.693
422.10	0.786
422.31	0.759
422.53	1.921
422.74	0.859
422.96	0.613
423.17	0.709
423.38	1.003
423.60	0.740
423.81	1.077
424.03	0.847
424.24	1.055
424.45	1.025
424.67	1.004
424.88	0.811
425.09	0.898
425.31	0.787
425.52	0.880
425.74	1.104
425.95	1.319
426.16	0.791
426.38	0.976
426.59	0.835
426.80	1.062
427.02	1.173
427.23	0.753
427.45	1.221
427.66	1.135
427.87	0.726
428.09	0.792
428.30	0.969
428.51	0.931
428.73	1.115
428.94	0.895
429.15	0.850
429.37	0.805
429.58	0.860
429.79	0.762
430.01	1.043
430.22	1.022
430.44	1.033
430.65	0.833
430.86	0.940
431.08	0.888
431.29	0.760
431.50	0.983
431.72	-0.000
431.93	1.153
432.14	0.717
432.36	0.811
432.57	0.846
432.78	0.910
433.00	0.798
433.21	0.788
433.42	1.175
433.64	0.925
433.85	1.148
434.06	0.794
434.28	0.855
434.49	0.904
434.70	0.924
434.92	0.954
435.13	1.060
435.34	1.089
435.56	0.986
435.77	0.958
435.98	1.880
436.20	1.150
436.41	0.880
436.62	0.852
436.83	1.031
437.05	1.355
437.26	1.020
437.47	0.850
437.69	0.988
437.90	0.848
438.11	0.825
438.33	0.943
438.54	0.967
438.75	1.693
438.97	1.516
439.18	0.868
439.39	0.923
439.60	1.041
439.82	0.931
440.03	0.822
440.24	1.913
440.46	0.916
440.67	0.863
440.88	0.953
441.10	0.880
441.31	0.890
441.52	1.000
441.73	1.232
441.95	0.972
442.16	0.855
442.37	-0.000
442.58	0.842
442.80	0.823
443.01	1.298
443.22	1.079
443.44	0.829
443.65	1.076
443.86	1.085
444.07	1.269
444.29	0.959
444.50	1.650
444.71	0.916
444.92	0.821
445.14	1.216
445.35	1.388
445.56	0.889
445.78	1.162
445.99	1.152
446.20	0.899
446.41	1.079
446.63	1.096
446.84	0.993
447.05	0.996
447.26	1.434
447.48	1.038
447.69	0.942
447.90	1.179
448.11	0.944
448.33	1.004
448.54	1.042
448.75	1.110
448.96	1.138
449.18	1.294
449.39	1.029
449.60	0.983
449.81	1.383
450.03	1.030
450.24	1.186
450.45	1.078
450.66	1.030
450.87	1.099
451.09	0.995
451.30	0.945
451.51	1.108
451.72	1.120
451.94	1.187
452.15	1.431
452.36	1.007
452.57	1.054
452.78	1.053
453.00	1.120
453.21	1.017
453.42	0.961
453.63	1.211
453.85	1.111
454.06	1.105
454.27	1.594
454.48	1.193
454.69	0.993
454.91	1.157
455.12	0.921
455.33	1.102
455.54	1.147
455.75	1.065
455.97	1.130
456.18	1.088
456.39	1.097
456.60	1.149
456.81	1.011
457.03	1.050
457.24	1.048
457.45	1.302
457.66	1.147
457.87	1.031
458.09	1.077
458.30	0.888
458.51	1.173
458.72	1.246
458.93	1.277
459.15	1.014
459.36	1.164
459.57	1.224
459.78	1.361
459.99	1.091
460.20	1.009
460.42	1.204
460.63	1.096
460.84	1.049
461.05	1.089
461.26	1.261
461.47	1.038
461.69	1.145
461.90	1.232
462.11	1.118
462.32	1.265
462.53	1.093
462.74	1.335
462.96	1.028
463.17	1.007
463.38	1.096
463.59	1.378
463.80	1.007
464.01	1.056
464.23	1.261
464.44	1.147
464.65	1.151
464.86	1.208
465.07	1.231
465.28	1.142
465.49	1.196
465.71	1.086
465.92	1.164
466.13	1.279
466.34	1.120
466.55	1.239
466.76	1.163
466.97	1.232
467.19	1.202
467.40	1.293
467.61	1.300
467.82	1.097
468.03	1.054
468.24	1.204
468.45	1.293
468.66	1.234
468.88	1.254
469.09	1.238
469.30	1.364
469.51	1.167
469.72	1.262
469.93	1.187
470.14	1.139
470.35	1.373
470.57	1.237
470.78	1.094
470.99	1.423
471.20	1.247
471.41	1.149
471.62	1.267
471.83	1.192
472.04	1.262
472.25	1.378
472.47	1.165
472.68	1.169
472.89	1.179
473.10	1.279
473.31	1.157
473.52	1.290
473.73	1.353
473.94	1.171
474.15	1.221
474.36	1.223
474.57	1.283
474.79	1.211
475.00	1.213
475.21	1.179
475.42	1.411
475.63	1.169
475.84	1.253
476.05	1.269
476.26	1.187
476.47	1.272
476.68	1.387
476.89	1.205
477.10	1.326
477.32	1.296
477.53	1.446
477.74	1.228
477.95	1.327
478.16	1.192
478.37	1.290
478.58	1.298
478.79	1.329
479.00	1.335
479.21	1.238
479.42	1.337
479.63	1.348
479.84	1.253
480.05	1.244
480.26	1.312
480.47	1.368
480.69	1.351
480.90	1.263
481.11	1.253
481.32	1.395
481.53	1.241
481.74	1.365
481.95	1.280
482.16	1.319
482.37	1.340
482.58	1.252
482.79	1.283
483.00	1.363
483.21	1.242
483.42	1.187
483.63	1.365
483.84	1.436
484.05	1.397
484.26	1.322
484.47	1.320
484.68	1.232
484.89	1.249
485.10	1.367
485.31	1.314
485.52	1.319
485.73	1.319
485.94	1.424
486.15	1.290
486.37	1.335
486.58	1.244
486.79	1.273
487.00	1.396
487.21	1.369
487.42	1.354
487.63	1.369
487.84	1.424
488.05	1.406
488.26	1.302
488.47	1.321
488.68	1.391
488.89	1.336
489.10	1.318
489.31	1.341
489.52	1.433
489.73	1.344
489.94	1.435
490.15	1.318
490.36	1.420
490.57	1.304
490.78	1.263
490.99	1.345
491.20	1.570
491.41	1.429
491.62	1.288
491.83	1.354
492.04	1.343
492.25	1.354
492.45	1.354
492.66	1.417
492.87	1.376
493.08	1.349
493.29	1.309
493.50	1.284
493.71	1.304
493.92	1.295
494.13	1.327
494.34	1.373
494.55	1.384
494.76	1.458
494.97	1.435
495.18	1.354
495.39	1.386
495.60	1.272
495.81	1.270
496.02	1.307
496.23	1.292
496.44	1.369
496.65	1.354
496.86	1.375
497.07	1.441
497.28	1.418
497.49	1.296
497.70	1.298
497.91	1.348
498.12	1.313
498.32	1.417
498.53	1.373
498.74	1.342
498.95	1.400
499.16	1.294
499.37	1.304
499.58	1.331
499.79	1.399
500.00	1.390
500.21	1.460
500.42	1.322
500.63	1.320
500.84	1.361
501.05	1.313
501.26	1.361
501.46	1.458
501.67	1.357
501.88	1.358
502.09	1.300
502.30	1.317
502.51	1.431
502.72	1.325
502.93	1.360
503.14	1.412
503.35	1.343
503.56	1.337
503.77	1.408
503.97	1.350
504.18	1.346
504.39	1.430
504.60	1.354
504.81	1.416
505.02	1.383
505.23	1.385
505.44	1.340
505.65	1.356
505.86	1.313
506.07	1.457
506.27	1.361
506.48	1.377
506.69	1.344
506.90	1.390
507.11	1.381
507.32	1.330
507.53	1.355
507.74	1.340
507.95	1.370
508.15	1.385
508.36	1.396
508.57	1.427
508.78	1.383
508.99	1.376
509.20	1.318
509.41	1.369
509.62	1.343
509.82	1.333
510.03	1.358
510.24	1.357
510.45	1.409
510.66	1.395
510.87	1.379
511.08	1.289
511.29	1.377
511.49	1.328
511.70	1.435
511.91	1.294
512.12	1.289
512.33	1.356
512.54	1.393
512.75	1.350
512.95	1.406
513.16	1.389
513.37	1.341
513.58	1.430
513.79	1.350
514.00	1.362
514.20	1.401
514.41	1.371
514.62	1.301
514.83	1.392
515.04	1.373
515.25	1.326
515.46	1.353
515.66	1.361
515.87	1.393
516.08	1.322
516.29	1.372
516.50	1.333
516.71	1.320
516.91	1.343
517.12	1.379
517.33	1.348
517.54	1.323
517.75	1.333
517.95	1.364
518.16	1.396
518.37	1.323
518.58	1.345
518.79	1.288
519.00	1.366
519.20	1.395
519.41	1.337
519.62	1.384
519.83	1.411
520.04	1.328
520.24	1.324
520.45	1.348
520.66	1.409
520.87	1.320
521.08	1.316
521.28	1.326
521.49	1.368
521.70	1.298
521.91	1.336
522.12	1.297
522.32	1.353
522.53	1.311
522.74	1.285
522.95	1.312
523.16	1.321
523.36	1.356
523.57	1.315
523.78	1.307
523.99	1.326
524.20	1.312
524.40	1.349
524.61	1.370
524.82	1.310
525.03	1.327
525.23	1.331
525.44	1.293
525.65	1.289
525.86	1.348
526.06	1.279
526.27	1.286
526.48	1.315
526.69	1.273
526.90	1.285
527.10	1.385
527.31	1.275
527.52	1.264
527.73	1.254
527.93	1.287
528.14	1.302
528.35	1.282
528.56	1.287
528.76	1.275
528.97	1.255
529.18	1.237
529.39	1.242
529.59	1.256
529.80	1.342
530.01	1.273
530.22	1.274
530.42	1.207
530.63	1.256
530.84	1.210
531.05	1.249
531.25	1.265
531.46	1.254
531.67	1.204
531.88	1.256
532.08	1.245
532.29	1.241
532.50	1.227
532.70	1.214
532.91	1.193
533.12	1.203
533.33	1.277
533.53	1.202
533.74	1.206
533.95	1.229
534.15	1.202
534.36	1.213
534.57	1.171
534.78	1.178
534.98	1.212
535.19	1.142
535.40	1.150
535.60	1.205
535.81	1.157
536.02	1.173
536.23	1.156
536.43	1.169
536.64	1.142
536.85	1.172
537.05	1.207
537.26	1.150
537.47	1.168
537.67	1.149
537.88	1.139
538.09	1.168
538.30	1.142
538.50	1.125
538.71	1.165
538.92	1.130
539.12	1.126
539.33	1.119
539.54	1.126
539.74	1.145
539.95	1.123
540.16	1.124
540.36	1.106
540.57	1.115
540.78	1.101
540.98	1.103
541.19	1.106
541.40	1.077
541.60	1.114
541.81	1.107
542.02	1.116
542.22	1.093
542.43	1.084
542.64	1.077
542.84	1.082
543.05	1.065
543.26	1.075
543.46	1.090
543.67	1.095
543.88	1.087
544.08	1.063
544.29	1.052
544.50	1.059
544.70	1.069
544.91	1.051
545.12	1.063
545.32	1.057
545.53	1.077
545.74	1.048
545.94	1.044
546.15	1.043
546.35	1.042
546.56	1.042
546.77	1.040
546.97	1.040
547.18	1.021
547.39	1.030
547.59	1.030
547.80	1.022
548.01	1.046
548.21	1.039
548.42	1.022
548.62	1.028
548.83	1.024
549.04	1.019
549.24	1.002
549.45	1.007
549.65	1.000
549.86	0.991
550.07	0.996
550.27	0.994
550.48	1.028
550.69	0.985
550.89	0.990
551.10	0.984
551.30	0.985
551.51	0.989
551.72	0.961
551.92	0.972
552.13	0.980
552.33	0.989
552.54	0.977
552.75	0.961
552.95	0.972
553.16	0.960
553.36	0.959
553.57	0.961
553.78	0.962
553.98	0.970
554.19	0.947
554.39	0.944
554.60	0.959
554.80	0.966
555.01	0.944
555.22	0.959
555.42	0.955
555.63	0.938
555.83	0.954
556.04	0.937
556.25	0.951
556.45	0.924
556.66	0.923
556.86	0.940
557.07	0.936
557.27	0.937
557.48	0.922
557.68	0.920
557.89	0.930
558.10	0.921
558.30	0.917
558.51	0.916
558.71	0.914
558.92	0.902
559.12	0.915
559.33	0.935
559.54	0.921
559.74	0.910
559.95	0.905
560.15	0.909
560.36	0.908
560.56	0.892
560.77	0.898
560.97	0.902
561.18	0.887
561.38	0.890
561.59	0.905
561.79	0.893
562.00	0.890
562.21	0.886
562.41	0.888
562.62	0.891
562.82	0.889
563.03	0.881
563.23	0.885
563.44	0.890
563.64	0.881
563.85	0.892
564.05	0.870
564.26	0.873
564.46	0.873
564.67	0.880
564.87	0.867
565.08	0.859
565.28	0.865
565.49	0.871
565.69	0.866
565.90	0.858
566.10	0.873
566.31	0.851
566.51	0.863
566.72	0.873
566.92	0.852
567.13	0.855
567.33	0.855
567.54	0.854
567.74	0.855
567.95	0.843
568.15	0.852
568.36	0.854
568.56	0.855
568.77	0.839
568.97	0.837
569.18	0.841
569.38	0.839
569.59	0.848
569.79	0.839
570.00	0.834
570.20	0.833
570.41	0.831
570.61	0.829
570.82	0.837
571.02	0.825
571.23	0.839
571.43	0.825
571.64	0.824
571.84	0.826
572.05	0.826
572.25	0.829
572.45	0.827
572.66	0.819
572.86	0.818
573.07	0.817
573.27	0.823
573.48	0.821
573.68	0.808
573.89	0.811
574.09	0.819
574.30	0.814
574.50	0.809
574.70	0.815
574.91	0.809
575.11	0.815
575.32	0.817
575.52	0.802
575.73	0.806
575.93	0.808
576.14	0.806
576.34	0.802
576.54	0.803
576.75	0.797
576.95	0.800
577.16	0.795
577.36	0.795
577.57	0.797
577.77	0.793
577.97	0.784
578.18	0.798
578.38	0.786
578.59	0.784
578.79	0.782
579.00	0.790
579.20	0.784
579.40	0.784
579.61	0.784
579.81	0.784
580.02	0.779
580.22	0.782
580.42	0.780
580.63	0.785
580.83	0.783
581.04	0.775
581.24	0.777
581.45	0.775
581.65	0.778
581.85	0.776
582.06	0.770
582.26	0.774
582.47	0.770
582.67	0.773
582.87	0.772
583.08	0.766
583.28	0.771
583.48	0.767
583.69	0.757
583.89	0.762
584.10	0.773
584.30	0.765
584.50	0.762
584.71	0.762
584.91	0.765
585.12	0.758
585.32	0.766
585.52	0.758
585.73	0.757
585.93	0.760
586.13	0.759
586.34	0.756
586.54	0.756
586.75	0.753
586.95	0.751
587.15	0.755
587.36	0.753
587.56	0.752
587.76	0.748
587.97	0.748
588.17	0.744
588.37	0.747
588.58	0.750
588.78	0.737
588.98	0.743
589.19	0.740
589.39	0.734
589.60	0.747
589.80	0.736
590.00	0.738
590.21	0.740
590.41	0.734
590.61	0.736
590.82	0.738
591.02	0.739
591.22	0.733
591.43	0.740
591.63	0.734
591.83	0.736
592.04	0.732
592.24	0.740
592.44	0.730
592.65	0.727
592.85	0.732
593.05	0.735
593.26	0.728
593.46	0.729
593.66	0.731
593.86	0.728
594.07	0.722
594.27	0.725
594.47	0.721
594.68	0.719
594.88	0.727
595.08	0.724
595.29	0.730
595.49	0.721
595.69	0.721
595.90	0.719
596.10	0.723
596.30	0.723
596.50	0.718
596.71	0.718
596.91	0.715
597.11	0.715
597.32	0.716
597.52	0.714
597.72	0.715
597.93	0.715
598.13	0.708
598.33	0.714
598.53	0.710
598.74	0.709
598.94	0.708
599.14	0.710
599.35	0.713
599.55	0.713
599.75	0.708
599.95	0.704
600.16	0.711
600.36	0.704
600.56	0.707
600.76	0.705
600.97	0.700
601.17	0.702
601.37	0.705
601.58	0.701
601.78	0.705
601.98	0.701
602.18	0.698
602.39	0.699
602.59	0.702
602.79	0.699
602.99	0.702
603.20	0.698
603.40	0.698
603.60	0.701
603.80	0.698
604.01	0.698
604.21	0.697
604.41	0.696
604.61	0.693
604.82	0.693
605.02	0.698
605.22	0.694
605.42	0.693
605.62	0.696
605.83	0.689
606.03	0.689
606.23	0.693
606.43	0.690
606.64	0.692
606.84	0.690
607.04	0.690
607.24	0.692
607.45	0.694
607.65	0.687
607.85	0.696
608.05	0.689
608.25	0.688
608.46	0.688
608.66	0.691
608.86	0.688
609.06	0.681
609.26	0.679
609.47	0.685
609.67	0.677
609.87	0.685
610.07	0.683
610.28	0.676
610.48	0.678
610.68	0.681
610.88	0.675
611.08	0.682
611.29	0.678
611.49	0.676
611.69	0.683
611.89	0.675
612.09	0.675
612.29	0.674
612.50	0.673
612.70	0.675
612.90	0.672
613.10	0.673
613.30	0.670
613.51	0.672
613.71	0.670
613.91	0.702
614.11	0.671
614.31	0.673
614.51	0.673
614.72	0.669
614.92	0.669
615.12	0.669
615.32	0.671
615.52	0.669
615.72	0.673
615.93	0.672
616.13	0.668
616.33	0.670
616.53	0.668
616.73	0.672
616.93	0.664
617.14	0.670
617.34	0.668
617.54	0.670
617.74	0.672
617.94	0.668
618.14	0.667
618.34	0.665
618.55	0.664
618.75	0.669
618.95	0.668
619.15	0.670
619.35	0.665
619.55	0.662
619.75	0.670
619.96	0.663
620.16	0.668
620.36	0.668
620.56	0.664
620.76	0.664
620.96	0.662
621.16	0.662
621.36	0.663
621.57	0.666
621.77	0.668
621.97	0.662
622.17	0.662
622.37	0.661
622.57	0.665
622.77	0.662
622.97	0.655
623.18	0.659
623.38	0.663
623.58	0.659
623.78	0.656
623.98	0.657
624.18	0.654
624.38	0.654
624.58	0.655
624.78	0.657
624.98	0.656
625.19	0.656
625.39	0.658
625.59	0.654
625.79	0.657
625.99	0.654
626.19	0.656
626.39	0.653
626.59	0.653
626.79	0.653
626.99	0.654
627.19	0.654
627.40	0.656
627.60	0.652
627.80	0.654
628.00	0.656
628.20	0.651
628.40	0.651
628.60	0.652
628.80	0.648
629.00	0.652
629.20	0.650
629.40	0.654
629.60	0.649
629.80	0.651
630.00	0.650
630.20	0.649
630.41	0.646
630.61	0.646
630.81	0.649
631.01	0.652
631.21	0.646
631.41	0.646
631.61	0.650
631.81	0.647
632.01	0.647
632.21	0.650
632.41	0.644
632.61	0.644
632.81	0.648
633.01	0.649
633.21	0.647
633.41	0.653
633.61	0.645
633.81	0.645
634.01	0.644
634.21	0.645
634.41	0.643
634.61	0.646
634.81	0.643
635.01	0.641
635.22	0.645
635.42	0.643
635.62	0.643
635.82	0.646
636.02	0.644
636.22	0.641
636.42	0.640
636.62	0.642
636.82	0.642
637.02	0.639
637.22	0.643
637.42	0.640
637.62	0.636
637.82	0.639
638.02	0.638
638.22	0.639
638.42	0.638
638.62	0.636
638.82	0.638
639.02	0.638
639.22	0.639
639.42	0.636
639.62	0.637
639.82	0.635
640.02	0.637
640.22	0.636
640.42	0.635
640.62	0.636
640.82	0.637
641.02	0.634
641.22	0.638
641.42	0.632
641.61	0.633
641.81	0.635
642.01	0.633
642.21	0.636
642.41	0.636
642.61	0.635
642.81	0.632
643.01	0.631
643.21	0.631
643.41	0.633
643.61	0.633
643.81	0.633
644.01	0.626
644.21	0.627
644.41	0.631
644.61	0.631
644.81	0.633
645.01	0.631
645.21	0.630
645.41	0.629
645.61	0.630
645.81	0.628
646.01	0.626
646.21	0.630
646.40	0.626
646.60	0.626
646.80	0.631
647.00	0.627
647.20	0.622
647.40	0.623
647.60	0.626
647.80	0.623
648.00	0.624
648.20	0.625
648.40	0.625
648.60	0.624
648.80	0.624
649.00	0.623
649.20	0.629
649.39	0.624
649.59	0.623
649.79	0.623
649.99	0.624
650.19	0.621
650.39	0.621
650.59	0.622
650.79	0.620
650.99	0.622
651.19	0.618
651.39	0.621
651.58	0.620
651.78	0.618
651.98	0.616
652.18	0.618
652.38	0.617
652.58	0.619
652.78	0.617
652.98	0.617
653.18	0.620
653.38	0.620
653.57	0.618
653.77	0.621
653.97	0.617
654.17	0.618
654.37	0.616
654.57	0.618
654.77	0.619
654.97	0.618
655.16	0.617
655.36	0.616
655.56	0.615
655.76	0.611
655.96	0.619
656.16	0.611
656.36	0.615
656.56	0.612
656.75	0.615
656.95	0.612
657.15	0.613
657.35	0.612
657.55	0.611
657.75	0.614
657.95	0.615
658.14	0.613
658.34	0.614
658.54	0.615
658.74	0.613
658.94	0.611
659.14	0.612
659.34	0.611
659.53	0.609
659.73	0.609
659.93	0.608
660.13	0.607
660.33	0.608
660.53	0.607
660.72	0.610
660.92	0.608
661.12	0.605
661.32	0.608
661.52	0.606
661.72	0.608
661.91	0.605
662.11	0.607
662.31	0.606
662.51	0.608
662.71	0.608
662.90	0.606
663.10	0.605
663.30	0.604
663.50	0.605
663.70	0.603
663.90	0.603
664.09	0.605
664.29	0.602
664.49	0.604
664.69	0.605
664.89	0.603
665.08	0.604
665.28	0.601
665.48	0.603
665.68	0.600
665.88	0.602
666.07	0.601
666.27	0.601
666.47	0.601
666.67	0.603
666.87	0.602
667.06	0.598
667.26	0.597
667.46	0.597
667.66	0.600
667.85	0.599
668.05	0.600
668.25	0.599
668.45	0.599
668.65	0.599
668.84	0.598
669.04	0.599
669.24	0.598
669.44	0.595
669.63	0.597
669.83	0.598
670.03	0.594
670.23	0.594
670.42	0.596
670.62	0.593
670.82	0.593
671.02	0.593
671.22	0.591
671.41	0.590
671.61	0.594
671.81	0.592
672.01	0.594
672.20	0.592
672.40	0.590
672.60	0.590
672.80	0.591
672.99	0.591
673.19	0.590
673.39	0.590
673.58	0.591
673.78	0.589
673.98	0.590
674.18	0.589
674.37	0.589
674.57	0.588
674.77	0.591
674.97	0.591
675.16	0.594
675.36	0.589
675.56	0.588
675.75	0.588
675.95	0.586
676.15	0.587
676.35	0.586
676.54	0.587
676.74	0.586
676.94	0.591
677.13	0.586
677.33	0.585
677.53	0.587
677.73	0.587
677.92	0.584
678.12	0.587
678.32	0.582
678.51	0.585
678.71	0.585
678.91	0.584
679.11	0.581
679.30	0.586
679.50	0.584
679.70	0.583
679.89	0.583
680.09	0.587
680.29	0.583
680.48	0.584
680.68	0.582
680.88	0.581
681.07	0.582
681.27	0.581
681.47	0.580
681.66	0.581
681.86	0.580
682.06	0.581
682.25	0.580
682.45	0.582
682.65	0.581
682.84	0.576
683.04	0.578
683.24	0.578
683.43	0.581
683.63	0.577
683.83	0.579
684.02	0.578
684.22	0.578
684.42	0.576
684.61	0.579
684.81	0.579
685.01	0.578
685.20	0.574
685.40	0.575
685.60	0.577
685.79	0.576
685.99	0.578
686.19	0.576
686.38	0.575
686.58	0.577
686.77	0.577
686.97	0.575
687.17	0.576
687.36	0.577
687.56	0.575
687.76	0.571
687.95	0.573
688.15	0.573
688.34	0.574
688.54	0.571
688.74	0.572
688.93	0.569
689.13	0.571
689.33	0.574
689.52	0.569
689.72	0.574
689.91	0.571
690.11	0.570
690.31	0.569
690.50	0.572
690.70	0.574
690.89	0.570
691.09	0.570
691.29	0.572
691.48	0.568
691.68	0.570
691.87	0.571
692.07	0.572
692.27	0.571
692.46	0.572
692.66	0.570
692.85	0.569
693.05	0.570
693.25	0.570
693.44	0.569
693.64	0.569
693.83	0.570
694.03	0.567
694.22	0.566
694.42	0.566
694.62	0.566
694.81	0.570
695.01	0.570
695.20	0.568
695.40	0.566
695.59	0.565
695.79	0.565
695.99	0.568
696.18	0.566
696.38	0.566
696.57	0.566
696.77	0.565
696.96	0.567
697.16	0.565
697.36	0.566
697.55	0.564
697.75	0.566
697.94	0.564
698.14	0.567
698.33	0.565
698.53	0.566
698.72	0.565
698.92	0.564
699.11	0.564
699.31	0.564
699.51	0.566
699.70	0.562
699.90	0.561
700.09	0.563
700.29	0.561
700.48	0.563
700.68	0.561
700.87	0.562
701.07	0.561
701.26	0.561
701.46	0.560
701.65	0.562
701.85	0.560
702.04	0.560
702.24	0.559
702.43	0.559
702.63	0.558
702.82	0.560
703.02	0.557
703.21	0.561
703.41	0.559
703.60	0.559
703.80	0.557
703.99	0.558
704.19	0.561
704.38	0.559
704.58	0.556
704.77	0.559
704.97	0.556
705.16	0.559
705.36	0.558
705.55	0.558
705.75	0.557
705.94	0.557
706.14	0.556
706.33	0.556
706.53	0.557
706.72	0.556
706.92	0.554
707.11	0.556
707.31	0.553
707.50	0.553
707.70	0.557
707.89	0.556
708.09	0.556
708.28	0.555
708.48	0.556
708.67	0.554
708.86	0.556
709.06	0.556
709.25	0.555
709.45	0.557
709.64	0.556
709.84	0.554
710.03	0.553
710.23	0.553
710.42	0.554
710.62	0.557
710.81	0.553
711.00	0.556
711.20	0.555
711.39	0.552
711.59	0.553
711.78	0.553
711.98	0.554
712.17	0.555
712.37	0.553
712.56	0.553
712.75	0.553
712.95	0.553
713.14	0.553
713.34	0.553
713.53	0.553
713.73	0.554
713.92	0.554
714.11	0.554
714.31	0.554
714.50	0.553
714.70	0.551
714.89	0.550
715.08	0.553
715.28	0.553
715.47	0.550
715.67	0.551
715.86	0.550
716.06	0.553
716.25	0.551
716.44	0.551
716.64	0.550
716.83	0.551
717.03	0.550
717.22	0.547
717.41	0.548
717.61	0.547
717.80	0.549
717.99	0.550
718.19	0.548
718.38	0.551
718.58	0.547
718.77	0.549
718.96	0.548
719.16	0.549
719.35	0.550
719.55	0.549
719.74	0.549
719.93	0.547
720.13	0.547
720.32	0.546
720.51	0.547
720.71	0.548
720.90	0.547
721.10	0.546
721.29	0.545
721.48	0.545
721.68	0.546
721.87	0.545
722.06	0.545
722.26	0.549
722.45	0.547
722.64	0.547
722.84	0.546
723.03	0.546
723.22	0.547
723.42	0.547
723.61	0.548
723.80	0.548
724.00	0.548
724.19	0.547
724.38	0.548
724.58	0.546
724.77	0.546
724.96	0.546
725.16	0.546
725.35	0.548
725.54	0.547
725.74	0.545
725.93	0.545
726.12	0.545
726.32	0.545
726.51	0.547
726.70	0.546
726.90	0.548
727.09	0.546
727.28	0.544
727.48	0.546
727.67	0.544
727.86	0.544
728.06	0.545
728.25	0.546
728.44	0.547
728.64	0.544
728.83	0.545
729.02	0.543
729.21	0.545
729.41	0.544
729.60	0.544
729.79	0.545
729.99	0.543
730.18	0.544
730.37	0.544
730.56	0.543
730.76	0.542
730.95	0.545
731.14	0.545
731.34	0.543
731.53	0.546
731.72	0.543
731.91	0.546
732.11	0.543
732.30	0.547
732.49	0.545
732.69	0.545
732.88	0.545
733.07	0.543
733.26	0.546
733.46	0.542
733.65	0.546
733.84	0.544
734.03	0.544
734.23	0.543
734.42	0.545
734.61	0.544
734.80	0.544
735.00	0.546
735.19	0.544
735.38	0.544
735.57	0.543
735.77	0.544
735.96	0.542
736.15	0.543
736.34	0.543
736.54	0.545
736.73	0.544
736.92	0.544
737.11	0.543
737.31	0.542
737.50	0.544
737.69	0.545
737.88	0.544
738.07	0.545
738.27	0.545
738.46	0.547
738.65	0.542
738.84	0.543
739.04	0.544
739.23	0.544
739.42	0.542
739.61	0.544
739.80	0.542
740.00	0.543
740.19	0.543
740.38	0.542
740.57	0.543
740.76	0.542
740.96	0.544
741.15	0.543
741.34	0.543
741.53	0.544
741.72	0.543
741.92	0.541
742.11	0.541
742.30	0.542
742.49	0.541
742.68	0.540
742.88	0.541
743.07	0.541
743.26	0.542
743.45	0.544
743.64	0.542
743.84	0.540
744.03	0.540
744.22	0.542
744.41	0.540
744.60	0.538
744.79	0.540
744.99	0.539
745.18	0.539
745.37	0.539
745.56	0.538
745.75	0.539
745.94	0.537
746.14	0.538
746.33	0.540
746.52	0.540
746.71	0.540
746.90	0.538
747.09	0.541
747.28	0.537
747.48	0.539
747.67	0.538
747.86	0.535
748.05	0.539
748.24	0.537
748.43	0.537
748.62	0.537
748.82	0.538
749.01	0.538
749.20	0.538
749.39	0.537
749.58	0.538
749.77	0.537
749.96	0.536
750.16	0.538
750.35	0.536
750.54	0.535
750.73	0.536
750.92	0.538
751.11	0.536
751.30	0.537
751.49	0.537
751.68	0.537
751.88	0.537
752.07	0.536
752.26	0.537
752.45	0.535
752.64	0.536
752.83	0.538
753.02	0.537
753.21	0.535
753.40	0.535
753.60	0.538
753.79	0.536
753.98	0.535
754.17	0.535
754.36	0.535
754.55	0.536
754.74	0.536
754.93	0.535
755.12	0.534
755.31	0.538
755.50	0.534
755.70	0.533
755.89	0.533
756.08	0.534
756.27	0.534
756.46	0.534
756.65	0.534
756.84	0.534
757.03	0.535
757.22	0.534
757.41	0.535
757.60	0.534
757.79	0.535
757.98	0.536
758.17	0.536
758.36	0.536
758.56	0.536
758.75	0.534
758.94	0.534
759.13	0.534
759.32	0.532
759.51	0.533
759.70	0.533
759.89	0.532
760.08	0.533
760.27	0.531
760.46	0.531
760.65	0.531
760.84	0.530
761.03	0.531
761.22	0.533
761.41	0.533
761.60	0.533
761.79	0.530
761.98	0.532
762.17	0.530
762.36	0.532
762.55	0.531
762.74	0.533
762.93	0.532
763.12	0.532
763.31	0.530
763.50	0.531
763.69	0.531
763.88	0.531
764.07	0.531
764.26	0.532
764.45	0.532
764.64	0.532
764.83	0.530
765.02	0.531
765.21	0.529
765.40	0.533
765.59	0.530
765.78	0.530
765.97	0.533
766.16	0.530
766.35	0.531
766.54	0.531
766.73	0.532
766.92	0.531
767.11	0.529
767.30	0.533
767.49	0.530
767.68	0.531
767.87	0.530
768.06	0.530
768.25	0.531
768.44	0.532
768.63	0.528
768.82	0.528
769.01	0.526
769.20	0.528
769.39	0.528
769.58	0.529
769.77	0.530
769.96	0.528
770.15	0.530
770.34	0.528
770.53	0.528
770.72	0.529
770.91	0.527
771.10	0.529
771.29	0.529
771.47	0.528
771.66	0.527
771.85	0.528
772.04	0.527
772.23	0.526
772.42	0.525
772.61	0.527
772.80	0.526
772.99	0.529
773.18	0.526
773.37	0.528
773.56	0.525
773.75	0.527
773.94	0.527
774.13	0.525
774.31	0.526
774.50	0.525
774.69	0.526
774.88	0.525
775.07	0.527
775.26	0.526
775.45	0.523
775.64	0.526
775.83	0.524
776.02	0.523
776.21	0.523
776.40	0.526
776.58	0.524
776.77	0.524
776.96	0.527
777.15	0.527
777.34	0.526
777.53	0.526
777.72	0.526
777.91	0.527
778.10	0.526
778.28	0.526
778.47	0.528
778.66	0.526
778.85	0.524
779.04	0.525
779.23	0.524
779.42	0.525
779.61	0.525
779.79	0.525
779.98	0.523
780.17	0.525
780.36	0.524
780.55	0.522
780.74	0.522
780.93	0.522
781.12	0.524
781.30	0.522
781.49	0.521
781.68	0.522
781.87	0.524
782.06	0.523
782.25	0.521
782.44	0.524
782.62	0.522
782.81	0.524
783.00	0.523
783.19	0.522
783.38	0.524
783.57	0.524
783.75	0.522
783.94	0.521
784.13	0.522
784.32	0.520
784.51	0.520
784.70	0.522
784.88	0.521
785.07	0.520
785.26	0.522
785.45	0.523
785.64	0.520
785.83	0.524
786.01	0.521
786.20	0.523
786.39	0.523
786.58	0.522
786.77	0.521
786.95	0.522
787.14	0.522
787.33	0.522
787.52	0.521
787.71	0.522
787.90	0.520
788.08	0.521
788.27	0.521
788.46	0.520
788.65	0.521
788.84	0.522
789.02	0.520
789.21	0.521
789.40	0.522
789.59	0.520
789.77	0.523
789.96	0.520
790.15	0.521
790.34	0.520
790.53	0.521
790.71	0.520
790.90	0.521
791.09	0.519
791.28	0.522
791.46	0.522
791.65	0.519
791.84	0.520
792.03	0.519
792.22	0.521
792.40	0.520
792.59	0.521
792.78	0.520
792.97	0.522
793.15	0.520
793.34	0.519
793.53	0.520
793.72	0.519
793.90	0.517
794.09	0.520
794.28	0.518
794.47	0.519
794.65	0.518
794.84	0.519
795.03	0.518
795.22	0.518
795.40	0.519
795.59	0.518
795.78	0.518
795.97	0.520
796.15	0.520
796.34	0.519
796.53	0.520
796.71	0.521
796.90	0.519
797.09	0.521
797.28	0.520
797.46	0.520
797.65	0.517
797.84	0.520
798.02	0.519
798.21	0.520
798.40	0.519
798.59	0.518
798.77	0.519
798.96	0.520
799.15	0.519
799.33	0.521
799.52	0.519
799.71	0.518
799.90	0.520
800.08	0.520
800.27	0.520
800.46	0.520
800.64	0.518
800.83	0.518
801.02	0.518
801.20	0.519
801.39	0.516
801.58	0.517
801.76	0.516
801.95	0.518
802.14	0.518
802.32	0.518
802.51	0.518
802.70	0.517
802.88	0.516
803.07	0.520
803.26	0.516
803.44	0.517
803.63	0.520
803.82	0.517
804.00	0.516
804.19	0.517
804.38	0.518
804.56	0.517
804.75	0.516
804.94	0.518
805.12	0.518
805.31	0.518
805.50	0.518
805.68	0.517
805.87	0.520
806.06	0.519
806.24	0.519
806.43	0.518
806.62	0.519
806.80	0.518
806.99	0.516
807.17	0.517
807.36	0.518
807.55	0.517
807.73	0.516
807.92	0.517
808.11	0.517
808.29	0.515
808.48	0.514
808.66	0.516
808.85	0.516
809.04	0.515
809.22	0.513
809.41	0.518
809.59	0.516
809.78	0.515
809.97	0.514
810.15	0.515
810.34	0.515
810.53	0.516
810.71	0.515
810.90	0.515
811.08	0.514
811.27	0.514
811.45	0.514
811.64	0.514
811.83	0.514
812.01	0.516
812.20	0.514
812.38	0.514
812.57	0.514
812.76	0.514
812.94	0.515
813.13	0.514
813.31	0.515
813.50	0.515
813.68	0.515
813.87	0.513
814.06	0.514
814.24	0.513
814.43	0.513
814.61	0.513
814.80	0.512
814.98	0.515
815.17	0.512
815.36	0.511
815.54	0.512
815.73	0.512
815.91	0.511
816.10	0.513
816.28	0.513
816.47	0.513
816.65	0.513
816.84	0.513
817.03	0.516
817.21	0.516
817.40	0.516
817.58	0.514
817.77	0.516
817.95	0.515
818.14	0.515
818.32	0.514
818.51	0.515
818.69	0.514
818.88	0.516
819.06	0.516
819.25	0.515
819.43	0.514
819.62	0.515
819.80	0.512
819.99	0.514
820.18	0.515
820.36	0.512
820.55	0.515
820.73	0.514
820.92	0.513
821.10	0.513
821.29	0.514
821.47	0.513
821.66	0.512
821.84	0.512
822.03	0.514
822.21	0.513
822.40	0.513
822.58	0.515
822.77	0.513
822.95	0.514
823.14	0.514
823.32	0.513
823.50	0.515
823.69	0.515
823.87	0.515
824.06	0.515
824.24	0.516
824.43	0.514
824.61	0.514
824.80	0.513
824.98	0.514
825.17	0.513
825.35	0.513
825.54	0.514
825.72	0.512
825.91	0.512
826.09	0.512
826.28	0.511
826.46	0.514
826.64	0.513
826.83	0.514
827.01	0.514
827.20	0.514
827.38	0.514
827.57	0.516
827.75	0.514
827.94	0.514
828.12	0.516
828.31	0.515
828.49	0.514
828.67	0.515
828.86	0.514
829.04	0.513
829.23	0.514
829.41	0.515
829.60	0.515
829.78	0.516
829.96	0.516
830.15	0.518
830.33	0.517
830.52	0.518
830.70	0.518
830.88	0.515
831.07	0.516
831.25	0.517
831.44	0.516
831.62	0.515
831.81	0.515
831.99	0.516
832.17	0.515
832.36	0.516
832.54	0.516
832.73	0.517
832.91	0.517
833.09	0.517
833.28	0.517
833.46	0.518
833.65	0.518
833.83	0.518
834.01	0.519
834.20	0.517
834.38	0.516
834.56	0.517
834.75	0.517
834.93	0.517
835.12	0.516
835.30	0.517
835.48	0.517
835.67	0.516
835.85	0.517
836.03	0.516
836.22	0.517
836.40	0.519
836.59	0.520
836.77	0.518
836.95	0.521
837.14	0.519
837.32	0.516
837.50	0.519
837.69	0.516
837.87	0.516
838.05	0.517
838.24	0.516
838.42	0.516
838.60	0.515
838.79	0.523
838.97	0.516
839.15	0.518
839.34	0.518
839.52	0.517
839.70	0.518
839.89	0.520
840.07	0.519
840.25	0.519
840.44	0.518
840.62	0.518
840.80	0.518
840.99	0.519
841.17	0.519
841.35	0.518
841.54	0.518
841.72	0.518
841.90	0.517
842.09	0.518
842.27	0.519
842.45	0.521
842.64	0.520
842.82	0.518
843.00	0.520
843.19	0.518
843.37	0.518
843.55	0.520
843.73	0.518
843.92	0.516
844.10	0.517
844.28	0.519
844.47	0.519
844.65	0.517
844.83	0.519
845.01	0.518
845.20	0.517
845.38	0.517
845.56	0.517
845.75	0.518
845.93	0.516
846.11	0.516
846.29	0.517
846.48	0.519
846.66	0.519
846.84	0.517
847.02	0.516
847.21	0.516
847.39	0.518
847.57	0.517
847.76	0.519
847.94	0.518
848.12	0.518
848.30	0.519
848.49	0.520
848.67	0.518
848.85	0.518
849.03	0.519
849.22	0.518
849.40	0.520
849.58	0.519
849.76	0.518
849.95	0.518
850.13	0.518
850.31	0.517
850.49	0.519
850.67	0.521
850.86	0.519
851.04	0.519
851.22	0.517
851.40	0.518
851.59	0.517
851.77	0.518
851.95	0.518
852.13	0.520
852.31	0.518
852.50	0.520
852.68	0.522
852.86	0.520
853.04	0.519
853.23	0.517
853.41	0.518
853.59	0.517
853.77	0.518
853.95	0.519
854.14	0.518
854.32	0.518
854.50	0.518
854.68	0.517
854.86	0.519
855.04	0.517
855.23	0.518
855.41	0.516
855.59	0.518
855.77	0.519
855.95	0.518
856.14	0.518
856.32	0.518
856.50	0.518
856.68	0.519
856.86	0.519
857.04	0.518
857.23	0.519
857.41	0.518
857.59	0.519
857.77	0.517
857.95	0.517
858.13	0.517
858.32	0.518
858.50	0.520
858.68	0.515
858.86	0.517
859.04	0.518
859.22	0.516
859.41	0.520
859.59	0.518
859.77	0.517
859.95	0.516
860.13	0.517
860.31	0.517
860.49	0.517
860.68	0.517
860.86	0.518
861.04	0.517
861.22	0.517
861.40	0.516
861.58	0.517
861.76	0.516
861.94	0.517
862.13	0.517
862.31	0.516
862.49	0.516
862.67	0.517
862.85	0.517
863.03	0.518
863.21	0.518
863.39	0.518
863.57	0.517
863.76	0.518
863.94	0.519
864.12	0.518
864.30	0.518
864.48	0.519
864.66	0.519
864.84	0.519
865.02	0.519
865.20	0.519
865.38	0.518
865.57	0.518
865.75	0.520
865.93	0.520
866.11	0.518
866.29	0.518
866.47	0.520
866.65	0.518
866.83	0.520
867.01	0.518
867.19	0.518
867.37	0.516
867.55	0.519
867.73	0.518
867.92	0.517
868.10	0.519
868.28	0.518
868.46	0.516
868.64	0.516
868.82	0.518
869.00	0.518
869.18	0.518
869.36	0.517
869.54	0.516
869.72	0.517
869.90	0.516
870.08	0.516
870.26	0.516
870.44	0.516
870.62	0.517
870.80	0.516
870.98	0.517
871.16	0.517
871.34	0.516
871.53	0.517
871.71	0.518
871.89	0.517
872.07	0.517
872.25	0.516
872.43	0.517
872.61	0.516
872.79	0.516
872.97	0.517
873.15	0.517
873.33	0.517
873.51	0.518
873.69	0.517
873.87	0.517
874.05	0.518
874.23	0.517
874.41	0.516
874.59	0.522
874.77	0.517
874.95	0.518
875.13	0.517
875.31	0.515
875.49	0.517
875.67	0.518
875.85	0.517
876.03	0.517
876.21	0.519
876.39	0.517
876.57	0.518
876.75	0.520
876.93	0.517
877.11	0.518
877.29	0.519
877.47	0.516
877.65	0.519
877.82	0.520
878.00	0.521
878.18	0.521
878.36	0.520
878.54	0.521
878.72	0.520
878.90	0.523
879.08	0.523
879.26	0.522
879.44	0.523
879.62	0.522
879.80	0.521
879.98	0.522
880.16	0.523
880.34	0.519
880.52	0.522
880.70	0.520
880.88	0.519
881.06	0.522
881.24	0.519
881.42	0.522
881.59	0.521
881.77	0.519
881.95	0.521
882.13	0.520
882.31	0.521
882.49	0.520
882.67	0.524
882.85	0.520
883.03	0.520
883.21	0.522
883.39	0.521
883.57	0.523
883.75	0.522
883.92	0.521
884.10	0.524
884.28	0.521
884.46	0.522
884.64	0.521
884.82	0.521
885.00	0.522
885.18	0.523
885.36	0.523
885.54	0.523
885.71	0.523
885.89	0.524
886.07	0.523
886.25	0.523
886.43	0.524
886.61	0.523
886.79	0.523
886.97	0.524
887.15	0.524
887.32	0.523
887.50	0.525
887.68	0.523
887.86	0.524
888.04	0.525
888.22	0.525
888.40	0.523
888.57	0.525
888.75	0.523
888.93	0.526
889.11	0.522
889.29	0.523
889.47	0.523
889.65	0.524
889.82	0.523
890.00	0.526
890.18	0.524
890.36	0.523
890.54	0.524
890.72	0.525
890.90	0.524
891.07	0.523
891.25	0.523
891.43	0.522
891.61	0.523
891.79	0.524
891.97	0.524
892.14	0.522
892.32	0.523
892.50	0.523
892.68	0.523
892.86	0.523
893.03	0.523
893.21	0.524
893.39	0.524
893.57	0.524
893.75	0.523
893.93	0.523
894.10	0.524
894.28	0.523
894.46	0.522
894.64	0.523
894.82	0.522
894.99	0.523
895.17	0.522
895.35	0.524
895.53	0.525
895.71	0.523
895.88	0.524
896.06	0.523
896.24	0.525
896.42	0.524
896.59	0.524
896.77	0.525
896.95	0.524
897.13	0.524
897.31	0.525
897.48	0.523
897.66	0.526
897.84	0.524
898.02	0.524
898.19	0.524
898.37	0.524
898.55	0.524
898.73	0.523
898.91	0.523
899.08	0.524
899.26	0.523
899.44	0.523
899.62	0.523
899.79	0.524
899.97	0.525
900.15	0.523
900.33	0.524
900.50	0.525
900.68	0.523
900.86	0.524
901.04	0.525
901.21	0.525
901.39	0.526
901.57	0.524
901.74	0.524
901.92	0.523
902.10	0.525
902.28	0.524
902.45	0.525
902.63	0.523
902.81	0.523
902.99	0.526
903.16	0.524
903.34	0.523
903.52	0.525
903.69	0.524
903.87	0.525
904.05	0.525
904.22	0.525
904.40	0.525
904.58	0.524
904.76	0.526
904.93	0.525
905.11	0.526
905.29	0.526
905.46	0.523
905.64	0.525
905.82	0.527
905.99	0.523
906.17	0.526
906.35	0.526
906.53	0.525
906.70	0.527
906.88	0.527
907.06	0.525
907.23	0.525
907.41	0.528
907.59	0.524
907.76	0.526
907.94	0.526
908.12	0.525
908.29	0.526
908.47	0.527
908.65	0.527
908.82	0.527
909.00	0.527
909.18	0.528
909.35	0.527
909.53	0.527
909.71	0.527
909.88	0.528
910.06	0.527
910.23	0.527
910.41	0.530
910.59	0.526
910.76	0.525
910.94	0.525
911.12	0.526
911.29	0.526
911.47	0.526
911.65	0.526
911.82	0.525
912.00	0.527
912.17	0.525
912.35	0.526
912.53	0.528
912.70	0.527
912.88	0.528
913.06	0.531
913.23	0.529
913.41	0.527
913.58	0.530
913.76	0.530
913.94	0.528
914.11	0.529
914.29	0.530
914.46	0.531
914.64	0.530
914.82	0.530
914.99	0.532
915.17	0.530
915.34	0.530
915.52	0.530
915.70	0.530
915.87	0.530
916.05	0.531
916.22	0.529
916.40	0.529
916.57	0.532
916.75	0.532
916.93	0.532
917.10	0.531
917.28	0.533
917.45	0.531
917.63	0.531
917.80	0.531
917.98	0.531
918.16	0.532
918.33	0.533
918.51	0.532
918.68	0.530
918.86	0.532
919.03	0.531
919.21	0.534
919.39	0.534
919.56	0.536
919.74	0.537
919.91	0.536
920.09	0.536
920.26	0.536
920.44	0.536
920.61	0.536
920.79	0.537
920.96	0.535
921.14	0.537
921.31	0.537
921.49	0.537
921.67	0.536
921.84	0.537
922.02	0.537
922.19	0.537
922.37	0.537
922.54	0.538
922.72	0.538
922.89	0.539
923.07	0.540
923.24	0.540
923.42	0.538
923.59	0.538
923.77	0.539
923.94	0.540
924.12	0.541
924.29	0.542
924.47	0.542
924.64	0.543
924.82	0.541
924.99	0.542
925.17	0.544
925.34	0.544
925.52	0.545
925.69	0.545
925.87	0.545
926.04	0.545
926.22	0.547
926.39	0.545
926.57	0.545
926.74	0.545
926.91	0.548
927.09	0.549
927.26	0.547
927.44	0.547
927.61	0.547
927.79	0.547
927.96	0.549
928.14	0.549
928.31	0.551
928.49	0.547
928.66	0.550
928.84	0.552
929.01	0.551
929.18	0.553
929.36	0.553
929.53	0.555
929.71	0.552
929.88	0.554
930.06	0.553
930.23	0.555
930.41	0.554
930.58	0.557
930.75	0.557
930.93	0.559
931.10	0.557
931.28	0.558
931.45	0.558
931.63	0.560
931.80	0.558
931.97	0.559
932.15	0.561
932.32	0.561
932.50	0.560
932.67	0.562
932.84	0.562
933.02	0.565
933.19	0.562
933.37	0.565
933.54	0.565
933.71	0.566
933.89	0.571
934.06	0.568
934.24	0.569
934.41	0.569
934.58	0.569
934.76	0.568
934.93	0.571
935.11	0.571
935.28	0.570
935.45	0.571
935.63	0.571
935.80	0.571
935.98	0.575
936.15	0.572
936.32	0.573
936.50	0.575
936.67	0.576
936.84	0.574
937.02	0.579
937.19	0.580
937.36	0.579
937.54	0.578
937.71	0.582
937.89	0.579
938.06	0.581
938.23	0.580
938.41	0.585
938.58	0.583
938.75	0.584
938.93	0.587
939.10	0.586
939.27	0.584
939.45	0.589
939.62	0.586
939.79	0.590
939.97	0.588
940.14	0.590
940.31	0.590
940.49	0.592
940.66	0.590
940.83	0.590
941.01	0.591
941.18	0.593
941.35	0.593
941.53	0.593
941.70	0.595
941.87	0.593
942.05	0.594
942.22	0.595
942.39	0.600
942.57	0.598
942.74	0.602
942.91	0.599
943.08	0.601
943.26	0.599
943.43	0.600
943.60	0.601
943.78	0.603
943.95	0.606
944.12	0.604
944.29	0.607
944.47	0.607
944.64	0.607
944.81	0.610
944.99	0.611
945.16	0.611
945.33	0.611
945.50	0.613
945.68	0.614
945.85	0.612
946.02	0.617
946.20	0.616
946.37	0.619
946.54	0.620
946.71	0.621
946.89	0.619
947.06	0.619
947.23	0.620
947.40	0.626
947.58	0.622
947.75	0.627
947.92	0.626
948.09	0.625
948.27	0.627
948.44	0.630
948.61	0.632
948.78	0.632
948.96	0.636
949.13	0.634
949.30	0.634
949.47	0.632
949.65	0.634
949.82	0.640
949.99	0.635
950.16	0.642
950.33	0.640
950.51	0.643
950.68	0.647
950.85	0.646
951.02	0.649
951.20	0.649
951.37	0.653
951.54	0.650
951.71	0.653
951.88	0.656
952.06	0.656
952.23	0.655
952.40	0.657
952.57	0.659
952.74	0.661
952.92	0.660
953.09	0.662
953.26	0.665
953.43	0.664
953.60	0.664
953.77	0.663
953.95	0.663
954.12	0.669
954.29	0.668
954.46	0.675
954.63	0.673
954.81	0.674
954.98	0.673
955.15	0.679
955.32	0.683
955.49	0.678
955.66	0.682
955.84	0.685
956.01	0.682
956.18	0.688
956.35	0.693
956.52	0.689
956.69	0.695
956.87	0.691
957.04	0.692
957.21	0.700
957.38	0.695
957.55	0.697
957.72	0.699
957.89	0.700
958.07	0.696
958.24	0.704
958.41	0.708
958.58	0.703
958.75	0.705
958.92	0.708
959.09	0.707
959.26	0.707
959.44	0.707
959.61	0.711
959.78	0.712
959.95	0.717
960.12	0.714
960.29	0.724
960.46	0.718
960.63	0.718
960.81	0.717
960.98	0.720
961.15	0.721
961.32	0.724
961.49	0.718
961.66	0.723
961.83	0.723
962.00	0.721
962.17	0.726
962.34	0.722
962.52	0.725
962.69	0.729
962.86	0.725
963.03	0.728
963.20	0.730
963.37	0.725
963.54	0.728
963.71	0.727
963.88	0.726
964.05	0.730
964.22	0.736
964.39	0.728
964.56	0.728
964.74	0.731
964.91	0.727
965.08	0.729
965.25	0.728
965.42	0.730
965.59	0.735
965.76	0.732
965.93	0.739
966.10	0.729
966.27	0.733
966.44	0.730
966.61	0.736
966.78	0.733
966.95	0.730
967.12	0.735
967.29	0.742
967.46	0.738
967.63	0.734
967.80	0.738
967.97	0.735
968.14	0.734
968.32	0.739
968.49	0.740
968.66	0.735
968.83	0.738
969.00	0.739
969.17	0.738
969.34	0.743
969.51	0.747
969.68	0.738
969.85	0.742
970.02	0.744
970.19	0.741
970.36	0.745
970.53	0.746
970.70	0.740
970.87	0.744
971.04	0.742
971.21	0.746
971.38	0.746
971.55	0.749
971.72	0.747
971.89	0.750
972.06	0.749
972.23	0.748
972.40	0.749
972.57	0.743
972.74	0.742
972.91	0.748
973.07	0.746
973.24	0.744
973.41	0.746
973.58	0.739
973.75	0.813
973.92	0.744
974.09	0.742
974.26	0.742
974.43	0.740
974.60	0.745
974.77	0.749
974.94	0.745
975.11	0.752
975.28	0.757
975.45	0.747
975.62	0.753
975.79	0.760
975.96	0.752
976.13	0.748
976.30	0.757
976.47	0.749
976.64	0.750
976.80	0.754
976.97	0.752
977.14	0.749
977.31	0.752
977.48	0.754
977.65	0.751
977.82	0.747
977.99	0.756
978.16	0.754
978.33	0.753
978.50	0.751
978.67	0.751
978.83	0.750
979.00	0.753
979.17	0.751
979.34	0.749
979.51	0.748
979.68	0.752
979.85	0.748
980.02	0.753
980.19	0.744
980.36	0.752
980.52	0.760
980.69	0.750
980.86	0.752
981.03	0.751
981.20	0.743
981.37	0.749
981.54	0.753
981.71	0.748
981.88	0.753
982.04	0.750
982.21	0.747
982.38	0.757
982.55	0.752
982.72	0.748
982.89	0.756
983.06	0.748
983.22	0.749
983.39	0.752
983.56	0.752
983.73	0.747
983.90	0.746
984.07	0.756
984.24	0.748
984.40	0.750
984.57	0.741
984.74	0.755
984.91	0.761
985.08	0.749
985.25	0.739
985.41	0.745
985.58	0.745
985.75	0.754
985.92	0.751
986.09	0.747
986.26	0.748
986.42	0.746
986.59	0.741
986.76	0.750
986.93	0.753
987.10	0.753
987.27	0.742
987.43	0.737
987.60	0.750
987.77	0.748
987.94	0.740
988.11	0.748
988.27	0.749
988.44	0.747
988.61	0.741
988.78	0.734
988.95	0.740
989.11	0.751
989.28	0.742
989.45	0.738
989.62	0.740
989.79	0.743
989.95	0.736
990.12	0.746
990.29	0.749
990.46	0.741
990.62	0.735
990.79	0.738
990.96	0.742
991.13	0.745
991.30	0.740
991.46	0.738
991.63	0.735
991.80	0.732
991.97	0.735
992.13	0.742
992.30	0.749
992.47	0.741
992.64	0.741
992.80	0.741
992.97	0.749
993.14	0.737
993.31	0.724
993.47	0.742
993.64	0.734
993.81	0.733
993.98	0.736
994.14	0.730
994.31	0.729
994.48	0.739
994.64	0.743
994.81	0.733
994.98	0.736
995.15	0.725
995.31	0.729
995.48	0.727
995.65	0.741
995.82	0.724
995.98	0.725
996.15	0.733
996.32	0.744
996.48	0.736
996.65	0.736
996.82	0.725
996.99	0.730
997.15	0.728
997.32	0.736
997.49	0.727
997.65	0.734
997.82	0.732
997.99	0.721
998.15	0.724
998.32	0.734
998.49	0.730
998.65	0.733
998.82	0.732
998.99	0.720
999.15	0.726
999.32	0.724
999.49	0.724
999.65	0.727
999.82	0.715
999.99	0.721
1000.15	0.722
1000.32	0.725
1000.49	0.728
1000.65	0.716
1000.82	0.716
1000.99	0.720
1001.15	0.721
1001.32	0.718
1001.49	0.722
1001.65	0.719
1001.82	0.736
1001.99	0.717
1002.15	0.714
1002.32	0.717
1002.49	0.726
1002.65	0.720
1002.82	0.715
1002.99	0.714
1003.15	0.729
1003.32	0.721
1003.48	0.726
1003.65	0.725
1003.82	0.719
1003.98	0.704
1004.15	0.705
1004.32	0.710
1004.48	0.709
1004.65	0.720
1004.81	0.707
1004.98	0.701
1005.15	0.711
1005.31	0.711
1005.48	0.702
1005.64	0.704
1005.81	0.726
1005.98	0.706
1006.14	0.704
1006.31	0.712
1006.47	0.703
1006.64	0.697
1006.81	0.698
1006.97	0.702
1007.14	0.703
1007.30	0.714
1007.47	0.716
1007.63	0.702
1007.80	0.695
1007.97	0.698
1008.13	0.703
1008.30	0.704
1008.46	0.707
1008.63	0.699
1008.79	0.703
1008.96	0.706
1009.13	0.710
1009.29	0.697
1009.46	0.699
1009.62	0.701
1009.79	0.691
1009.95	0.692
1010.12	0.701
1010.28	0.704
1010.45	0.698
1010.62	0.700
1010.78	0.692
1010.95	0.689
1011.11	0.695
1011.28	0.690
1011.44	0.708
1011.61	0.695
1011.77	0.690
1011.94	0.689
1012.10	0.690
1012.27	0.693
1012.43	0.693
1012.60	0.687
1012.76	0.695
1012.93	0.692
1013.10	0.687
1013.26	0.670
1013.43	0.684
1013.59	0.746
1013.76	0.688
1013.92	0.682
1014.09	0.671
1014.25	0.682
1014.42	0.683
1014.58	0.680
1014.75	0.695
1014.91	0.684
1015.08	0.699
1015.24	0.677
1015.41	0.688
1015.57	0.690
1015.73	0.680
1015.90	0.671
1016.06	0.690
1016.23	0.680
1016.39	0.681
1016.56	0.686
1016.72	0.683
1016.89	0.685
1017.05	0.700
1017.22	0.675
1017.38	0.682
1017.55	0.675
1017.71	0.687
1017.88	0.685
1018.04	0.695
1018.21	0.680
1018.37	0.678
1018.53	0.679
1018.70	0.671
1018.86	0.666
1019.03	0.684
1019.19	0.668
1019.36	0.666
1019.52	0.678
1019.69	0.681
1019.85	0.669
1020.01	0.670
1020.18	0.665
1020.34	0.669
1020.51	0.664
1020.67	0.675
1020.84	0.667
1021.00	0.676
1021.16	0.660
1021.33	0.667
1021.49	0.659
1021.66	0.673
1021.82	0.662
1021.98	0.666
1022.15	0.665
1022.31	0.666
1022.48	0.660
1022.64	0.670
1022.80	0.663
1022.97	0.658
1023.13	0.657
1023.30	0.667
1023.46	0.673
1023.62	0.655
1023.79	0.667
1023.95	0.676
1024.12	0.671
1024.28	0.663
1024.44	0.667
1024.61	0.661
1024.77	0.662
1024.93	0.657
1025.10	0.669
1025.26	0.654
1025.43	0.661
1025.59	0.632
1025.75	0.659
1025.92	0.653
1026.08	0.655
1026.24	0.659
1026.41	0.670
1026.57	0.652
1026.73	0.639
1026.90	0.654
1027.06	0.637
1027.23	0.650
1027.39	0.651
1027.55	0.656
1027.72	0.647
1027.88	0.642
1028.04	0.651
1028.21	0.655
1028.37	0.619
1028.53	0.662
1028.70	0.646
1028.86	0.637
1029.02	0.642
1029.19	0.650
1029.35	0.635
1029.51	0.637
1029.67	0.637
1029.84	0.650
1030.00	0.612
1030.16	0.618
1030.33	0.636
1030.49	0.624
1030.65	0.608
1030.82	0.741
1030.98	0.624
1031.14	0.623
1031.31	0.621
1031.47	0.604
1031.63	0.621
1031.79	0.616
1031.96	0.627
1032.12	0.631
1032.28	0.610
1032.45	0.646
1032.61	0.635
1032.77	0.630
1032.93	0.618
1033.10	0.627
1033.26	0.643
1033.42	0.625
1033.58	0.628
1033.75	0.642
1033.91	0.636
1034.07	0.656
1034.24	0.638
1034.40	0.625
1034.56	0.626
1034.72	0.635
1034.89	0.642
1035.05	0.628
1035.21	0.629
1035.37	0.615
1035.54	0.632
1035.70	0.616
1035.86	0.616
1036.02	0.631
1036.19	0.615
1036.35	0.602
1036.51	0.634
1036.67	0.612
1036.83	0.606
1037.00	0.605
1037.16	0.616
1037.32	0.622
1037.48	0.617
1037.65	0.659
1037.81	0.623
1037.97	0.624
1038.13	0.627
1038.29	0.606
1038.46	0.588
1038.62	0.631
1038.78	0.613
1038.94	0.585
1039.10	0.631
1039.27	0.597
1039.43	0.611
1039.59	0.608
1039.75	0.614
1039.91	0.595
1040.08	0.597
1040.24	0.621
1040.40	0.629
1040.56	0.616
1040.72	0.577
1040.89	0.594
1041.05	0.610
1041.21	0.594
1041.37	0.575
1041.53	0.622
1041.69	0.612
1041.86	0.609
1042.02	0.583
1042.18	0.583
1042.34	0.592
1042.50	0.623
1042.66	0.597
1042.83	0.589
1042.99	0.614
1043.15	0.578
1043.31	0.577
1043.47	0.605
1043.63	0.584
1043.79	0.586
1043.96	0.593
1044.12	0.627
1044.28	0.599
1044.44	0.617
1044.60	0.572
1044.76	0.564
1044.92	0.586
1045.09	0.614
1045.25	0.597
1045.41	0.599
1045.57	0.560
1045.73	0.565
1045.89	0.574
1046.05	0.589
1046.21	0.587
1046.38	0.548
1046.54	0.619
1046.70	0.593
1046.86	0.580
>>>>>End Processed Spectral Data<<<<<
