SpectraSuite Data File
++++++++++++++++++++++++++++++++++++
Date: Mon May 20 12:10:43 CDT 2013
User: Students
Dark Spectrum Present: Yes
Reference Spectrum Present: Yes
Number of Sampled Component Spectra: 1
Spectrometers: USB4H00887
Integration Time (usec): 60000 (USB4H00887)
Spectra Averaged: 5 (USB4H00887)
Boxcar Smoothing: 5 (USB4H00887)
Correct for Electrical Dark: No (USB4H00887)
Strobe/Lamp Enabled: No (USB4H00887)
Correct for Detector Non-linearity: No (USB4H00887)
Correct for Stray Light: No (USB4H00887)
Number of Pixels in Processed Spectrum: 3648
>>>>>Begin Processed Spectral Data<<<<<
345.83	0.413
346.05	0.413
346.26	0.413
346.48	-0.000
346.70	-0.000
346.92	-0.079
347.14	-0.011
347.35	0.008
347.57	0.027
347.79	0.047
348.01	-0.043
348.23	-0.134
348.44	-0.000
348.66	0.132
348.88	-0.222
349.10	-0.144
349.32	0.059
349.53	0.023
349.75	0.089
349.97	0.058
350.19	0.108
350.41	0.127
350.62	-0.285
350.84	0.018
351.06	0.024
351.28	0.024
351.50	-0.088
351.71	0.005
351.93	-0.030
352.15	-0.018
352.37	-0.089
352.58	-0.031
352.80	-0.034
353.02	-0.020
353.24	-0.006
353.46	-0.054
353.67	0.103
353.89	0.031
354.11	0.025
354.33	0.035
354.54	0.083
354.76	0.134
354.98	0.208
355.20	0.228
355.41	0.089
355.63	0.200
355.85	0.108
356.07	-0.000
356.28	0.096
356.50	0.165
356.72	0.067
356.94	0.165
357.15	0.211
357.37	-0.000
357.59	0.112
357.81	0.079
358.02	0.100
358.24	0.074
358.46	0.149
358.68	0.137
358.89	0.086
359.11	-0.000
359.33	0.038
359.55	-0.341
359.76	0.091
359.98	0.078
360.20	0.080
360.42	0.076
360.63	0.077
360.85	0.028
361.07	0.111
361.29	0.022
361.50	0.117
361.72	0.062
361.94	0.225
362.15	0.090
362.37	0.052
362.59	0.062
362.81	0.086
363.02	0.157
363.24	0.271
363.46	0.171
363.68	0.224
363.89	0.136
364.11	0.220
364.33	0.277
364.54	0.209
364.76	0.242
364.98	0.272
365.20	0.318
365.41	0.173
365.63	0.214
365.85	0.143
366.06	0.457
366.28	0.510
366.50	0.301
366.71	0.122
366.93	0.108
367.15	0.127
367.37	0.096
367.58	0.142
367.80	0.162
368.02	0.441
368.23	0.154
368.45	0.166
368.67	0.131
368.88	0.130
369.10	-0.000
369.32	0.142
369.53	0.077
369.75	0.139
369.97	0.340
370.19	0.238
370.40	0.099
370.62	0.294
370.84	0.103
371.05	0.567
371.27	0.139
371.49	0.163
371.70	0.204
371.92	0.322
372.14	0.116
372.35	0.121
372.57	0.121
372.79	0.258
373.00	0.074
373.22	0.085
373.44	0.097
373.65	0.095
373.87	0.134
374.09	0.547
374.30	0.122
374.52	0.143
374.74	0.098
374.95	0.378
375.17	0.124
375.39	-0.000
375.60	0.165
375.82	0.270
376.04	0.095
376.25	0.099
376.47	0.062
376.68	0.157
376.90	0.104
377.12	0.226
377.33	0.142
377.55	0.303
377.77	0.124
377.98	0.195
378.20	0.117
378.42	0.147
378.63	0.199
378.85	-0.000
379.07	0.130
379.28	0.509
379.50	0.322
379.71	0.171
379.93	0.115
380.15	0.152
380.36	0.257
380.58	0.185
380.80	0.568
381.01	0.156
381.23	0.131
381.44	0.144
381.66	0.156
381.88	0.188
382.09	-0.080
382.31	0.134
382.53	0.149
382.74	0.848
382.96	0.207
383.17	0.173
383.39	0.252
383.61	0.330
383.82	0.219
384.04	0.234
384.25	0.283
384.47	0.267
384.69	0.249
384.90	0.223
385.12	0.501
385.33	0.331
385.55	0.241
385.77	0.357
385.98	0.181
386.20	0.239
386.41	0.229
386.63	0.267
386.85	0.218
387.06	0.288
387.28	0.444
387.49	0.269
387.71	0.196
387.93	0.168
388.14	0.548
388.36	0.216
388.57	0.204
388.79	0.221
389.01	2.542
389.22	0.283
389.44	0.231
389.65	0.193
389.87	0.190
390.08	0.225
390.30	0.185
390.52	0.361
390.73	0.374
390.95	0.258
391.16	0.270
391.38	-0.000
391.59	0.331
391.81	0.277
392.03	0.278
392.24	0.324
392.46	0.269
392.67	0.244
392.89	0.337
393.10	0.543
393.32	0.350
393.53	0.379
393.75	0.227
393.97	0.266
394.18	0.375
394.40	0.315
394.61	0.350
394.83	0.286
395.04	0.326
395.26	0.223
395.47	0.351
395.69	0.283
395.91	0.297
396.12	0.371
396.34	0.359
396.55	0.228
396.77	0.339
396.98	2.004
397.20	0.412
397.41	0.475
397.63	0.320
397.84	0.293
398.06	0.278
398.27	0.299
398.49	0.351
398.71	0.255
398.92	0.311
399.14	0.405
399.35	0.521
399.57	0.482
399.78	0.321
400.00	0.302
400.21	0.380
400.43	0.310
400.64	0.321
400.86	0.735
401.07	0.386
401.29	0.332
401.50	0.358
401.72	0.519
401.93	0.324
402.15	0.383
402.36	0.358
402.58	0.283
402.79	0.315
403.01	0.522
403.22	0.396
403.44	0.270
403.65	0.439
403.87	0.463
404.08	0.370
404.30	0.591
404.51	0.322
404.73	0.369
404.94	0.330
405.16	0.340
405.37	0.267
405.59	0.495
405.80	0.313
406.02	0.383
406.23	0.405
406.45	0.452
406.66	0.492
406.88	0.322
407.09	0.523
407.31	0.402
407.52	0.490
407.74	0.391
407.95	0.477
408.17	0.424
408.38	0.455
408.60	0.297
408.81	0.512
409.03	0.388
409.24	0.389
409.45	0.466
409.67	0.446
409.88	0.406
410.10	0.541
410.31	0.427
410.53	0.412
410.74	0.582
410.96	0.555
411.17	0.567
411.39	0.420
411.60	0.397
411.82	0.456
412.03	0.439
412.24	0.420
412.46	0.611
412.67	0.493
412.89	0.494
413.10	0.481
413.32	0.432
413.53	0.505
413.75	0.521
413.96	0.381
414.17	0.504
414.39	0.515
414.60	0.424
414.82	0.565
415.03	0.436
415.25	0.481
415.46	0.340
415.68	0.488
415.89	0.942
416.10	0.713
416.32	0.383
416.53	0.459
416.75	0.432
416.96	0.518
417.18	0.448
417.39	0.436
417.60	0.436
417.82	0.632
418.03	0.541
418.25	0.454
418.46	0.489
418.67	0.454
418.89	0.482
419.10	0.509
419.32	0.696
419.53	0.609
419.75	0.508
419.96	0.444
420.17	0.549
420.39	0.530
420.60	0.551
420.82	0.689
421.03	0.547
421.24	0.458
421.46	0.508
421.67	0.556
421.89	0.491
422.10	0.529
422.31	0.527
422.53	0.782
422.74	0.538
422.96	0.422
423.17	0.466
423.38	0.571
423.60	0.472
423.81	0.592
424.03	0.511
424.24	0.568
424.45	0.569
424.67	0.573
424.88	0.519
425.09	0.585
425.31	0.546
425.52	0.582
425.74	0.658
425.95	0.738
426.16	0.543
426.38	0.626
426.59	0.565
426.80	0.653
427.02	0.678
427.23	0.514
427.45	0.677
427.66	0.645
427.87	0.499
428.09	0.533
428.30	0.592
428.51	0.580
428.73	0.637
428.94	0.555
429.15	0.541
429.37	0.524
429.58	0.549
429.79	0.494
430.01	0.600
430.22	0.590
430.44	0.610
430.65	0.546
430.86	0.586
431.08	0.566
431.29	0.523
431.50	0.621
431.72	0.817
431.93	0.667
432.14	0.510
432.36	0.558
432.57	0.572
432.78	0.587
433.00	0.542
433.21	0.536
433.42	0.674
433.64	0.596
433.85	0.674
434.06	0.550
434.28	0.583
434.49	0.599
434.70	0.604
434.92	0.615
435.13	0.665
435.34	0.673
435.56	0.641
435.77	0.639
435.98	0.825
436.20	0.684
436.41	0.580
436.62	0.570
436.83	0.652
437.05	0.759
437.26	0.667
437.47	0.583
437.69	0.629
437.90	0.573
438.11	0.566
438.33	0.622
438.54	0.642
438.75	0.826
438.97	0.807
439.18	0.594
439.39	0.617
439.60	0.663
439.82	0.627
440.03	0.587
440.24	0.865
440.46	0.649
440.67	0.624
440.88	0.673
441.10	0.627
441.31	0.626
441.52	0.691
441.73	0.788
441.95	0.698
442.16	0.644
442.37	1.073
442.58	0.632
442.80	0.611
443.01	0.797
443.22	0.723
443.44	0.618
443.65	0.729
443.86	0.721
444.07	0.775
444.29	0.663
444.50	0.848
444.71	0.637
444.92	0.597
445.14	0.768
445.35	0.816
445.56	0.632
445.78	0.739
445.99	0.735
446.20	0.632
446.41	0.708
446.63	0.704
446.84	0.665
447.05	0.666
447.26	0.809
447.48	0.683
447.69	0.649
447.90	0.750
448.11	0.662
448.33	0.695
448.54	0.717
448.75	0.749
448.96	0.762
449.18	0.810
449.39	0.719
449.60	0.702
449.81	0.858
450.03	0.739
450.24	0.806
450.45	0.764
450.66	0.744
450.87	0.780
451.09	0.725
451.30	0.700
451.51	0.777
451.72	0.785
451.94	0.793
452.15	0.862
452.36	0.714
452.57	0.727
452.78	0.730
453.00	0.760
453.21	0.711
453.42	0.692
453.63	0.793
453.85	0.753
454.06	0.753
454.27	0.901
454.48	0.799
454.69	0.724
454.91	0.810
455.12	0.696
455.33	0.788
455.54	0.815
455.75	0.778
455.97	0.811
456.18	0.807
456.39	0.812
456.60	0.839
456.81	0.771
457.03	0.777
457.24	0.775
457.45	0.878
457.66	0.811
457.87	0.757
458.09	0.774
458.30	0.685
458.51	0.810
458.72	0.831
458.93	0.842
459.15	0.740
459.36	0.812
459.57	0.829
459.78	0.876
459.99	0.784
460.20	0.745
460.42	0.833
460.63	0.781
460.84	0.768
461.05	0.789
461.26	0.858
461.47	0.768
461.69	0.817
461.90	0.862
462.11	0.820
462.32	0.887
462.53	0.819
462.74	0.930
462.96	0.799
463.17	0.786
463.38	0.831
463.59	0.957
463.80	0.783
464.01	0.811
464.23	0.903
464.44	0.855
464.65	0.856
464.86	0.879
465.07	0.881
465.28	0.839
465.49	0.864
465.71	0.817
465.92	0.852
466.13	0.904
466.34	0.830
466.55	0.886
466.76	0.844
466.97	0.872
467.19	0.860
467.40	0.907
467.61	0.910
467.82	0.825
468.03	0.809
468.24	0.885
468.45	0.918
468.66	0.901
468.88	0.914
469.09	0.920
469.30	0.970
469.51	0.885
469.72	0.925
469.93	0.902
470.14	0.874
470.35	0.971
470.57	0.915
470.78	0.851
470.99	0.999
471.20	0.928
471.41	0.881
471.62	0.938
471.83	0.909
472.04	0.944
472.25	0.987
472.47	0.897
472.68	0.905
472.89	0.911
473.10	0.957
473.31	0.896
473.52	0.966
473.73	0.993
473.94	0.904
474.15	0.929
474.36	0.935
474.57	0.961
474.79	0.930
475.00	0.929
475.21	0.916
475.42	1.021
475.63	0.916
475.84	0.945
476.05	0.949
476.26	0.915
476.47	0.954
476.68	1.002
476.89	0.923
477.10	0.983
477.32	0.971
477.53	1.030
477.74	0.937
477.95	0.980
478.16	0.922
478.37	0.972
478.58	0.978
478.79	0.992
479.00	0.995
479.21	0.949
479.42	0.991
479.63	0.994
479.84	0.949
480.05	0.950
480.26	0.980
480.47	1.006
480.69	1.006
480.90	0.969
481.11	0.964
481.32	1.025
481.53	0.960
481.74	1.021
481.95	0.982
482.16	1.002
482.37	1.012
482.58	0.977
482.79	0.993
483.00	1.029
483.21	0.967
483.42	0.938
483.63	1.026
483.84	1.058
484.05	1.042
484.26	1.008
484.47	1.005
484.68	0.962
484.89	0.970
485.10	1.023
485.31	0.998
485.52	1.004
485.73	1.006
485.94	1.049
486.15	0.987
486.37	1.003
486.58	0.968
486.79	0.983
487.00	1.038
487.21	1.027
487.42	1.021
487.63	1.024
487.84	1.043
488.05	1.037
488.26	0.995
488.47	1.004
488.68	1.033
488.89	1.008
489.10	1.002
489.31	1.011
489.52	1.050
489.73	1.015
489.94	1.058
490.15	1.013
490.36	1.062
490.57	1.007
490.78	0.987
490.99	1.032
491.20	1.118
491.41	1.065
491.62	1.005
491.83	1.035
492.04	1.029
492.25	1.033
492.45	1.032
492.66	1.053
492.87	1.041
493.08	1.029
493.29	1.010
493.50	0.997
493.71	1.007
493.92	0.999
494.13	1.015
494.34	1.036
494.55	1.048
494.76	1.080
494.97	1.074
495.18	1.035
495.39	1.047
495.60	0.996
495.81	1.000
496.02	1.023
496.23	1.021
496.44	1.058
496.65	1.045
496.86	1.048
497.07	1.077
497.28	1.070
497.49	1.016
497.70	1.022
497.91	1.045
498.12	1.023
498.32	1.069
498.53	1.048
498.74	1.038
498.95	1.067
499.16	1.019
499.37	1.023
499.58	1.032
499.79	1.063
500.00	1.057
500.21	1.088
500.42	1.031
500.63	1.034
500.84	1.057
501.05	1.035
501.26	1.066
501.46	1.109
501.67	1.065
501.88	1.069
502.09	1.041
502.30	1.051
502.51	1.106
502.72	1.053
502.93	1.069
503.14	1.093
503.35	1.056
503.56	1.051
503.77	1.087
503.97	1.060
504.18	1.060
504.39	1.100
504.60	1.064
504.81	1.096
505.02	1.085
505.23	1.086
505.44	1.064
505.65	1.072
505.86	1.050
506.07	1.120
506.27	1.077
506.48	1.082
506.69	1.062
506.90	1.085
507.11	1.083
507.32	1.055
507.53	1.064
507.74	1.057
507.95	1.073
508.15	1.080
508.36	1.088
508.57	1.100
508.78	1.081
508.99	1.083
509.20	1.056
509.41	1.080
509.62	1.068
509.82	1.064
510.03	1.075
510.24	1.078
510.45	1.100
510.66	1.091
510.87	1.088
511.08	1.042
511.29	1.086
511.49	1.062
511.70	1.112
511.91	1.042
512.12	1.039
512.33	1.076
512.54	1.088
512.75	1.072
512.95	1.102
513.16	1.090
513.37	1.068
513.58	1.111
513.79	1.070
514.00	1.078
514.20	1.097
514.41	1.086
514.62	1.050
514.83	1.097
515.04	1.086
515.25	1.062
515.46	1.074
515.66	1.075
515.87	1.089
516.08	1.055
516.29	1.082
516.50	1.063
516.71	1.054
516.91	1.064
517.12	1.083
517.33	1.068
517.54	1.053
517.75	1.056
517.95	1.069
518.16	1.080
518.37	1.044
518.58	1.050
518.79	1.019
519.00	1.054
519.20	1.063
519.41	1.032
519.62	1.053
519.83	1.064
520.04	1.026
520.24	1.025
520.45	1.036
520.66	1.062
520.87	1.020
521.08	1.018
521.28	1.023
521.49	1.042
521.70	1.011
521.91	1.026
522.12	1.006
522.32	1.030
522.53	1.012
522.74	1.000
522.95	1.010
523.16	1.014
523.36	1.024
523.57	1.003
523.78	0.996
523.99	1.001
524.20	0.992
524.40	1.006
524.61	1.014
524.82	0.986
525.03	0.991
525.23	0.990
525.44	0.973
525.65	0.972
525.86	0.997
526.06	0.965
526.27	0.966
526.48	0.978
526.69	0.956
526.90	0.960
527.10	0.996
527.31	0.947
527.52	0.940
527.73	0.931
527.93	0.943
528.14	0.947
528.35	0.936
528.56	0.938
528.76	0.931
528.97	0.923
529.18	0.913
529.39	0.913
529.59	0.915
529.80	0.948
530.01	0.918
530.22	0.916
530.42	0.885
530.63	0.903
530.84	0.879
531.05	0.893
531.25	0.896
531.46	0.889
531.67	0.867
531.88	0.888
532.08	0.881
532.29	0.877
532.50	0.868
532.70	0.862
532.91	0.851
533.12	0.855
533.33	0.880
533.53	0.848
533.74	0.847
533.95	0.854
534.15	0.841
534.36	0.843
534.57	0.825
534.78	0.828
534.98	0.839
535.19	0.808
535.40	0.808
535.60	0.829
535.81	0.808
536.02	0.810
536.23	0.800
536.43	0.802
536.64	0.788
536.85	0.795
537.05	0.803
537.26	0.778
537.47	0.782
537.67	0.771
537.88	0.765
538.09	0.772
538.30	0.761
538.50	0.751
538.71	0.762
538.92	0.748
539.12	0.744
539.33	0.740
539.54	0.743
539.74	0.746
539.95	0.736
540.16	0.733
540.36	0.725
540.57	0.726
540.78	0.718
540.98	0.717
541.19	0.716
541.40	0.705
541.60	0.715
541.81	0.708
542.02	0.708
542.22	0.696
542.43	0.691
542.64	0.685
542.84	0.684
543.05	0.676
543.26	0.677
543.46	0.679
543.67	0.676
543.88	0.672
544.08	0.661
544.29	0.656
544.50	0.656
544.70	0.656
544.91	0.648
545.12	0.648
545.32	0.643
545.53	0.646
545.74	0.634
545.94	0.631
546.15	0.628
546.35	0.625
546.56	0.620
546.77	0.617
546.97	0.615
547.18	0.607
547.39	0.608
547.59	0.606
547.80	0.602
548.01	0.606
548.21	0.602
548.42	0.594
548.62	0.593
548.83	0.591
549.04	0.587
549.24	0.579
549.45	0.578
549.65	0.574
549.86	0.569
550.07	0.568
550.27	0.566
550.48	0.573
550.69	0.559
550.89	0.558
551.10	0.553
551.30	0.553
551.51	0.552
551.72	0.541
551.92	0.544
552.13	0.543
552.33	0.543
552.54	0.537
552.75	0.530
552.95	0.532
553.16	0.526
553.36	0.524
553.57	0.522
553.78	0.520
553.98	0.519
554.19	0.511
554.39	0.508
554.60	0.510
554.80	0.509
555.01	0.502
555.22	0.502
555.42	0.499
555.63	0.493
555.83	0.496
556.04	0.490
556.25	0.493
556.45	0.484
556.66	0.482
556.86	0.485
557.07	0.483
557.27	0.482
557.48	0.477
557.68	0.475
557.89	0.475
558.10	0.472
558.30	0.468
558.51	0.466
558.71	0.464
558.92	0.459
559.12	0.460
559.33	0.463
559.54	0.458
559.74	0.453
559.95	0.451
560.15	0.450
560.36	0.447
560.56	0.442
560.77	0.442
560.97	0.442
561.18	0.436
561.38	0.434
561.59	0.437
561.79	0.432
562.00	0.429
562.21	0.425
562.41	0.424
562.62	0.423
562.82	0.421
563.03	0.417
563.23	0.416
563.44	0.416
563.64	0.413
563.85	0.415
564.05	0.408
564.26	0.409
564.46	0.408
564.67	0.409
564.87	0.404
565.08	0.401
565.28	0.401
565.49	0.402
565.69	0.399
565.90	0.396
566.10	0.399
566.31	0.392
566.51	0.394
566.72	0.395
566.92	0.389
567.13	0.389
567.33	0.388
567.54	0.386
567.74	0.385
567.95	0.380
568.15	0.381
568.36	0.381
568.56	0.379
568.77	0.374
568.97	0.372
569.18	0.371
569.38	0.369
569.59	0.370
569.79	0.367
570.00	0.365
570.20	0.363
570.41	0.361
570.61	0.359
570.82	0.360
571.02	0.357
571.23	0.359
571.43	0.355
571.64	0.353
571.84	0.352
572.05	0.351
572.25	0.350
572.45	0.348
572.66	0.345
572.86	0.345
573.07	0.343
573.27	0.342
573.48	0.341
573.68	0.338
573.89	0.337
574.09	0.338
574.30	0.336
574.50	0.335
574.70	0.334
574.91	0.332
575.11	0.332
575.32	0.331
575.52	0.327
575.73	0.326
575.93	0.326
576.14	0.325
576.34	0.323
576.54	0.322
576.75	0.320
576.95	0.320
577.16	0.318
577.36	0.317
577.57	0.317
577.77	0.315
577.97	0.312
578.18	0.314
578.38	0.310
578.59	0.309
578.79	0.307
579.00	0.308
579.20	0.306
579.40	0.305
579.61	0.304
579.81	0.304
580.02	0.301
580.22	0.301
580.42	0.299
580.63	0.300
580.83	0.299
581.04	0.297
581.24	0.296
581.45	0.295
581.65	0.295
581.85	0.294
582.06	0.291
582.26	0.291
582.47	0.290
582.67	0.289
582.87	0.288
583.08	0.286
583.28	0.286
583.48	0.284
583.69	0.281
583.89	0.281
584.10	0.282
584.30	0.279
584.50	0.277
584.71	0.276
584.91	0.276
585.12	0.273
585.32	0.274
585.52	0.273
585.73	0.272
585.93	0.271
586.13	0.270
586.34	0.269
586.54	0.269
586.75	0.268
586.95	0.267
587.15	0.267
587.36	0.266
587.56	0.265
587.76	0.264
587.97	0.263
588.17	0.261
588.37	0.262
588.58	0.262
588.78	0.259
588.98	0.259
589.19	0.258
589.39	0.256
589.60	0.257
589.80	0.255
590.00	0.254
590.21	0.254
590.41	0.253
590.61	0.252
590.82	0.252
591.02	0.252
591.22	0.249
591.43	0.250
591.63	0.248
591.83	0.248
592.04	0.246
592.24	0.247
592.44	0.244
592.65	0.242
592.85	0.243
593.05	0.243
593.26	0.241
593.46	0.241
593.66	0.240
593.86	0.239
594.07	0.238
594.27	0.237
594.47	0.237
594.68	0.236
594.88	0.236
595.08	0.235
595.29	0.235
595.49	0.233
595.69	0.232
595.90	0.231
596.10	0.232
596.30	0.232
596.50	0.231
596.71	0.230
596.91	0.229
597.11	0.229
597.32	0.229
597.52	0.229
597.72	0.228
597.93	0.228
598.13	0.226
598.33	0.226
598.53	0.225
598.74	0.225
598.94	0.224
599.14	0.223
599.35	0.223
599.55	0.223
599.75	0.221
599.95	0.220
600.16	0.220
600.36	0.218
600.56	0.218
600.76	0.217
600.97	0.216
601.17	0.215
601.37	0.216
601.58	0.215
601.78	0.215
601.98	0.214
602.18	0.213
602.39	0.213
602.59	0.213
602.79	0.212
602.99	0.212
603.20	0.210
603.40	0.210
603.60	0.210
603.80	0.209
604.01	0.209
604.21	0.208
604.41	0.208
604.61	0.207
604.82	0.206
605.02	0.206
605.22	0.205
605.42	0.205
605.62	0.205
605.83	0.203
606.03	0.203
606.23	0.202
606.43	0.202
606.64	0.202
606.84	0.201
607.04	0.201
607.24	0.201
607.45	0.201
607.65	0.199
607.85	0.200
608.05	0.199
608.25	0.198
608.46	0.198
608.66	0.198
608.86	0.198
609.06	0.196
609.26	0.195
609.47	0.195
609.67	0.194
609.87	0.195
610.07	0.194
610.28	0.193
610.48	0.193
610.68	0.193
610.88	0.192
611.08	0.192
611.29	0.191
611.49	0.191
611.69	0.192
611.89	0.190
612.09	0.189
612.29	0.189
612.50	0.189
612.70	0.189
612.90	0.188
613.10	0.187
613.30	0.187
613.51	0.187
613.71	0.186
613.91	0.190
614.11	0.185
614.31	0.185
614.51	0.185
614.72	0.184
614.92	0.183
615.12	0.183
615.32	0.184
615.52	0.183
615.72	0.184
615.93	0.183
616.13	0.183
616.33	0.182
616.53	0.182
616.73	0.182
616.93	0.181
617.14	0.182
617.34	0.182
617.54	0.182
617.74	0.181
617.94	0.180
618.14	0.180
618.34	0.179
618.55	0.179
618.75	0.179
618.95	0.179
619.15	0.179
619.35	0.178
619.55	0.177
619.75	0.178
619.96	0.177
620.16	0.177
620.36	0.177
620.56	0.176
620.76	0.176
620.96	0.176
621.16	0.175
621.36	0.175
621.57	0.175
621.77	0.175
621.97	0.174
622.17	0.174
622.37	0.173
622.57	0.174
622.77	0.173
622.97	0.171
623.18	0.172
623.38	0.172
623.58	0.171
623.78	0.171
623.98	0.171
624.18	0.170
624.38	0.170
624.58	0.170
624.78	0.170
624.98	0.170
625.19	0.170
625.39	0.170
625.59	0.169
625.79	0.169
625.99	0.169
626.19	0.169
626.39	0.168
626.59	0.168
626.79	0.168
626.99	0.168
627.19	0.167
627.40	0.167
627.60	0.167
627.80	0.167
628.00	0.167
628.20	0.166
628.40	0.166
628.60	0.166
628.80	0.165
629.00	0.165
629.20	0.165
629.40	0.165
629.60	0.164
629.80	0.164
630.00	0.164
630.20	0.164
630.41	0.163
630.61	0.163
630.81	0.163
631.01	0.163
631.21	0.162
631.41	0.162
631.61	0.162
631.81	0.162
632.01	0.161
632.21	0.161
632.41	0.160
632.61	0.160
632.81	0.160
633.01	0.160
633.21	0.160
633.41	0.160
633.61	0.159
633.81	0.159
634.01	0.158
634.21	0.158
634.41	0.157
634.61	0.158
634.81	0.157
635.01	0.157
635.22	0.157
635.42	0.157
635.62	0.157
635.82	0.157
636.02	0.156
636.22	0.156
636.42	0.156
636.62	0.156
636.82	0.156
637.02	0.156
637.22	0.156
637.42	0.155
637.62	0.154
637.82	0.155
638.02	0.154
638.22	0.154
638.42	0.154
638.62	0.153
638.82	0.153
639.02	0.153
639.22	0.153
639.42	0.152
639.62	0.152
639.82	0.151
640.02	0.151
640.22	0.151
640.42	0.151
640.62	0.151
640.82	0.151
641.02	0.150
641.22	0.150
641.42	0.149
641.61	0.150
641.81	0.150
642.01	0.150
642.21	0.150
642.41	0.150
642.61	0.150
642.81	0.149
643.01	0.149
643.21	0.149
643.41	0.149
643.61	0.149
643.81	0.148
644.01	0.147
644.21	0.147
644.41	0.147
644.61	0.146
644.81	0.147
645.01	0.146
645.21	0.146
645.41	0.145
645.61	0.146
645.81	0.145
646.01	0.145
646.21	0.145
646.40	0.145
646.60	0.145
646.80	0.145
647.00	0.145
647.20	0.144
647.40	0.144
647.60	0.144
647.80	0.144
648.00	0.144
648.20	0.144
648.40	0.144
648.60	0.143
648.80	0.143
649.00	0.143
649.20	0.143
649.39	0.142
649.59	0.142
649.79	0.141
649.99	0.141
650.19	0.141
650.39	0.141
650.59	0.140
650.79	0.140
650.99	0.139
651.19	0.139
651.39	0.139
651.58	0.139
651.78	0.139
651.98	0.138
652.18	0.138
652.38	0.138
652.58	0.138
652.78	0.138
652.98	0.138
653.18	0.138
653.38	0.138
653.57	0.138
653.77	0.138
653.97	0.137
654.17	0.137
654.37	0.137
654.57	0.137
654.77	0.136
654.97	0.136
655.16	0.135
655.36	0.135
655.56	0.134
655.76	0.134
655.96	0.134
656.16	0.133
656.36	0.134
656.56	0.133
656.75	0.133
656.95	0.132
657.15	0.132
657.35	0.132
657.55	0.132
657.75	0.132
657.95	0.132
658.14	0.132
658.34	0.132
658.54	0.131
658.74	0.131
658.94	0.131
659.14	0.131
659.34	0.130
659.53	0.130
659.73	0.130
659.93	0.130
660.13	0.129
660.33	0.129
660.53	0.129
660.72	0.130
660.92	0.129
661.12	0.129
661.32	0.129
661.52	0.128
661.72	0.128
661.91	0.127
662.11	0.127
662.31	0.127
662.51	0.127
662.71	0.127
662.90	0.126
663.10	0.126
663.30	0.126
663.50	0.126
663.70	0.126
663.90	0.126
664.09	0.125
664.29	0.125
664.49	0.124
664.69	0.125
664.89	0.125
665.08	0.125
665.28	0.124
665.48	0.124
665.68	0.124
665.88	0.124
666.07	0.123
666.27	0.123
666.47	0.123
666.67	0.123
666.87	0.123
667.06	0.122
667.26	0.121
667.46	0.122
667.66	0.122
667.85	0.122
668.05	0.122
668.25	0.122
668.45	0.122
668.65	0.122
668.84	0.122
669.04	0.122
669.24	0.121
669.44	0.121
669.63	0.120
669.83	0.120
670.03	0.119
670.23	0.118
670.42	0.118
670.62	0.118
670.82	0.117
671.02	0.117
671.22	0.117
671.41	0.117
671.61	0.117
671.81	0.117
672.01	0.117
672.20	0.117
672.40	0.117
672.60	0.117
672.80	0.117
672.99	0.117
673.19	0.116
673.39	0.116
673.58	0.116
673.78	0.115
673.98	0.115
674.18	0.115
674.37	0.114
674.57	0.114
674.77	0.114
674.97	0.114
675.16	0.114
675.36	0.113
675.56	0.113
675.75	0.113
675.95	0.113
676.15	0.113
676.35	0.113
676.54	0.113
676.74	0.112
676.94	0.113
677.13	0.112
677.33	0.112
677.53	0.112
677.73	0.112
677.92	0.111
678.12	0.111
678.32	0.111
678.51	0.110
678.71	0.110
678.91	0.110
679.11	0.110
679.30	0.110
679.50	0.110
679.70	0.110
679.89	0.110
680.09	0.110
680.29	0.109
680.48	0.110
680.68	0.109
680.88	0.109
681.07	0.109
681.27	0.108
681.47	0.108
681.66	0.108
681.86	0.107
682.06	0.107
682.25	0.107
682.45	0.107
682.65	0.107
682.84	0.106
683.04	0.106
683.24	0.106
683.43	0.106
683.63	0.106
683.83	0.106
684.02	0.106
684.22	0.106
684.42	0.105
684.61	0.105
684.81	0.105
685.01	0.105
685.20	0.104
685.40	0.105
685.60	0.105
685.79	0.105
685.99	0.105
686.19	0.104
686.38	0.104
686.58	0.104
686.77	0.104
686.97	0.104
687.17	0.104
687.36	0.104
687.56	0.103
687.76	0.103
687.95	0.103
688.15	0.103
688.34	0.103
688.54	0.102
688.74	0.102
688.93	0.101
689.13	0.101
689.33	0.101
689.52	0.101
689.72	0.101
689.91	0.101
690.11	0.101
690.31	0.100
690.50	0.100
690.70	0.100
690.89	0.100
691.09	0.100
691.29	0.100
691.48	0.099
691.68	0.099
691.87	0.099
692.07	0.099
692.27	0.099
692.46	0.099
692.66	0.099
692.85	0.098
693.05	0.098
693.25	0.098
693.44	0.098
693.64	0.098
693.83	0.098
694.03	0.097
694.22	0.097
694.42	0.096
694.62	0.097
694.81	0.097
695.01	0.097
695.20	0.097
695.40	0.096
695.59	0.096
695.79	0.096
695.99	0.096
696.18	0.096
696.38	0.096
696.57	0.096
696.77	0.096
696.96	0.096
697.16	0.096
697.36	0.095
697.55	0.095
697.75	0.095
697.94	0.095
698.14	0.095
698.33	0.094
698.53	0.094
698.72	0.094
698.92	0.094
699.11	0.094
699.31	0.094
699.51	0.094
699.70	0.094
699.90	0.093
700.09	0.094
700.29	0.093
700.48	0.093
700.68	0.093
700.87	0.093
701.07	0.093
701.26	0.092
701.46	0.092
701.65	0.092
701.85	0.092
702.04	0.092
702.24	0.091
702.43	0.091
702.63	0.091
702.82	0.091
703.02	0.091
703.21	0.091
703.41	0.091
703.60	0.090
703.80	0.090
703.99	0.090
704.19	0.090
704.38	0.090
704.58	0.089
704.77	0.090
704.97	0.089
705.16	0.089
705.36	0.090
705.55	0.090
705.75	0.090
705.94	0.090
706.14	0.090
706.33	0.089
706.53	0.090
706.72	0.090
706.92	0.089
707.11	0.089
707.31	0.089
707.50	0.089
707.70	0.089
707.89	0.089
708.09	0.088
708.28	0.088
708.48	0.088
708.67	0.088
708.86	0.088
709.06	0.088
709.25	0.088
709.45	0.088
709.64	0.087
709.84	0.088
710.03	0.087
710.23	0.087
710.42	0.087
710.62	0.087
710.81	0.087
711.00	0.087
711.20	0.087
711.39	0.087
711.59	0.087
711.78	0.087
711.98	0.087
712.17	0.087
712.37	0.087
712.56	0.087
712.75	0.087
712.95	0.087
713.14	0.087
713.34	0.087
713.53	0.087
713.73	0.088
713.92	0.087
714.11	0.087
714.31	0.087
714.50	0.087
714.70	0.087
714.89	0.087
715.08	0.087
715.28	0.087
715.47	0.086
715.67	0.086
715.86	0.086
716.06	0.087
716.25	0.086
716.44	0.086
716.64	0.086
716.83	0.086
717.03	0.086
717.22	0.086
717.41	0.086
717.61	0.085
717.80	0.086
717.99	0.085
718.19	0.085
718.38	0.085
718.58	0.084
718.77	0.084
718.96	0.084
719.16	0.084
719.35	0.084
719.55	0.084
719.74	0.084
719.93	0.084
720.13	0.084
720.32	0.084
720.51	0.084
720.71	0.084
720.90	0.084
721.10	0.084
721.29	0.084
721.48	0.084
721.68	0.084
721.87	0.084
722.06	0.083
722.26	0.084
722.45	0.083
722.64	0.083
722.84	0.083
723.03	0.083
723.22	0.084
723.42	0.083
723.61	0.083
723.80	0.084
724.00	0.084
724.19	0.084
724.38	0.083
724.58	0.083
724.77	0.083
724.96	0.083
725.16	0.083
725.35	0.084
725.54	0.084
725.74	0.084
725.93	0.084
726.12	0.083
726.32	0.083
726.51	0.084
726.70	0.083
726.90	0.084
727.09	0.083
727.28	0.084
727.48	0.083
727.67	0.083
727.86	0.083
728.06	0.083
728.25	0.083
728.44	0.084
728.64	0.083
728.83	0.083
729.02	0.083
729.21	0.083
729.41	0.083
729.60	0.082
729.79	0.083
729.99	0.083
730.18	0.083
730.37	0.082
730.56	0.082
730.76	0.082
730.95	0.082
731.14	0.082
731.34	0.083
731.53	0.083
731.72	0.083
731.91	0.083
732.11	0.083
732.30	0.083
732.49	0.083
732.69	0.084
732.88	0.084
733.07	0.084
733.26	0.084
733.46	0.084
733.65	0.084
733.84	0.084
734.03	0.084
734.23	0.084
734.42	0.084
734.61	0.084
734.80	0.084
735.00	0.084
735.19	0.084
735.38	0.084
735.57	0.084
735.77	0.084
735.96	0.084
736.15	0.084
736.34	0.084
736.54	0.083
736.73	0.083
736.92	0.083
737.11	0.083
737.31	0.083
737.50	0.083
737.69	0.084
737.88	0.083
738.07	0.083
738.27	0.083
738.46	0.084
738.65	0.084
738.84	0.084
739.04	0.084
739.23	0.084
739.42	0.084
739.61	0.084
739.80	0.084
740.00	0.084
740.19	0.084
740.38	0.083
740.57	0.083
740.76	0.083
740.96	0.083
741.15	0.082
741.34	0.082
741.53	0.082
741.72	0.082
741.92	0.082
742.11	0.082
742.30	0.082
742.49	0.082
742.68	0.082
742.88	0.082
743.07	0.082
743.26	0.082
743.45	0.082
743.64	0.082
743.84	0.082
744.03	0.082
744.22	0.082
744.41	0.082
744.60	0.082
744.79	0.082
744.99	0.082
745.18	0.082
745.37	0.082
745.56	0.082
745.75	0.082
745.94	0.081
746.14	0.081
746.33	0.081
746.52	0.081
746.71	0.081
746.90	0.081
747.09	0.081
747.28	0.080
747.48	0.081
747.67	0.080
747.86	0.080
748.05	0.080
748.24	0.080
748.43	0.080
748.62	0.080
748.82	0.080
749.01	0.080
749.20	0.079
749.39	0.080
749.58	0.080
749.77	0.080
749.96	0.080
750.16	0.080
750.35	0.080
750.54	0.080
750.73	0.080
750.92	0.081
751.11	0.080
751.30	0.081
751.49	0.080
751.68	0.080
751.88	0.080
752.07	0.080
752.26	0.080
752.45	0.079
752.64	0.079
752.83	0.079
753.02	0.079
753.21	0.079
753.40	0.079
753.60	0.079
753.79	0.079
753.98	0.079
754.17	0.078
754.36	0.078
754.55	0.078
754.74	0.078
754.93	0.078
755.12	0.078
755.31	0.078
755.50	0.078
755.70	0.078
755.89	0.078
756.08	0.078
756.27	0.077
756.46	0.078
756.65	0.077
756.84	0.077
757.03	0.077
757.22	0.077
757.41	0.077
757.60	0.077
757.79	0.077
757.98	0.077
758.17	0.078
758.36	0.078
758.56	0.077
758.75	0.077
758.94	0.078
759.13	0.078
759.32	0.077
759.51	0.077
759.70	0.078
759.89	0.077
760.08	0.077
760.27	0.077
760.46	0.078
760.65	0.078
760.84	0.077
761.03	0.077
761.22	0.078
761.41	0.078
761.60	0.078
761.79	0.077
761.98	0.077
762.17	0.077
762.36	0.077
762.55	0.076
762.74	0.076
762.93	0.076
763.12	0.076
763.31	0.075
763.50	0.075
763.69	0.075
763.88	0.075
764.07	0.075
764.26	0.075
764.45	0.075
764.64	0.076
764.83	0.075
765.02	0.076
765.21	0.076
765.40	0.076
765.59	0.076
765.78	0.076
765.97	0.076
766.16	0.076
766.35	0.076
766.54	0.076
766.73	0.076
766.92	0.076
767.11	0.075
767.30	0.075
767.49	0.075
767.68	0.075
767.87	0.075
768.06	0.075
768.25	0.075
768.44	0.075
768.63	0.074
768.82	0.075
769.01	0.074
769.20	0.075
769.39	0.074
769.58	0.074
769.77	0.074
769.96	0.074
770.15	0.075
770.34	0.074
770.53	0.074
770.72	0.074
770.91	0.074
771.10	0.074
771.29	0.074
771.47	0.074
771.66	0.074
771.85	0.074
772.04	0.074
772.23	0.074
772.42	0.074
772.61	0.074
772.80	0.074
772.99	0.074
773.18	0.074
773.37	0.075
773.56	0.074
773.75	0.074
773.94	0.074
774.13	0.074
774.31	0.074
774.50	0.074
774.69	0.074
774.88	0.074
775.07	0.074
775.26	0.074
775.45	0.073
775.64	0.073
775.83	0.074
776.02	0.073
776.21	0.073
776.40	0.074
776.58	0.073
776.77	0.073
776.96	0.073
777.15	0.074
777.34	0.074
777.53	0.074
777.72	0.074
777.91	0.074
778.10	0.074
778.28	0.073
778.47	0.074
778.66	0.073
778.85	0.073
779.04	0.073
779.23	0.073
779.42	0.073
779.61	0.073
779.79	0.072
779.98	0.072
780.17	0.072
780.36	0.072
780.55	0.071
780.74	0.071
780.93	0.071
781.12	0.071
781.30	0.071
781.49	0.071
781.68	0.071
781.87	0.071
782.06	0.071
782.25	0.071
782.44	0.071
782.62	0.071
782.81	0.071
783.00	0.071
783.19	0.071
783.38	0.071
783.57	0.071
783.75	0.071
783.94	0.071
784.13	0.070
784.32	0.070
784.51	0.070
784.70	0.071
784.88	0.070
785.07	0.070
785.26	0.070
785.45	0.071
785.64	0.070
785.83	0.071
786.01	0.070
786.20	0.071
786.39	0.071
786.58	0.071
786.77	0.070
786.95	0.071
787.14	0.071
787.33	0.071
787.52	0.071
787.71	0.071
787.90	0.070
788.08	0.070
788.27	0.070
788.46	0.070
788.65	0.070
788.84	0.071
789.02	0.070
789.21	0.071
789.40	0.070
789.59	0.070
789.77	0.070
789.96	0.070
790.15	0.070
790.34	0.070
790.53	0.070
790.71	0.070
790.90	0.070
791.09	0.070
791.28	0.070
791.46	0.070
791.65	0.070
791.84	0.070
792.03	0.070
792.22	0.070
792.40	0.069
792.59	0.070
792.78	0.070
792.97	0.070
793.15	0.070
793.34	0.070
793.53	0.070
793.72	0.069
793.90	0.069
794.09	0.069
794.28	0.069
794.47	0.069
794.65	0.069
794.84	0.069
795.03	0.069
795.22	0.069
795.40	0.069
795.59	0.068
795.78	0.069
795.97	0.069
796.15	0.069
796.34	0.069
796.53	0.069
796.71	0.069
796.90	0.069
797.09	0.069
797.28	0.069
797.46	0.070
797.65	0.070
797.84	0.070
798.02	0.069
798.21	0.069
798.40	0.069
798.59	0.069
798.77	0.069
798.96	0.069
799.15	0.068
799.33	0.068
799.52	0.068
799.71	0.068
799.90	0.068
800.08	0.068
800.27	0.068
800.46	0.067
800.64	0.067
800.83	0.067
801.02	0.067
801.20	0.067
801.39	0.067
801.58	0.067
801.76	0.067
801.95	0.067
802.14	0.067
802.32	0.068
802.51	0.068
802.70	0.068
802.88	0.067
803.07	0.068
803.26	0.067
803.44	0.067
803.63	0.067
803.82	0.067
804.00	0.067
804.19	0.068
804.38	0.068
804.56	0.068
804.75	0.067
804.94	0.068
805.12	0.068
805.31	0.068
805.50	0.068
805.68	0.068
805.87	0.068
806.06	0.068
806.24	0.067
806.43	0.067
806.62	0.067
806.80	0.067
806.99	0.067
807.17	0.067
807.36	0.067
807.55	0.068
807.73	0.068
807.92	0.068
808.11	0.068
808.29	0.067
808.48	0.067
808.66	0.067
808.85	0.067
809.04	0.067
809.22	0.067
809.41	0.067
809.59	0.067
809.78	0.067
809.97	0.066
810.15	0.066
810.34	0.066
810.53	0.066
810.71	0.066
810.90	0.066
811.08	0.066
811.27	0.066
811.45	0.066
811.64	0.066
811.83	0.067
812.01	0.066
812.20	0.067
812.38	0.067
812.57	0.067
812.76	0.067
812.94	0.067
813.13	0.067
813.31	0.067
813.50	0.067
813.68	0.067
813.87	0.066
814.06	0.067
814.24	0.066
814.43	0.066
814.61	0.066
814.80	0.066
814.98	0.066
815.17	0.066
815.36	0.066
815.54	0.066
815.73	0.066
815.91	0.066
816.10	0.066
816.28	0.066
816.47	0.066
816.65	0.067
816.84	0.067
817.03	0.067
817.21	0.067
817.40	0.067
817.58	0.067
817.77	0.067
817.95	0.067
818.14	0.067
818.32	0.067
818.51	0.067
818.69	0.067
818.88	0.067
819.06	0.067
819.25	0.067
819.43	0.067
819.62	0.067
819.80	0.067
819.99	0.067
820.18	0.067
820.36	0.067
820.55	0.067
820.73	0.067
820.92	0.067
821.10	0.067
821.29	0.067
821.47	0.067
821.66	0.067
821.84	0.067
822.03	0.067
822.21	0.067
822.40	0.067
822.58	0.067
822.77	0.066
822.95	0.067
823.14	0.067
823.32	0.067
823.50	0.067
823.69	0.067
823.87	0.067
824.06	0.067
824.24	0.068
824.43	0.067
824.61	0.068
824.80	0.068
824.98	0.069
825.17	0.069
825.35	0.069
825.54	0.069
825.72	0.068
825.91	0.069
826.09	0.069
826.28	0.069
826.46	0.069
826.64	0.069
826.83	0.069
827.01	0.069
827.20	0.069
827.38	0.069
827.57	0.070
827.75	0.070
827.94	0.070
828.12	0.070
828.31	0.069
828.49	0.069
828.67	0.070
828.86	0.069
829.04	0.069
829.23	0.069
829.41	0.070
829.60	0.070
829.78	0.070
829.96	0.071
830.15	0.071
830.33	0.071
830.52	0.071
830.70	0.071
830.88	0.071
831.07	0.071
831.25	0.071
831.44	0.071
831.62	0.071
831.81	0.071
831.99	0.071
832.17	0.071
832.36	0.072
832.54	0.072
832.73	0.072
832.91	0.072
833.09	0.072
833.28	0.072
833.46	0.073
833.65	0.073
833.83	0.073
834.01	0.073
834.20	0.073
834.38	0.072
834.56	0.072
834.75	0.072
834.93	0.072
835.12	0.072
835.30	0.072
835.48	0.073
835.67	0.072
835.85	0.073
836.03	0.073
836.22	0.073
836.40	0.073
836.59	0.073
836.77	0.073
836.95	0.073
837.14	0.073
837.32	0.073
837.50	0.073
837.69	0.073
837.87	0.073
838.05	0.073
838.24	0.073
838.42	0.073
838.60	0.073
838.79	0.074
838.97	0.073
839.15	0.073
839.34	0.074
839.52	0.074
839.70	0.074
839.89	0.074
840.07	0.074
840.25	0.075
840.44	0.075
840.62	0.075
840.80	0.075
840.99	0.075
841.17	0.075
841.35	0.075
841.54	0.074
841.72	0.075
841.90	0.074
842.09	0.074
842.27	0.074
842.45	0.074
842.64	0.074
842.82	0.074
843.00	0.074
843.19	0.074
843.37	0.074
843.55	0.074
843.73	0.074
843.92	0.074
844.10	0.074
844.28	0.074
844.47	0.074
844.65	0.074
844.83	0.075
845.01	0.075
845.20	0.075
845.38	0.075
845.56	0.075
845.75	0.075
845.93	0.075
846.11	0.075
846.29	0.075
846.48	0.075
846.66	0.075
846.84	0.075
847.02	0.075
847.21	0.074
847.39	0.075
847.57	0.075
847.76	0.075
847.94	0.075
848.12	0.075
848.30	0.075
848.49	0.074
848.67	0.075
848.85	0.075
849.03	0.075
849.22	0.075
849.40	0.076
849.58	0.076
849.76	0.076
849.95	0.076
850.13	0.076
850.31	0.076
850.49	0.077
850.67	0.077
850.86	0.076
851.04	0.076
851.22	0.076
851.40	0.076
851.59	0.075
851.77	0.075
851.95	0.075
852.13	0.076
852.31	0.075
852.50	0.075
852.68	0.076
852.86	0.076
853.04	0.076
853.23	0.076
853.41	0.076
853.59	0.076
853.77	0.076
853.95	0.076
854.14	0.076
854.32	0.076
854.50	0.076
854.68	0.075
854.86	0.076
855.04	0.076
855.23	0.076
855.41	0.076
855.59	0.076
855.77	0.076
855.95	0.077
856.14	0.076
856.32	0.077
856.50	0.076
856.68	0.076
856.86	0.076
857.04	0.076
857.23	0.076
857.41	0.075
857.59	0.075
857.77	0.075
857.95	0.075
858.13	0.075
858.32	0.075
858.50	0.075
858.68	0.075
858.86	0.075
859.04	0.076
859.22	0.075
859.41	0.076
859.59	0.076
859.77	0.075
859.95	0.075
860.13	0.075
860.31	0.075
860.49	0.075
860.68	0.076
860.86	0.076
861.04	0.075
861.22	0.075
861.40	0.075
861.58	0.075
861.76	0.075
861.94	0.076
862.13	0.076
862.31	0.075
862.49	0.076
862.67	0.076
862.85	0.076
863.03	0.076
863.21	0.077
863.39	0.077
863.57	0.077
863.76	0.077
863.94	0.077
864.12	0.077
864.30	0.077
864.48	0.077
864.66	0.077
864.84	0.077
865.02	0.077
865.20	0.077
865.38	0.077
865.57	0.077
865.75	0.077
865.93	0.077
866.11	0.077
866.29	0.077
866.47	0.077
866.65	0.077
866.83	0.077
867.01	0.077
867.19	0.077
867.37	0.077
867.55	0.077
867.73	0.077
867.92	0.077
868.10	0.077
868.28	0.077
868.46	0.077
868.64	0.077
868.82	0.078
869.00	0.078
869.18	0.078
869.36	0.078
869.54	0.078
869.72	0.078
869.90	0.078
870.08	0.078
870.26	0.078
870.44	0.078
870.62	0.078
870.80	0.078
870.98	0.078
871.16	0.078
871.34	0.078
871.53	0.078
871.71	0.078
871.89	0.078
872.07	0.078
872.25	0.078
872.43	0.078
872.61	0.078
872.79	0.078
872.97	0.079
873.15	0.078
873.33	0.079
873.51	0.079
873.69	0.079
873.87	0.079
874.05	0.079
874.23	0.079
874.41	0.079
874.59	0.080
874.77	0.079
874.95	0.079
875.13	0.079
875.31	0.079
875.49	0.079
875.67	0.079
875.85	0.078
876.03	0.079
876.21	0.079
876.39	0.079
876.57	0.079
876.75	0.079
876.93	0.079
877.11	0.079
877.29	0.079
877.47	0.078
877.65	0.079
877.82	0.079
878.00	0.080
878.18	0.080
878.36	0.079
878.54	0.079
878.72	0.079
878.90	0.079
879.08	0.080
879.26	0.080
879.44	0.080
879.62	0.080
879.80	0.080
879.98	0.080
880.16	0.079
880.34	0.079
880.52	0.079
880.70	0.079
880.88	0.079
881.06	0.079
881.24	0.079
881.42	0.080
881.59	0.079
881.77	0.079
881.95	0.079
882.13	0.080
882.31	0.080
882.49	0.080
882.67	0.080
882.85	0.080
883.03	0.080
883.21	0.080
883.39	0.080
883.57	0.080
883.75	0.080
883.92	0.080
884.10	0.080
884.28	0.080
884.46	0.080
884.64	0.081
884.82	0.081
885.00	0.081
885.18	0.081
885.36	0.081
885.54	0.081
885.71	0.081
885.89	0.081
886.07	0.081
886.25	0.081
886.43	0.081
886.61	0.081
886.79	0.081
886.97	0.081
887.15	0.081
887.32	0.081
887.50	0.081
887.68	0.081
887.86	0.081
888.04	0.081
888.22	0.081
888.40	0.081
888.57	0.081
888.75	0.081
888.93	0.082
889.11	0.081
889.29	0.081
889.47	0.082
889.65	0.082
889.82	0.082
890.00	0.082
890.18	0.082
890.36	0.082
890.54	0.082
890.72	0.082
890.90	0.082
891.07	0.082
891.25	0.082
891.43	0.082
891.61	0.082
891.79	0.082
891.97	0.082
892.14	0.082
892.32	0.082
892.50	0.083
892.68	0.083
892.86	0.083
893.03	0.083
893.21	0.083
893.39	0.084
893.57	0.084
893.75	0.084
893.93	0.084
894.10	0.083
894.28	0.083
894.46	0.083
894.64	0.083
894.82	0.083
894.99	0.083
895.17	0.083
895.35	0.083
895.53	0.083
895.71	0.082
895.88	0.083
896.06	0.083
896.24	0.083
896.42	0.083
896.59	0.083
896.77	0.083
896.95	0.083
897.13	0.083
897.31	0.083
897.48	0.083
897.66	0.084
897.84	0.083
898.02	0.084
898.19	0.084
898.37	0.084
898.55	0.084
898.73	0.085
898.91	0.085
899.08	0.085
899.26	0.084
899.44	0.085
899.62	0.085
899.79	0.084
899.97	0.085
900.15	0.084
900.33	0.084
900.50	0.084
900.68	0.083
900.86	0.084
901.04	0.084
901.21	0.084
901.39	0.084
901.57	0.084
901.74	0.084
901.92	0.084
902.10	0.085
902.28	0.085
902.45	0.085
902.63	0.085
902.81	0.085
902.99	0.085
903.16	0.085
903.34	0.085
903.52	0.085
903.69	0.085
903.87	0.085
904.05	0.086
904.22	0.086
904.40	0.086
904.58	0.086
904.76	0.086
904.93	0.086
905.11	0.086
905.29	0.086
905.46	0.086
905.64	0.087
905.82	0.087
905.99	0.086
906.17	0.086
906.35	0.086
906.53	0.087
906.70	0.087
906.88	0.087
907.06	0.087
907.23	0.087
907.41	0.087
907.59	0.087
907.76	0.088
907.94	0.088
908.12	0.088
908.29	0.088
908.47	0.088
908.65	0.089
908.82	0.088
909.00	0.088
909.18	0.089
909.35	0.089
909.53	0.089
909.71	0.089
909.88	0.089
910.06	0.089
910.23	0.089
910.41	0.089
910.59	0.088
910.76	0.088
910.94	0.088
911.12	0.088
911.29	0.088
911.47	0.088
911.65	0.089
911.82	0.089
912.00	0.089
912.17	0.089
912.35	0.090
912.53	0.090
912.70	0.090
912.88	0.090
913.06	0.091
913.23	0.091
913.41	0.090
913.58	0.091
913.76	0.091
913.94	0.090
914.11	0.091
914.29	0.091
914.46	0.091
914.64	0.091
914.82	0.091
914.99	0.091
915.17	0.091
915.34	0.091
915.52	0.091
915.70	0.091
915.87	0.091
916.05	0.091
916.22	0.091
916.40	0.091
916.57	0.092
916.75	0.092
916.93	0.092
917.10	0.092
917.28	0.092
917.45	0.091
917.63	0.091
917.80	0.092
917.98	0.092
918.16	0.092
918.33	0.093
918.51	0.093
918.68	0.092
918.86	0.093
919.03	0.093
919.21	0.094
919.39	0.094
919.56	0.095
919.74	0.095
919.91	0.095
920.09	0.095
920.26	0.095
920.44	0.096
920.61	0.096
920.79	0.096
920.96	0.096
921.14	0.097
921.31	0.097
921.49	0.097
921.67	0.097
921.84	0.097
922.02	0.097
922.19	0.097
922.37	0.098
922.54	0.098
922.72	0.098
922.89	0.099
923.07	0.099
923.24	0.099
923.42	0.099
923.59	0.099
923.77	0.100
923.94	0.100
924.12	0.100
924.29	0.101
924.47	0.101
924.64	0.101
924.82	0.101
924.99	0.101
925.17	0.102
925.34	0.102
925.52	0.103
925.69	0.103
925.87	0.103
926.04	0.103
926.22	0.104
926.39	0.104
926.57	0.104
926.74	0.104
926.91	0.104
927.09	0.105
927.26	0.105
927.44	0.105
927.61	0.106
927.79	0.106
927.96	0.107
928.14	0.107
928.31	0.107
928.49	0.107
928.66	0.108
928.84	0.109
929.01	0.109
929.18	0.110
929.36	0.110
929.53	0.111
929.71	0.111
929.88	0.112
930.06	0.112
930.23	0.112
930.41	0.112
930.58	0.113
930.75	0.113
930.93	0.114
931.10	0.114
931.28	0.114
931.45	0.114
931.63	0.114
931.80	0.114
931.97	0.115
932.15	0.116
932.32	0.116
932.50	0.116
932.67	0.117
932.84	0.118
933.02	0.118
933.19	0.118
933.37	0.119
933.54	0.120
933.71	0.121
933.89	0.122
934.06	0.122
934.24	0.122
934.41	0.123
934.58	0.123
934.76	0.124
934.93	0.125
935.11	0.125
935.28	0.125
935.45	0.125
935.63	0.125
935.80	0.126
935.98	0.126
936.15	0.126
936.32	0.127
936.50	0.127
936.67	0.128
936.84	0.128
937.02	0.129
937.19	0.130
937.36	0.131
937.54	0.131
937.71	0.132
937.89	0.132
938.06	0.133
938.23	0.134
938.41	0.134
938.58	0.135
938.75	0.134
938.93	0.135
939.10	0.135
939.27	0.135
939.45	0.136
939.62	0.136
939.79	0.137
939.97	0.137
940.14	0.138
940.31	0.139
940.49	0.139
940.66	0.140
940.83	0.140
941.01	0.141
941.18	0.142
941.35	0.143
941.53	0.144
941.70	0.144
941.87	0.145
942.05	0.146
942.22	0.147
942.39	0.149
942.57	0.149
942.74	0.150
942.91	0.149
943.08	0.150
943.26	0.151
943.43	0.151
943.60	0.152
943.78	0.152
943.95	0.153
944.12	0.152
944.29	0.153
944.47	0.154
944.64	0.155
944.81	0.156
944.99	0.157
945.16	0.157
945.33	0.158
945.50	0.159
945.68	0.160
945.85	0.160
946.02	0.162
946.20	0.163
946.37	0.164
946.54	0.164
946.71	0.165
946.89	0.166
947.06	0.166
947.23	0.167
947.40	0.169
947.58	0.169
947.75	0.170
947.92	0.171
948.09	0.171
948.27	0.172
948.44	0.174
948.61	0.175
948.78	0.175
948.96	0.177
949.13	0.177
949.30	0.179
949.47	0.179
949.65	0.180
949.82	0.183
949.99	0.183
950.16	0.185
950.33	0.185
950.51	0.187
950.68	0.188
950.85	0.189
951.02	0.190
951.20	0.191
951.37	0.192
951.54	0.193
951.71	0.194
951.88	0.195
952.06	0.196
952.23	0.197
952.40	0.199
952.57	0.200
952.74	0.201
952.92	0.202
953.09	0.204
953.26	0.205
953.43	0.206
953.60	0.207
953.77	0.208
953.95	0.209
954.12	0.211
954.29	0.212
954.46	0.214
954.63	0.215
954.81	0.216
954.98	0.217
955.15	0.219
955.32	0.220
955.49	0.220
955.66	0.222
955.84	0.223
956.01	0.224
956.18	0.226
956.35	0.227
956.52	0.227
956.69	0.229
956.87	0.229
957.04	0.231
957.21	0.233
957.38	0.233
957.55	0.234
957.72	0.235
957.89	0.236
958.07	0.236
958.24	0.238
958.41	0.239
958.58	0.239
958.75	0.240
958.92	0.241
959.09	0.242
959.26	0.242
959.44	0.243
959.61	0.244
959.78	0.244
959.95	0.246
960.12	0.247
960.29	0.249
960.46	0.248
960.63	0.248
960.81	0.248
960.98	0.249
961.15	0.250
961.32	0.251
961.49	0.250
961.66	0.252
961.83	0.252
962.00	0.252
962.17	0.253
962.34	0.253
962.52	0.253
962.69	0.254
962.86	0.253
963.03	0.253
963.20	0.254
963.37	0.254
963.54	0.254
963.71	0.254
963.88	0.254
964.05	0.255
964.22	0.256
964.39	0.256
964.56	0.256
964.74	0.257
964.91	0.257
965.08	0.257
965.25	0.257
965.42	0.258
965.59	0.258
965.76	0.258
965.93	0.259
966.10	0.257
966.27	0.258
966.44	0.257
966.61	0.259
966.78	0.258
966.95	0.258
967.12	0.259
967.29	0.261
967.46	0.261
967.63	0.260
967.80	0.261
967.97	0.261
968.14	0.261
968.32	0.262
968.49	0.262
968.66	0.261
968.83	0.262
969.00	0.262
969.17	0.261
969.34	0.262
969.51	0.264
969.68	0.262
969.85	0.263
970.02	0.263
970.19	0.262
970.36	0.263
970.53	0.263
970.70	0.262
970.87	0.262
971.04	0.262
971.21	0.262
971.38	0.262
971.55	0.262
971.72	0.262
971.89	0.263
972.06	0.263
972.23	0.262
972.40	0.262
972.57	0.261
972.74	0.262
972.91	0.263
973.07	0.263
973.24	0.262
973.41	0.262
973.58	0.261
973.75	0.273
973.92	0.261
974.09	0.260
974.26	0.261
974.43	0.259
974.60	0.260
974.77	0.261
974.94	0.260
975.11	0.262
975.28	0.263
975.45	0.261
975.62	0.262
975.79	0.264
975.96	0.262
976.13	0.261
976.30	0.263
976.47	0.261
976.64	0.261
976.80	0.262
976.97	0.262
977.14	0.261
977.31	0.261
977.48	0.262
977.65	0.261
977.82	0.260
977.99	0.261
978.16	0.260
978.33	0.261
978.50	0.260
978.67	0.260
978.83	0.259
979.00	0.260
979.17	0.259
979.34	0.259
979.51	0.258
979.68	0.259
979.85	0.258
980.02	0.259
980.19	0.257
980.36	0.259
980.52	0.260
980.69	0.258
980.86	0.258
981.03	0.258
981.20	0.257
981.37	0.258
981.54	0.258
981.71	0.257
981.88	0.258
982.04	0.258
982.21	0.257
982.38	0.259
982.55	0.257
982.72	0.256
982.89	0.257
983.06	0.255
983.22	0.255
983.39	0.255
983.56	0.255
983.73	0.254
983.90	0.254
984.07	0.255
984.24	0.254
984.40	0.254
984.57	0.252
984.74	0.254
984.91	0.255
985.08	0.253
985.25	0.251
985.41	0.252
985.58	0.252
985.75	0.252
985.92	0.251
986.09	0.250
986.26	0.250
986.42	0.249
986.59	0.248
986.76	0.250
986.93	0.250
987.10	0.250
987.27	0.248
987.43	0.246
987.60	0.248
987.77	0.248
987.94	0.247
988.11	0.248
988.27	0.248
988.44	0.247
988.61	0.245
988.78	0.244
988.95	0.244
989.11	0.246
989.28	0.244
989.45	0.243
989.62	0.243
989.79	0.243
989.95	0.242
990.12	0.244
990.29	0.244
990.46	0.242
990.62	0.240
990.79	0.240
990.96	0.240
991.13	0.241
991.30	0.240
991.46	0.240
991.63	0.238
991.80	0.237
991.97	0.236
992.13	0.237
992.30	0.238
992.47	0.236
992.64	0.236
992.80	0.236
992.97	0.236
993.14	0.234
993.31	0.231
993.47	0.234
993.64	0.232
993.81	0.232
993.98	0.232
994.14	0.231
994.31	0.231
994.48	0.231
994.64	0.232
994.81	0.230
994.98	0.230
995.15	0.229
995.31	0.229
995.48	0.229
995.65	0.232
995.82	0.229
995.98	0.228
996.15	0.229
996.32	0.230
996.48	0.228
996.65	0.228
996.82	0.225
996.99	0.225
997.15	0.225
997.32	0.226
997.49	0.224
997.65	0.226
997.82	0.225
997.99	0.223
998.15	0.224
998.32	0.225
998.49	0.223
998.65	0.224
998.82	0.223
998.99	0.221
999.15	0.221
999.32	0.220
999.49	0.219
999.65	0.220
999.82	0.218
999.99	0.218
1000.15	0.219
1000.32	0.219
1000.49	0.219
1000.65	0.218
1000.82	0.217
1000.99	0.218
1001.15	0.218
1001.32	0.217
1001.49	0.217
1001.65	0.217
1001.82	0.219
1001.99	0.216
1002.15	0.215
1002.32	0.215
1002.49	0.216
1002.65	0.214
1002.82	0.212
1002.99	0.212
1003.15	0.214
1003.32	0.213
1003.48	0.212
1003.65	0.212
1003.82	0.211
1003.98	0.209
1004.15	0.208
1004.32	0.208
1004.48	0.208
1004.65	0.210
1004.81	0.207
1004.98	0.206
1005.15	0.207
1005.31	0.206
1005.48	0.204
1005.64	0.205
1005.81	0.207
1005.98	0.204
1006.14	0.204
1006.31	0.204
1006.47	0.202
1006.64	0.201
1006.81	0.201
1006.97	0.200
1007.14	0.200
1007.30	0.201
1007.47	0.200
1007.63	0.198
1007.80	0.196
1007.97	0.196
1008.13	0.196
1008.30	0.196
1008.46	0.196
1008.63	0.195
1008.79	0.196
1008.96	0.196
1009.13	0.197
1009.29	0.194
1009.46	0.195
1009.62	0.195
1009.79	0.194
1009.95	0.194
1010.12	0.194
1010.28	0.194
1010.45	0.193
1010.62	0.192
1010.78	0.191
1010.95	0.189
1011.11	0.189
1011.28	0.188
1011.44	0.190
1011.61	0.188
1011.77	0.186
1011.94	0.186
1012.10	0.186
1012.27	0.186
1012.43	0.186
1012.60	0.185
1012.76	0.186
1012.93	0.186
1013.10	0.185
1013.26	0.183
1013.43	0.184
1013.59	0.192
1013.76	0.185
1013.92	0.183
1014.09	0.183
1014.25	0.183
1014.42	0.184
1014.58	0.183
1014.75	0.186
1014.91	0.184
1015.08	0.186
1015.24	0.182
1015.41	0.184
1015.57	0.184
1015.73	0.183
1015.90	0.181
1016.06	0.184
1016.23	0.182
1016.39	0.182
1016.56	0.182
1016.72	0.180
1016.89	0.180
1017.05	0.182
1017.22	0.178
1017.38	0.179
1017.55	0.177
1017.71	0.178
1017.88	0.177
1018.04	0.178
1018.21	0.175
1018.37	0.175
1018.53	0.176
1018.70	0.175
1018.86	0.174
1019.03	0.175
1019.19	0.172
1019.36	0.173
1019.52	0.174
1019.69	0.174
1019.85	0.173
1020.01	0.172
1020.18	0.171
1020.34	0.170
1020.51	0.169
1020.67	0.171
1020.84	0.169
1021.00	0.170
1021.16	0.167
1021.33	0.168
1021.49	0.167
1021.66	0.168
1021.82	0.166
1021.98	0.166
1022.15	0.166
1022.31	0.165
1022.48	0.164
1022.64	0.166
1022.80	0.164
1022.97	0.163
1023.13	0.162
1023.30	0.163
1023.46	0.164
1023.62	0.162
1023.79	0.163
1023.95	0.164
1024.12	0.163
1024.28	0.161
1024.44	0.160
1024.61	0.160
1024.77	0.159
1024.93	0.159
1025.10	0.160
1025.26	0.157
1025.43	0.158
1025.59	0.154
1025.75	0.157
1025.92	0.157
1026.08	0.157
1026.24	0.157
1026.41	0.158
1026.57	0.156
1026.73	0.153
1026.90	0.155
1027.06	0.154
1027.23	0.155
1027.39	0.155
1027.55	0.155
1027.72	0.154
1027.88	0.154
1028.04	0.155
1028.21	0.155
1028.37	0.150
1028.53	0.155
1028.70	0.153
1028.86	0.150
1029.02	0.150
1029.19	0.151
1029.35	0.149
1029.51	0.149
1029.67	0.148
1029.84	0.149
1030.00	0.144
1030.16	0.146
1030.33	0.148
1030.49	0.145
1030.65	0.142
1030.82	0.157
1030.98	0.143
1031.14	0.143
1031.31	0.143
1031.47	0.140
1031.63	0.142
1031.79	0.141
1031.96	0.142
1032.12	0.143
1032.28	0.142
1032.45	0.147
1032.61	0.146
1032.77	0.146
1032.93	0.143
1033.10	0.145
1033.26	0.147
1033.42	0.145
1033.58	0.145
1033.75	0.147
1033.91	0.145
1034.07	0.147
1034.24	0.145
1034.40	0.142
1034.56	0.142
1034.72	0.143
1034.89	0.143
1035.05	0.141
1035.21	0.142
1035.37	0.141
1035.54	0.143
1035.70	0.139
1035.86	0.139
1036.02	0.141
1036.19	0.139
1036.35	0.137
1036.51	0.140
1036.67	0.138
1036.83	0.137
1037.00	0.136
1037.16	0.137
1037.32	0.138
1037.48	0.138
1037.65	0.142
1037.81	0.137
1037.97	0.138
1038.13	0.139
1038.29	0.137
1038.46	0.134
1038.62	0.138
1038.78	0.135
1038.94	0.131
1039.10	0.135
1039.27	0.131
1039.43	0.132
1039.59	0.133
1039.75	0.132
1039.91	0.130
1040.08	0.131
1040.24	0.133
1040.40	0.135
1040.56	0.134
1040.72	0.128
1040.89	0.131
1041.05	0.134
1041.21	0.132
1041.37	0.129
1041.53	0.136
1041.69	0.134
1041.86	0.134
1042.02	0.131
1042.18	0.131
1042.34	0.132
1042.50	0.137
1042.66	0.132
1042.83	0.130
1042.99	0.133
1043.15	0.127
1043.31	0.128
1043.47	0.131
1043.63	0.128
1043.79	0.128
1043.96	0.128
1044.12	0.132
1044.28	0.129
1044.44	0.132
1044.60	0.127
1044.76	0.125
1044.92	0.128
1045.09	0.128
1045.25	0.125
1045.41	0.126
1045.57	0.122
1045.73	0.123
1045.89	0.125
1046.05	0.126
1046.21	0.130
1046.38	0.126
1046.54	0.134
1046.70	0.138
1046.86	0.129
>>>>>End Processed Spectral Data<<<<<
