SpectraSuite Data File
++++++++++++++++++++++++++++++++++++
Date: Mon May 20 12:12:16 CDT 2013
User: Students
Dark Spectrum Present: Yes
Reference Spectrum Present: Yes
Number of Sampled Component Spectra: 1
Spectrometers: USB4H00887
Integration Time (usec): 60000 (USB4H00887)
Spectra Averaged: 5 (USB4H00887)
Boxcar Smoothing: 5 (USB4H00887)
Correct for Electrical Dark: No (USB4H00887)
Strobe/Lamp Enabled: No (USB4H00887)
Correct for Detector Non-linearity: No (USB4H00887)
Correct for Stray Light: No (USB4H00887)
Number of Pixels in Processed Spectrum: 3648
>>>>>Begin Processed Spectral Data<<<<<
345.83	-0.200
346.05	-0.200
346.26	-0.200
346.48	-0.186
346.70	-0.154
346.92	0.152
347.14	0.115
347.35	0.103
347.57	0.819
347.79	-0.369
348.01	-0.233
348.23	-0.397
348.44	-0.000
348.66	0.403
348.88	-0.420
349.10	-0.203
349.32	0.088
349.53	0.009
349.75	0.021
349.97	0.018
350.19	0.060
350.41	0.052
350.62	-0.076
350.84	-0.011
351.06	0.003
351.28	-0.012
351.50	-0.062
351.71	0.012
351.93	0.024
352.15	0.019
352.37	0.063
352.58	0.029
352.80	0.041
353.02	0.085
353.24	0.100
353.46	0.539
353.67	-0.194
353.89	0.069
354.11	0.052
354.33	0.046
354.54	0.054
354.76	0.138
354.98	0.201
355.20	0.185
355.41	0.068
355.63	0.158
355.85	0.072
356.07	0.879
356.28	0.064
356.50	0.124
356.72	0.049
356.94	0.117
357.15	0.166
357.37	-0.000
357.59	0.076
357.81	0.040
358.02	0.077
358.24	0.066
358.46	0.141
358.68	0.143
358.89	0.082
359.11	-0.000
359.33	0.084
359.55	-0.540
359.76	0.113
359.98	0.141
360.20	0.142
360.42	0.118
360.63	0.129
360.85	0.084
361.07	0.423
361.29	0.060
361.50	0.227
361.72	0.081
361.94	0.224
362.15	0.111
362.37	0.066
362.59	0.078
362.81	0.120
363.02	0.195
363.24	0.289
363.46	0.196
363.68	0.333
363.89	0.186
364.11	0.270
364.33	0.406
364.54	0.212
364.76	0.242
364.98	0.256
365.20	0.330
365.41	0.191
365.63	0.253
365.85	0.165
366.06	0.456
366.28	0.528
366.50	0.306
366.71	0.113
366.93	0.172
367.15	0.180
367.37	0.176
367.58	0.211
367.80	0.254
368.02	0.995
368.23	0.174
368.45	0.177
368.67	0.151
368.88	0.166
369.10	-0.000
369.32	0.139
369.53	0.086
369.75	0.128
369.97	0.238
370.19	0.126
370.40	0.063
370.62	0.260
370.84	0.086
371.05	0.375
371.27	0.105
371.49	0.140
371.70	0.177
371.92	0.270
372.14	0.129
372.35	0.144
372.57	0.171
372.79	0.378
373.00	0.087
373.22	0.160
373.44	0.181
373.65	0.135
373.87	0.195
374.09	0.969
374.30	0.135
374.52	0.149
374.74	0.114
374.95	0.550
375.17	0.158
375.39	-0.000
375.60	0.156
375.82	0.296
376.04	0.124
376.25	0.131
376.47	0.083
376.68	0.202
376.90	0.107
377.12	0.193
377.33	0.119
377.55	0.281
377.77	0.160
377.98	0.232
378.20	0.125
378.42	0.165
378.63	0.226
378.85	-0.000
379.07	0.160
379.28	0.659
379.50	0.398
379.71	0.194
379.93	0.135
380.15	0.177
380.36	0.253
380.58	0.172
380.80	0.372
381.01	0.118
381.23	0.104
381.44	0.109
381.66	0.130
381.88	0.154
382.09	-0.080
382.31	0.118
382.53	0.119
382.74	0.700
382.96	0.192
383.17	0.165
383.39	0.234
383.61	0.301
383.82	0.202
384.04	0.236
384.25	0.279
384.47	0.246
384.69	0.242
384.90	0.223
385.12	0.403
385.33	0.271
385.55	0.199
385.77	0.290
385.98	0.156
386.20	0.223
386.41	0.188
386.63	0.208
386.85	0.169
387.06	0.210
387.28	0.353
387.49	0.257
387.71	0.178
387.93	0.161
388.14	0.514
388.36	0.198
388.57	0.176
388.79	0.209
389.01	-0.000
389.22	0.289
389.44	0.244
389.65	0.198
389.87	0.196
390.08	0.247
390.30	0.189
390.52	0.365
390.73	0.389
390.95	0.269
391.16	0.250
391.38	-0.000
391.59	0.291
391.81	0.234
392.03	0.213
392.24	0.231
392.46	0.188
392.67	0.172
392.89	0.236
393.10	0.344
393.32	0.245
393.53	0.290
393.75	0.189
393.97	0.219
394.18	0.339
394.40	0.308
394.61	0.357
394.83	0.308
395.04	0.375
395.26	0.246
395.47	0.398
395.69	0.315
395.91	0.344
396.12	0.415
396.34	0.405
396.55	0.243
396.77	0.368
396.98	-0.000
397.20	0.426
397.41	0.481
397.63	0.329
397.84	0.301
398.06	0.296
398.27	0.298
398.49	0.352
398.71	0.253
398.92	0.293
399.14	0.376
399.35	0.481
399.57	0.476
399.78	0.327
400.00	0.319
400.21	0.399
400.43	0.302
400.64	0.317
400.86	0.707
401.07	0.367
401.29	0.334
401.50	0.359
401.72	0.521
401.93	0.318
402.15	0.377
402.36	0.333
402.58	0.272
402.79	0.297
403.01	0.517
403.22	0.409
403.44	0.282
403.65	0.455
403.87	0.496
404.08	0.391
404.30	0.659
404.51	0.345
404.73	0.421
404.94	0.361
405.16	0.390
405.37	0.306
405.59	0.604
405.80	0.357
406.02	0.443
406.23	0.437
406.45	0.497
406.66	0.519
406.88	0.337
407.09	0.548
407.31	0.421
407.52	0.507
407.74	0.389
407.95	0.460
408.17	0.439
408.38	0.466
408.60	0.309
408.81	0.537
409.03	0.386
409.24	0.380
409.45	0.430
409.67	0.410
409.88	0.372
410.10	0.474
410.31	0.392
410.53	0.364
410.74	0.508
410.96	0.502
411.17	0.536
411.39	0.418
411.60	0.385
411.82	0.455
412.03	0.442
412.24	0.427
412.46	0.643
412.67	0.508
412.89	0.488
413.10	0.481
413.32	0.435
413.53	0.492
413.75	0.501
413.96	0.377
414.17	0.498
414.39	0.512
414.60	0.417
414.82	0.561
415.03	0.437
415.25	0.492
415.46	0.339
415.68	0.470
415.89	0.921
416.10	0.747
416.32	0.402
416.53	0.476
416.75	0.441
416.96	0.545
417.18	0.459
417.39	0.425
417.60	0.432
417.82	0.650
418.03	0.566
418.25	0.466
418.46	0.486
418.67	0.433
418.89	0.479
419.10	0.508
419.32	0.686
419.53	0.636
419.75	0.545
419.96	0.473
420.17	0.580
420.39	0.548
420.60	0.570
420.82	0.711
421.03	0.574
421.24	0.472
421.46	0.523
421.67	0.572
421.89	0.477
422.10	0.522
422.31	0.515
422.53	0.740
422.74	0.531
422.96	0.414
423.17	0.466
423.38	0.564
423.60	0.471
423.81	0.574
424.03	0.497
424.24	0.546
424.45	0.539
424.67	0.544
424.88	0.495
425.09	0.541
425.31	0.503
425.52	0.528
425.74	0.606
425.95	0.664
426.16	0.516
426.38	0.607
426.59	0.565
426.80	0.672
427.02	0.697
427.23	0.526
427.45	0.704
427.66	0.673
427.87	0.520
428.09	0.554
428.30	0.623
428.51	0.616
428.73	0.679
428.94	0.588
429.15	0.562
429.37	0.550
429.58	0.590
429.79	0.545
430.01	0.674
430.22	0.660
430.44	0.681
430.65	0.598
430.86	0.651
431.08	0.620
431.29	0.570
431.50	0.685
431.72	0.921
431.93	0.722
432.14	0.521
432.36	0.569
432.57	0.584
432.78	0.598
433.00	0.551
433.21	0.544
433.42	0.690
433.64	0.602
433.85	0.678
434.06	0.551
434.28	0.582
434.49	0.611
434.70	0.622
434.92	0.633
435.13	0.683
435.34	0.682
435.56	0.641
435.77	0.639
435.98	0.816
436.20	0.683
436.41	0.585
436.62	0.571
436.83	0.652
437.05	0.742
437.26	0.646
437.47	0.571
437.69	0.630
437.90	0.573
438.11	0.563
438.33	0.619
438.54	0.636
438.75	0.825
438.97	0.817
439.18	0.598
439.39	0.629
439.60	0.681
439.82	0.637
440.03	0.592
440.24	0.876
440.46	0.648
440.67	0.626
440.88	0.676
441.10	0.619
441.31	0.620
441.52	0.678
441.73	0.760
441.95	0.671
442.16	0.620
442.37	0.997
442.58	0.610
442.80	0.596
443.01	0.782
443.22	0.713
443.44	0.606
443.65	0.717
443.86	0.720
444.07	0.781
444.29	0.669
444.50	0.868
444.71	0.646
444.92	0.608
445.14	0.780
445.35	0.828
445.56	0.636
445.78	0.756
445.99	0.748
446.20	0.637
446.41	0.715
446.63	0.721
446.84	0.676
447.05	0.681
447.26	0.816
447.48	0.692
447.69	0.658
447.90	0.768
448.11	0.678
448.33	0.703
448.54	0.721
448.75	0.757
448.96	0.767
449.18	0.811
449.39	0.720
449.60	0.696
449.81	0.850
450.03	0.724
450.24	0.781
450.45	0.744
450.66	0.725
450.87	0.758
451.09	0.710
451.30	0.689
451.51	0.782
451.72	0.792
451.94	0.813
452.15	0.886
452.36	0.729
452.57	0.747
452.78	0.737
453.00	0.781
453.21	0.733
453.42	0.705
453.63	0.813
453.85	0.766
454.06	0.761
454.27	0.918
454.48	0.809
454.69	0.728
454.91	0.808
455.12	0.703
455.33	0.793
455.54	0.814
455.75	0.774
455.97	0.798
456.18	0.781
456.39	0.788
456.60	0.809
456.81	0.747
457.03	0.764
457.24	0.764
457.45	0.866
457.66	0.801
457.87	0.752
458.09	0.774
458.30	0.684
458.51	0.819
458.72	0.851
458.93	0.862
459.15	0.752
459.36	0.816
459.57	0.837
459.78	0.883
459.99	0.787
460.20	0.748
460.42	0.832
460.63	0.788
460.84	0.768
461.05	0.780
461.26	0.840
461.47	0.752
461.69	0.808
461.90	0.853
462.11	0.803
462.32	0.871
462.53	0.805
462.74	0.916
462.96	0.783
463.17	0.773
463.38	0.821
463.59	0.946
463.80	0.781
464.01	0.805
464.23	0.900
464.44	0.856
464.65	0.851
464.86	0.878
465.07	0.890
465.28	0.846
465.49	0.871
465.71	0.816
465.92	0.856
466.13	0.904
466.34	0.831
466.55	0.879
466.76	0.841
466.97	0.873
467.19	0.859
467.40	0.896
467.61	0.903
467.82	0.822
468.03	0.807
468.24	0.880
468.45	0.918
468.66	0.906
468.88	0.914
469.09	0.917
469.30	0.974
469.51	0.887
469.72	0.931
469.93	0.908
470.14	0.877
470.35	0.984
470.57	0.930
470.78	0.861
470.99	1.002
471.20	0.935
471.41	0.888
471.62	0.947
471.83	0.916
472.04	0.947
472.25	0.985
472.47	0.897
472.68	0.898
472.89	0.904
473.10	0.949
473.31	0.897
473.52	0.961
473.73	0.989
473.94	0.897
474.15	0.922
474.36	0.924
474.57	0.957
474.79	0.924
475.00	0.928
475.21	0.909
475.42	1.013
475.63	0.903
475.84	0.937
476.05	0.939
476.26	0.908
476.47	0.946
476.68	0.996
476.89	0.914
477.10	0.971
477.32	0.957
477.53	1.017
477.74	0.927
477.95	0.973
478.16	0.917
478.37	0.965
478.58	0.969
478.79	0.984
479.00	0.981
479.21	0.937
479.42	0.980
479.63	0.983
479.84	0.944
480.05	0.942
480.26	0.972
480.47	0.995
480.69	0.994
480.90	0.956
481.11	0.952
481.32	1.020
481.53	0.956
481.74	1.010
481.95	0.973
482.16	0.992
482.37	1.002
482.58	0.966
482.79	0.984
483.00	1.022
483.21	0.962
483.42	0.931
483.63	1.014
483.84	1.039
484.05	1.028
484.26	0.998
484.47	0.998
484.68	0.957
484.89	0.967
485.10	1.022
485.31	0.995
485.52	1.004
485.73	1.007
485.94	1.050
486.15	0.994
486.37	1.013
486.58	0.975
486.79	0.986
487.00	1.042
487.21	1.025
487.42	1.013
487.63	1.020
487.84	1.042
488.05	1.038
488.26	0.995
488.47	1.004
488.68	1.037
488.89	1.010
489.10	1.003
489.31	1.016
489.52	1.058
489.73	1.023
489.94	1.066
490.15	1.013
490.36	1.057
490.57	1.004
490.78	0.985
490.99	1.026
491.20	1.108
491.41	1.060
491.62	0.996
491.83	1.025
492.04	1.025
492.25	1.031
492.45	1.034
492.66	1.062
492.87	1.049
493.08	1.033
493.29	1.014
493.50	1.004
493.71	1.015
493.92	1.010
494.13	1.028
494.34	1.047
494.55	1.051
494.76	1.082
494.97	1.073
495.18	1.035
495.39	1.054
495.60	1.001
495.81	1.005
496.02	1.023
496.23	1.020
496.44	1.055
496.65	1.047
496.86	1.053
497.07	1.084
497.28	1.077
497.49	1.022
497.70	1.026
497.91	1.053
498.12	1.031
498.32	1.082
498.53	1.059
498.74	1.045
498.95	1.074
499.16	1.025
499.37	1.027
499.58	1.039
499.79	1.070
500.00	1.063
500.21	1.093
500.42	1.033
500.63	1.033
500.84	1.057
501.05	1.035
501.26	1.062
501.46	1.105
501.67	1.063
501.88	1.065
502.09	1.039
502.30	1.046
502.51	1.100
502.72	1.048
502.93	1.069
503.14	1.092
503.35	1.062
503.56	1.057
503.77	1.094
503.97	1.068
504.18	1.066
504.39	1.105
504.60	1.071
504.81	1.100
505.02	1.089
505.23	1.086
505.44	1.066
505.65	1.071
505.86	1.051
506.07	1.123
506.27	1.078
506.48	1.085
506.69	1.069
506.90	1.091
507.11	1.089
507.32	1.063
507.53	1.070
507.74	1.061
507.95	1.077
508.15	1.082
508.36	1.086
508.57	1.097
508.78	1.080
508.99	1.076
509.20	1.050
509.41	1.078
509.62	1.063
509.82	1.062
510.03	1.072
510.24	1.075
510.45	1.100
510.66	1.092
510.87	1.090
511.08	1.042
511.29	1.089
511.49	1.063
511.70	1.113
511.91	1.040
512.12	1.038
512.33	1.074
512.54	1.090
512.75	1.072
512.95	1.099
513.16	1.090
513.37	1.066
513.58	1.110
513.79	1.071
514.00	1.078
514.20	1.098
514.41	1.086
514.62	1.051
514.83	1.095
515.04	1.083
515.25	1.060
515.46	1.070
515.66	1.073
515.87	1.087
516.08	1.051
516.29	1.075
516.50	1.053
516.71	1.046
516.91	1.058
517.12	1.076
517.33	1.062
517.54	1.047
517.75	1.053
517.95	1.065
518.16	1.075
518.37	1.040
518.58	1.049
518.79	1.021
519.00	1.055
519.20	1.064
519.41	1.037
519.62	1.058
519.83	1.065
520.04	1.026
520.24	1.025
520.45	1.036
520.66	1.062
520.87	1.018
521.08	1.017
521.28	1.020
521.49	1.038
521.70	1.004
521.91	1.020
522.12	1.003
522.32	1.026
522.53	1.004
522.74	0.993
522.95	1.002
523.16	1.007
523.36	1.018
523.57	1.000
523.78	0.993
523.99	1.000
524.20	0.990
524.40	1.003
524.61	1.012
524.82	0.985
525.03	0.989
525.23	0.990
525.44	0.972
525.65	0.969
525.86	0.992
526.06	0.960
526.27	0.961
526.48	0.971
526.69	0.953
526.90	0.955
527.10	0.993
527.31	0.945
527.52	0.938
527.73	0.931
527.93	0.941
528.14	0.949
528.35	0.941
528.56	0.943
528.76	0.936
528.97	0.928
529.18	0.920
529.39	0.919
529.59	0.922
529.80	0.955
530.01	0.925
530.22	0.926
530.42	0.892
530.63	0.911
530.84	0.888
531.05	0.902
531.25	0.904
531.46	0.895
531.67	0.872
531.88	0.893
532.08	0.887
532.29	0.883
532.50	0.876
532.70	0.870
532.91	0.859
533.12	0.861
533.33	0.887
533.53	0.854
533.74	0.853
533.95	0.861
534.15	0.849
534.36	0.850
534.57	0.831
534.78	0.830
534.98	0.840
535.19	0.809
535.40	0.811
535.60	0.831
535.81	0.810
536.02	0.812
536.23	0.803
536.43	0.804
536.64	0.791
536.85	0.799
537.05	0.810
537.26	0.785
537.47	0.789
537.67	0.777
537.88	0.771
538.09	0.778
538.30	0.767
538.50	0.758
538.71	0.770
538.92	0.754
539.12	0.750
539.33	0.745
539.54	0.746
539.74	0.750
539.95	0.739
540.16	0.737
540.36	0.728
540.57	0.729
540.78	0.722
540.98	0.720
541.19	0.719
541.40	0.707
541.60	0.718
541.81	0.712
542.02	0.712
542.22	0.702
542.43	0.696
542.64	0.691
542.84	0.690
543.05	0.681
543.26	0.681
543.46	0.684
543.67	0.682
543.88	0.677
544.08	0.666
544.29	0.660
544.50	0.660
544.70	0.661
544.91	0.652
545.12	0.653
545.32	0.648
545.53	0.652
545.74	0.639
545.94	0.637
546.15	0.634
546.35	0.631
546.56	0.628
546.77	0.625
546.97	0.622
547.18	0.614
547.39	0.615
547.59	0.613
547.80	0.609
548.01	0.613
548.21	0.608
548.42	0.599
548.62	0.599
548.83	0.596
549.04	0.592
549.24	0.585
549.45	0.584
549.65	0.580
549.86	0.575
550.07	0.574
550.27	0.572
550.48	0.580
550.69	0.566
550.89	0.565
551.10	0.561
551.30	0.560
551.51	0.559
551.72	0.549
551.92	0.550
552.13	0.550
552.33	0.551
552.54	0.544
552.75	0.537
552.95	0.538
553.16	0.533
553.36	0.531
553.57	0.529
553.78	0.527
553.98	0.526
554.19	0.517
554.39	0.514
554.60	0.517
554.80	0.516
555.01	0.508
555.22	0.509
555.42	0.505
555.63	0.499
555.83	0.503
556.04	0.496
556.25	0.498
556.45	0.489
556.66	0.486
556.86	0.490
557.07	0.488
557.27	0.487
557.48	0.481
557.68	0.479
557.89	0.480
558.10	0.475
558.30	0.472
558.51	0.469
558.71	0.467
558.92	0.462
559.12	0.463
559.33	0.466
559.54	0.461
559.74	0.456
559.95	0.453
560.15	0.453
560.36	0.451
560.56	0.445
560.77	0.447
560.97	0.446
561.18	0.441
561.38	0.441
561.59	0.443
561.79	0.439
562.00	0.438
562.21	0.434
562.41	0.433
562.62	0.432
562.82	0.430
563.03	0.426
563.23	0.425
563.44	0.425
563.64	0.421
563.85	0.423
564.05	0.416
564.26	0.416
564.46	0.414
564.67	0.415
564.87	0.410
565.08	0.407
565.28	0.406
565.49	0.407
565.69	0.404
565.90	0.401
566.10	0.402
566.31	0.396
566.51	0.397
566.72	0.398
566.92	0.392
567.13	0.392
567.33	0.391
567.54	0.390
567.74	0.389
567.95	0.385
568.15	0.386
568.36	0.385
568.56	0.384
568.77	0.379
568.97	0.377
569.18	0.377
569.38	0.375
569.59	0.375
569.79	0.373
570.00	0.370
570.20	0.369
570.41	0.367
570.61	0.365
570.82	0.366
571.02	0.362
571.23	0.364
571.43	0.359
571.64	0.358
571.84	0.357
572.05	0.355
572.25	0.354
572.45	0.353
572.66	0.350
572.86	0.349
573.07	0.347
573.27	0.347
573.48	0.346
573.68	0.341
573.89	0.341
574.09	0.341
574.30	0.339
574.50	0.337
574.70	0.338
574.91	0.335
575.11	0.335
575.32	0.335
575.52	0.331
575.73	0.330
575.93	0.329
576.14	0.328
576.34	0.327
576.54	0.326
576.75	0.323
576.95	0.323
577.16	0.321
577.36	0.320
577.57	0.319
577.77	0.317
577.97	0.315
578.18	0.317
578.38	0.313
578.59	0.312
578.79	0.310
579.00	0.311
579.20	0.309
579.40	0.308
579.61	0.307
579.81	0.307
580.02	0.305
580.22	0.304
580.42	0.303
580.63	0.303
580.83	0.302
581.04	0.300
581.24	0.299
581.45	0.298
581.65	0.298
581.85	0.297
582.06	0.294
582.26	0.294
582.47	0.292
582.67	0.292
582.87	0.290
583.08	0.288
583.28	0.288
583.48	0.286
583.69	0.283
583.89	0.283
584.10	0.283
584.30	0.281
584.50	0.279
584.71	0.279
584.91	0.279
585.12	0.277
585.32	0.278
585.52	0.275
585.73	0.274
585.93	0.274
586.13	0.273
586.34	0.272
586.54	0.271
586.75	0.270
586.95	0.269
587.15	0.268
587.36	0.267
587.56	0.266
587.76	0.265
587.97	0.264
588.17	0.262
588.37	0.262
588.58	0.262
588.78	0.259
588.98	0.260
589.19	0.258
589.39	0.257
589.60	0.259
589.80	0.256
590.00	0.256
590.21	0.256
590.41	0.255
590.61	0.255
590.82	0.254
591.02	0.253
591.22	0.252
591.43	0.252
591.63	0.251
591.83	0.250
592.04	0.248
592.24	0.249
592.44	0.246
592.65	0.244
592.85	0.244
593.05	0.244
593.26	0.242
593.46	0.242
593.66	0.242
593.86	0.241
594.07	0.239
594.27	0.239
594.47	0.238
594.68	0.237
594.88	0.238
595.08	0.237
595.29	0.237
595.49	0.235
595.69	0.234
595.90	0.233
596.10	0.233
596.30	0.233
596.50	0.232
596.71	0.231
596.91	0.230
597.11	0.230
597.32	0.229
597.52	0.228
597.72	0.228
597.93	0.227
598.13	0.226
598.33	0.226
598.53	0.225
598.74	0.224
598.94	0.224
599.14	0.224
599.35	0.223
599.55	0.224
599.75	0.223
599.95	0.222
600.16	0.222
600.36	0.220
600.56	0.220
600.76	0.219
600.97	0.217
601.17	0.217
601.37	0.217
601.58	0.216
601.78	0.215
601.98	0.215
602.18	0.214
602.39	0.214
602.59	0.214
602.79	0.213
602.99	0.213
603.20	0.212
603.40	0.211
603.60	0.212
603.80	0.211
604.01	0.210
604.21	0.209
604.41	0.208
604.61	0.207
604.82	0.207
605.02	0.207
605.22	0.206
605.42	0.206
605.62	0.206
605.83	0.204
606.03	0.204
606.23	0.204
606.43	0.203
606.64	0.203
606.84	0.203
607.04	0.202
607.24	0.202
607.45	0.202
607.65	0.200
607.85	0.201
608.05	0.199
608.25	0.199
608.46	0.199
608.66	0.199
608.86	0.198
609.06	0.197
609.26	0.196
609.47	0.197
609.67	0.196
609.87	0.197
610.07	0.196
610.28	0.195
610.48	0.195
610.68	0.194
610.88	0.193
611.08	0.193
611.29	0.192
611.49	0.192
611.69	0.193
611.89	0.191
612.09	0.190
612.29	0.190
612.50	0.189
612.70	0.189
612.90	0.188
613.10	0.187
613.30	0.187
613.51	0.187
613.71	0.186
613.91	0.189
614.11	0.185
614.31	0.185
614.51	0.184
614.72	0.183
614.92	0.183
615.12	0.183
615.32	0.184
615.52	0.183
615.72	0.183
615.93	0.183
616.13	0.183
616.33	0.183
616.53	0.182
616.73	0.182
616.93	0.181
617.14	0.182
617.34	0.181
617.54	0.181
617.74	0.181
617.94	0.180
618.14	0.179
618.34	0.178
618.55	0.178
618.75	0.179
618.95	0.178
619.15	0.179
619.35	0.178
619.55	0.177
619.75	0.177
619.96	0.176
620.16	0.177
620.36	0.177
620.56	0.176
620.76	0.176
620.96	0.175
621.16	0.175
621.36	0.175
621.57	0.175
621.77	0.175
621.97	0.174
622.17	0.174
622.37	0.174
622.57	0.174
622.77	0.173
622.97	0.172
623.18	0.173
623.38	0.173
623.58	0.173
623.78	0.172
623.98	0.171
624.18	0.171
624.38	0.170
624.58	0.170
624.78	0.170
624.98	0.170
625.19	0.170
625.39	0.169
625.59	0.168
625.79	0.168
625.99	0.168
626.19	0.168
626.39	0.168
626.59	0.168
626.79	0.167
626.99	0.167
627.19	0.167
627.40	0.167
627.60	0.167
627.80	0.166
628.00	0.166
628.20	0.165
628.40	0.165
628.60	0.165
628.80	0.164
629.00	0.164
629.20	0.163
629.40	0.164
629.60	0.163
629.80	0.163
630.00	0.163
630.20	0.163
630.41	0.162
630.61	0.162
630.81	0.162
631.01	0.162
631.21	0.161
631.41	0.161
631.61	0.161
631.81	0.161
632.01	0.160
632.21	0.160
632.41	0.159
632.61	0.159
632.81	0.160
633.01	0.160
633.21	0.160
633.41	0.161
633.61	0.160
633.81	0.160
634.01	0.159
634.21	0.159
634.41	0.159
634.61	0.159
634.81	0.158
635.01	0.158
635.22	0.158
635.42	0.158
635.62	0.157
635.82	0.157
636.02	0.157
636.22	0.156
636.42	0.156
636.62	0.156
636.82	0.156
637.02	0.155
637.22	0.156
637.42	0.156
637.62	0.154
637.82	0.155
638.02	0.154
638.22	0.153
638.42	0.153
638.62	0.153
638.82	0.153
639.02	0.152
639.22	0.152
639.42	0.151
639.62	0.151
639.82	0.151
640.02	0.151
640.22	0.151
640.42	0.150
640.62	0.151
640.82	0.150
641.02	0.150
641.22	0.150
641.42	0.149
641.61	0.150
641.81	0.150
642.01	0.150
642.21	0.150
642.41	0.150
642.61	0.149
642.81	0.149
643.01	0.149
643.21	0.149
643.41	0.149
643.61	0.148
643.81	0.148
644.01	0.147
644.21	0.147
644.41	0.147
644.61	0.147
644.81	0.148
645.01	0.147
645.21	0.147
645.41	0.146
645.61	0.146
645.81	0.146
646.01	0.145
646.21	0.146
646.40	0.145
646.60	0.145
646.80	0.145
647.00	0.144
647.20	0.143
647.40	0.143
647.60	0.143
647.80	0.143
648.00	0.143
648.20	0.143
648.40	0.142
648.60	0.141
648.80	0.141
649.00	0.141
649.20	0.141
649.39	0.141
649.59	0.141
649.79	0.140
649.99	0.141
650.19	0.140
650.39	0.140
650.59	0.140
650.79	0.140
650.99	0.140
651.19	0.139
651.39	0.139
651.58	0.138
651.78	0.138
651.98	0.138
652.18	0.138
652.38	0.137
652.58	0.138
652.78	0.137
652.98	0.137
653.18	0.137
653.38	0.137
653.57	0.137
653.77	0.137
653.97	0.137
654.17	0.137
654.37	0.136
654.57	0.136
654.77	0.136
654.97	0.136
655.16	0.136
655.36	0.135
655.56	0.135
655.76	0.134
655.96	0.134
656.16	0.134
656.36	0.134
656.56	0.133
656.75	0.133
656.95	0.133
657.15	0.132
657.35	0.132
657.55	0.132
657.75	0.132
657.95	0.132
658.14	0.132
658.34	0.132
658.54	0.132
658.74	0.132
658.94	0.131
659.14	0.131
659.34	0.131
659.53	0.131
659.73	0.130
659.93	0.130
660.13	0.130
660.33	0.130
660.53	0.130
660.72	0.130
660.92	0.130
661.12	0.129
661.32	0.129
661.52	0.129
661.72	0.129
661.91	0.128
662.11	0.128
662.31	0.128
662.51	0.128
662.71	0.128
662.90	0.127
663.10	0.126
663.30	0.126
663.50	0.126
663.70	0.125
663.90	0.125
664.09	0.125
664.29	0.125
664.49	0.124
664.69	0.124
664.89	0.124
665.08	0.124
665.28	0.124
665.48	0.124
665.68	0.124
665.88	0.124
666.07	0.123
666.27	0.123
666.47	0.123
666.67	0.123
666.87	0.123
667.06	0.122
667.26	0.122
667.46	0.122
667.66	0.122
667.85	0.122
668.05	0.122
668.25	0.122
668.45	0.123
668.65	0.122
668.84	0.122
669.04	0.122
669.24	0.121
669.44	0.121
669.63	0.120
669.83	0.120
670.03	0.119
670.23	0.119
670.42	0.118
670.62	0.118
670.82	0.118
671.02	0.118
671.22	0.117
671.41	0.117
671.61	0.118
671.81	0.118
672.01	0.117
672.20	0.117
672.40	0.117
672.60	0.117
672.80	0.117
672.99	0.116
673.19	0.116
673.39	0.116
673.58	0.116
673.78	0.115
673.98	0.115
674.18	0.115
674.37	0.114
674.57	0.114
674.77	0.114
674.97	0.114
675.16	0.114
675.36	0.114
675.56	0.113
675.75	0.113
675.95	0.113
676.15	0.113
676.35	0.113
676.54	0.113
676.74	0.113
676.94	0.113
677.13	0.112
677.33	0.112
677.53	0.112
677.73	0.112
677.92	0.111
678.12	0.111
678.32	0.111
678.51	0.111
678.71	0.111
678.91	0.110
679.11	0.110
679.30	0.110
679.50	0.110
679.70	0.109
679.89	0.109
680.09	0.110
680.29	0.109
680.48	0.109
680.68	0.109
680.88	0.109
681.07	0.109
681.27	0.109
681.47	0.109
681.66	0.109
681.86	0.108
682.06	0.108
682.25	0.107
682.45	0.107
682.65	0.107
682.84	0.106
683.04	0.106
683.24	0.106
683.43	0.106
683.63	0.105
683.83	0.105
684.02	0.105
684.22	0.105
684.42	0.105
684.61	0.105
684.81	0.105
685.01	0.105
685.20	0.105
685.40	0.105
685.60	0.105
685.79	0.105
685.99	0.105
686.19	0.105
686.38	0.104
686.58	0.105
686.77	0.105
686.97	0.104
687.17	0.104
687.36	0.104
687.56	0.104
687.76	0.104
687.95	0.104
688.15	0.103
688.34	0.104
688.54	0.103
688.74	0.102
688.93	0.102
689.13	0.102
689.33	0.102
689.52	0.101
689.72	0.102
689.91	0.101
690.11	0.101
690.31	0.100
690.50	0.101
690.70	0.101
690.89	0.101
691.09	0.100
691.29	0.100
691.48	0.099
691.68	0.099
691.87	0.099
692.07	0.099
692.27	0.099
692.46	0.099
692.66	0.098
692.85	0.098
693.05	0.098
693.25	0.098
693.44	0.098
693.64	0.098
693.83	0.098
694.03	0.098
694.22	0.097
694.42	0.097
694.62	0.097
694.81	0.097
695.01	0.097
695.20	0.097
695.40	0.097
695.59	0.097
695.79	0.096
695.99	0.096
696.18	0.097
696.38	0.097
696.57	0.096
696.77	0.096
696.96	0.096
697.16	0.096
697.36	0.096
697.55	0.096
697.75	0.096
697.94	0.096
698.14	0.096
698.33	0.095
698.53	0.095
698.72	0.095
698.92	0.095
699.11	0.095
699.31	0.094
699.51	0.094
699.70	0.094
699.90	0.094
700.09	0.094
700.29	0.093
700.48	0.093
700.68	0.093
700.87	0.093
701.07	0.093
701.26	0.093
701.46	0.093
701.65	0.093
701.85	0.092
702.04	0.092
702.24	0.092
702.43	0.092
702.63	0.092
702.82	0.092
703.02	0.092
703.21	0.092
703.41	0.091
703.60	0.091
703.80	0.091
703.99	0.091
704.19	0.091
704.38	0.091
704.58	0.090
704.77	0.090
704.97	0.090
705.16	0.090
705.36	0.090
705.55	0.090
705.75	0.089
705.94	0.089
706.14	0.089
706.33	0.089
706.53	0.089
706.72	0.090
706.92	0.089
707.11	0.089
707.31	0.089
707.50	0.089
707.70	0.089
707.89	0.090
708.09	0.089
708.28	0.089
708.48	0.089
708.67	0.089
708.86	0.089
709.06	0.089
709.25	0.089
709.45	0.089
709.64	0.089
709.84	0.088
710.03	0.088
710.23	0.088
710.42	0.088
710.62	0.088
710.81	0.087
711.00	0.087
711.20	0.087
711.39	0.087
711.59	0.087
711.78	0.087
711.98	0.087
712.17	0.087
712.37	0.087
712.56	0.087
712.75	0.087
712.95	0.087
713.14	0.087
713.34	0.087
713.53	0.087
713.73	0.087
713.92	0.087
714.11	0.087
714.31	0.087
714.50	0.087
714.70	0.087
714.89	0.087
715.08	0.087
715.28	0.087
715.47	0.087
715.67	0.087
715.86	0.087
716.06	0.087
716.25	0.087
716.44	0.086
716.64	0.086
716.83	0.086
717.03	0.086
717.22	0.086
717.41	0.085
717.61	0.085
717.80	0.085
717.99	0.085
718.19	0.086
718.38	0.086
718.58	0.085
718.77	0.085
718.96	0.085
719.16	0.085
719.35	0.085
719.55	0.085
719.74	0.084
719.93	0.084
720.13	0.084
720.32	0.083
720.51	0.084
720.71	0.084
720.90	0.084
721.10	0.084
721.29	0.084
721.48	0.083
721.68	0.083
721.87	0.083
722.06	0.083
722.26	0.084
722.45	0.084
722.64	0.084
722.84	0.084
723.03	0.084
723.22	0.084
723.42	0.084
723.61	0.084
723.80	0.084
724.00	0.084
724.19	0.084
724.38	0.084
724.58	0.084
724.77	0.084
724.96	0.084
725.16	0.084
725.35	0.084
725.54	0.084
725.74	0.084
725.93	0.084
726.12	0.084
726.32	0.084
726.51	0.084
726.70	0.084
726.90	0.084
727.09	0.084
727.28	0.084
727.48	0.084
727.67	0.084
727.86	0.084
728.06	0.084
728.25	0.084
728.44	0.084
728.64	0.084
728.83	0.084
729.02	0.084
729.21	0.084
729.41	0.084
729.60	0.084
729.79	0.084
729.99	0.084
730.18	0.084
730.37	0.084
730.56	0.083
730.76	0.084
730.95	0.084
731.14	0.084
731.34	0.084
731.53	0.084
731.72	0.084
731.91	0.084
732.11	0.084
732.30	0.084
732.49	0.084
732.69	0.084
732.88	0.084
733.07	0.084
733.26	0.084
733.46	0.084
733.65	0.084
733.84	0.083
734.03	0.084
734.23	0.084
734.42	0.084
734.61	0.084
734.80	0.083
735.00	0.084
735.19	0.084
735.38	0.084
735.57	0.084
735.77	0.084
735.96	0.084
736.15	0.084
736.34	0.084
736.54	0.084
736.73	0.084
736.92	0.084
737.11	0.084
737.31	0.084
737.50	0.084
737.69	0.085
737.88	0.084
738.07	0.084
738.27	0.084
738.46	0.084
738.65	0.084
738.84	0.084
739.04	0.084
739.23	0.084
739.42	0.084
739.61	0.084
739.80	0.083
740.00	0.083
740.19	0.083
740.38	0.084
740.57	0.084
740.76	0.083
740.96	0.083
741.15	0.083
741.34	0.083
741.53	0.084
741.72	0.084
741.92	0.084
742.11	0.084
742.30	0.083
742.49	0.083
742.68	0.083
742.88	0.083
743.07	0.083
743.26	0.084
743.45	0.084
743.64	0.083
743.84	0.082
744.03	0.082
744.22	0.082
744.41	0.082
744.60	0.082
744.79	0.082
744.99	0.082
745.18	0.082
745.37	0.081
745.56	0.081
745.75	0.082
745.94	0.082
746.14	0.082
746.33	0.082
746.52	0.083
746.71	0.083
746.90	0.082
747.09	0.082
747.28	0.082
747.48	0.082
747.67	0.082
747.86	0.081
748.05	0.081
748.24	0.081
748.43	0.081
748.62	0.080
748.82	0.080
749.01	0.080
749.20	0.080
749.39	0.080
749.58	0.080
749.77	0.080
749.96	0.080
750.16	0.080
750.35	0.080
750.54	0.080
750.73	0.080
750.92	0.080
751.11	0.080
751.30	0.080
751.49	0.080
751.68	0.080
751.88	0.080
752.07	0.080
752.26	0.080
752.45	0.080
752.64	0.080
752.83	0.080
753.02	0.080
753.21	0.080
753.40	0.079
753.60	0.080
753.79	0.079
753.98	0.079
754.17	0.079
754.36	0.079
754.55	0.079
754.74	0.079
754.93	0.079
755.12	0.079
755.31	0.079
755.50	0.079
755.70	0.079
755.89	0.079
756.08	0.079
756.27	0.079
756.46	0.079
756.65	0.079
756.84	0.079
757.03	0.079
757.22	0.079
757.41	0.079
757.60	0.078
757.79	0.078
757.98	0.078
758.17	0.078
758.36	0.078
758.56	0.078
758.75	0.078
758.94	0.078
759.13	0.078
759.32	0.078
759.51	0.078
759.70	0.078
759.89	0.078
760.08	0.078
760.27	0.078
760.46	0.079
760.65	0.078
760.84	0.079
761.03	0.079
761.22	0.079
761.41	0.079
761.60	0.078
761.79	0.078
761.98	0.078
762.17	0.078
762.36	0.077
762.55	0.077
762.74	0.077
762.93	0.077
763.12	0.076
763.31	0.076
763.50	0.076
763.69	0.076
763.88	0.076
764.07	0.076
764.26	0.077
764.45	0.077
764.64	0.077
764.83	0.076
765.02	0.076
765.21	0.077
765.40	0.077
765.59	0.077
765.78	0.077
765.97	0.077
766.16	0.077
766.35	0.077
766.54	0.077
766.73	0.077
766.92	0.077
767.11	0.077
767.30	0.077
767.49	0.077
767.68	0.077
767.87	0.076
768.06	0.076
768.25	0.076
768.44	0.076
768.63	0.076
768.82	0.076
769.01	0.076
769.20	0.076
769.39	0.076
769.58	0.076
769.77	0.076
769.96	0.076
770.15	0.076
770.34	0.076
770.53	0.076
770.72	0.075
770.91	0.075
771.10	0.075
771.29	0.075
771.47	0.074
771.66	0.074
771.85	0.074
772.04	0.074
772.23	0.074
772.42	0.074
772.61	0.075
772.80	0.075
772.99	0.075
773.18	0.075
773.37	0.075
773.56	0.075
773.75	0.075
773.94	0.076
774.13	0.075
774.31	0.075
774.50	0.075
774.69	0.075
774.88	0.075
775.07	0.075
775.26	0.075
775.45	0.074
775.64	0.074
775.83	0.074
776.02	0.073
776.21	0.074
776.40	0.074
776.58	0.074
776.77	0.074
776.96	0.074
777.15	0.074
777.34	0.074
777.53	0.074
777.72	0.074
777.91	0.075
778.10	0.075
778.28	0.074
778.47	0.074
778.66	0.074
778.85	0.074
779.04	0.073
779.23	0.073
779.42	0.073
779.61	0.073
779.79	0.072
779.98	0.072
780.17	0.073
780.36	0.072
780.55	0.072
780.74	0.072
780.93	0.072
781.12	0.072
781.30	0.072
781.49	0.072
781.68	0.072
781.87	0.072
782.06	0.072
782.25	0.072
782.44	0.073
782.62	0.073
782.81	0.073
783.00	0.073
783.19	0.073
783.38	0.073
783.57	0.073
783.75	0.073
783.94	0.073
784.13	0.072
784.32	0.072
784.51	0.072
784.70	0.072
784.88	0.072
785.07	0.072
785.26	0.072
785.45	0.072
785.64	0.071
785.83	0.072
786.01	0.072
786.20	0.072
786.39	0.072
786.58	0.072
786.77	0.072
786.95	0.071
787.14	0.072
787.33	0.072
787.52	0.071
787.71	0.071
787.90	0.070
788.08	0.071
788.27	0.070
788.46	0.070
788.65	0.070
788.84	0.070
789.02	0.070
789.21	0.071
789.40	0.070
789.59	0.071
789.77	0.071
789.96	0.071
790.15	0.071
790.34	0.071
790.53	0.072
790.71	0.071
790.90	0.071
791.09	0.071
791.28	0.071
791.46	0.071
791.65	0.071
791.84	0.071
792.03	0.071
792.22	0.071
792.40	0.071
792.59	0.070
792.78	0.070
792.97	0.071
793.15	0.071
793.34	0.070
793.53	0.070
793.72	0.070
793.90	0.070
794.09	0.070
794.28	0.070
794.47	0.070
794.65	0.070
794.84	0.070
795.03	0.070
795.22	0.070
795.40	0.070
795.59	0.070
795.78	0.070
795.97	0.070
796.15	0.070
796.34	0.070
796.53	0.070
796.71	0.070
796.90	0.070
797.09	0.070
797.28	0.070
797.46	0.070
797.65	0.070
797.84	0.070
798.02	0.070
798.21	0.069
798.40	0.069
798.59	0.069
798.77	0.069
798.96	0.069
799.15	0.069
799.33	0.069
799.52	0.069
799.71	0.069
799.90	0.070
800.08	0.070
800.27	0.070
800.46	0.069
800.64	0.069
800.83	0.069
801.02	0.069
801.20	0.069
801.39	0.069
801.58	0.069
801.76	0.069
801.95	0.069
802.14	0.069
802.32	0.069
802.51	0.069
802.70	0.069
802.88	0.069
803.07	0.069
803.26	0.069
803.44	0.068
803.63	0.069
803.82	0.069
804.00	0.069
804.19	0.069
804.38	0.069
804.56	0.069
804.75	0.069
804.94	0.070
805.12	0.070
805.31	0.069
805.50	0.070
805.68	0.069
805.87	0.069
806.06	0.069
806.24	0.069
806.43	0.068
806.62	0.068
806.80	0.068
806.99	0.068
807.17	0.068
807.36	0.068
807.55	0.069
807.73	0.069
807.92	0.069
808.11	0.068
808.29	0.068
808.48	0.068
808.66	0.068
808.85	0.068
809.04	0.068
809.22	0.068
809.41	0.068
809.59	0.068
809.78	0.068
809.97	0.067
810.15	0.068
810.34	0.068
810.53	0.068
810.71	0.068
810.90	0.068
811.08	0.068
811.27	0.068
811.45	0.068
811.64	0.068
811.83	0.067
812.01	0.067
812.20	0.067
812.38	0.067
812.57	0.067
812.76	0.067
812.94	0.067
813.13	0.067
813.31	0.067
813.50	0.067
813.68	0.067
813.87	0.067
814.06	0.068
814.24	0.068
814.43	0.068
814.61	0.068
814.80	0.067
814.98	0.068
815.17	0.067
815.36	0.067
815.54	0.067
815.73	0.067
815.91	0.067
816.10	0.068
816.28	0.067
816.47	0.067
816.65	0.067
816.84	0.068
817.03	0.068
817.21	0.068
817.40	0.068
817.58	0.068
817.77	0.068
817.95	0.068
818.14	0.068
818.32	0.068
818.51	0.068
818.69	0.068
818.88	0.068
819.06	0.068
819.25	0.068
819.43	0.068
819.62	0.068
819.80	0.068
819.99	0.068
820.18	0.068
820.36	0.068
820.55	0.068
820.73	0.068
820.92	0.068
821.10	0.068
821.29	0.068
821.47	0.068
821.66	0.068
821.84	0.068
822.03	0.068
822.21	0.068
822.40	0.068
822.58	0.068
822.77	0.068
822.95	0.068
823.14	0.068
823.32	0.068
823.50	0.069
823.69	0.068
823.87	0.069
824.06	0.069
824.24	0.069
824.43	0.069
824.61	0.069
824.80	0.070
824.98	0.070
825.17	0.070
825.35	0.070
825.54	0.070
825.72	0.070
825.91	0.069
826.09	0.069
826.28	0.069
826.46	0.070
826.64	0.070
826.83	0.070
827.01	0.070
827.20	0.070
827.38	0.070
827.57	0.070
827.75	0.070
827.94	0.070
828.12	0.071
828.31	0.071
828.49	0.071
828.67	0.071
828.86	0.071
829.04	0.071
829.23	0.071
829.41	0.072
829.60	0.072
829.78	0.072
829.96	0.073
830.15	0.073
830.33	0.073
830.52	0.073
830.70	0.073
830.88	0.073
831.07	0.073
831.25	0.073
831.44	0.073
831.62	0.073
831.81	0.073
831.99	0.072
832.17	0.072
832.36	0.072
832.54	0.073
832.73	0.073
832.91	0.073
833.09	0.072
833.28	0.073
833.46	0.073
833.65	0.073
833.83	0.073
834.01	0.074
834.20	0.074
834.38	0.073
834.56	0.073
834.75	0.074
834.93	0.074
835.12	0.074
835.30	0.074
835.48	0.075
835.67	0.074
835.85	0.074
836.03	0.074
836.22	0.074
836.40	0.074
836.59	0.074
836.77	0.074
836.95	0.074
837.14	0.074
837.32	0.073
837.50	0.073
837.69	0.074
837.87	0.074
838.05	0.074
838.24	0.074
838.42	0.074
838.60	0.074
838.79	0.075
838.97	0.074
839.15	0.075
839.34	0.075
839.52	0.075
839.70	0.075
839.89	0.075
840.07	0.075
840.25	0.076
840.44	0.075
840.62	0.075
840.80	0.075
840.99	0.075
841.17	0.075
841.35	0.076
841.54	0.076
841.72	0.076
841.90	0.076
842.09	0.075
842.27	0.075
842.45	0.075
842.64	0.076
842.82	0.075
843.00	0.076
843.19	0.076
843.37	0.075
843.55	0.075
843.73	0.075
843.92	0.075
844.10	0.076
844.28	0.076
844.47	0.076
844.65	0.075
844.83	0.076
845.01	0.076
845.20	0.076
845.38	0.076
845.56	0.076
845.75	0.076
845.93	0.076
846.11	0.076
846.29	0.076
846.48	0.076
846.66	0.077
846.84	0.076
847.02	0.076
847.21	0.076
847.39	0.076
847.57	0.076
847.76	0.076
847.94	0.076
848.12	0.076
848.30	0.076
848.49	0.076
848.67	0.077
848.85	0.077
849.03	0.077
849.22	0.077
849.40	0.077
849.58	0.077
849.76	0.078
849.95	0.078
850.13	0.077
850.31	0.077
850.49	0.077
850.67	0.077
850.86	0.077
851.04	0.077
851.22	0.077
851.40	0.076
851.59	0.076
851.77	0.076
851.95	0.076
852.13	0.076
852.31	0.076
852.50	0.076
852.68	0.077
852.86	0.076
853.04	0.076
853.23	0.076
853.41	0.076
853.59	0.076
853.77	0.077
853.95	0.077
854.14	0.076
854.32	0.076
854.50	0.076
854.68	0.076
854.86	0.076
855.04	0.076
855.23	0.076
855.41	0.077
855.59	0.077
855.77	0.077
855.95	0.077
856.14	0.077
856.32	0.077
856.50	0.077
856.68	0.077
856.86	0.077
857.04	0.077
857.23	0.077
857.41	0.077
857.59	0.077
857.77	0.077
857.95	0.077
858.13	0.077
858.32	0.077
858.50	0.077
858.68	0.077
858.86	0.077
859.04	0.077
859.22	0.076
859.41	0.076
859.59	0.076
859.77	0.076
859.95	0.076
860.13	0.077
860.31	0.077
860.49	0.077
860.68	0.077
860.86	0.077
861.04	0.077
861.22	0.077
861.40	0.077
861.58	0.078
861.76	0.077
861.94	0.077
862.13	0.077
862.31	0.077
862.49	0.077
862.67	0.077
862.85	0.078
863.03	0.078
863.21	0.078
863.39	0.078
863.57	0.079
863.76	0.079
863.94	0.079
864.12	0.079
864.30	0.078
864.48	0.078
864.66	0.078
864.84	0.078
865.02	0.079
865.20	0.078
865.38	0.078
865.57	0.078
865.75	0.078
865.93	0.078
866.11	0.078
866.29	0.078
866.47	0.079
866.65	0.079
866.83	0.078
867.01	0.078
867.19	0.078
867.37	0.078
867.55	0.079
867.73	0.079
867.92	0.078
868.10	0.079
868.28	0.078
868.46	0.078
868.64	0.078
868.82	0.078
869.00	0.078
869.18	0.078
869.36	0.078
869.54	0.078
869.72	0.078
869.90	0.078
870.08	0.078
870.26	0.078
870.44	0.079
870.62	0.079
870.80	0.078
870.98	0.079
871.16	0.079
871.34	0.078
871.53	0.078
871.71	0.079
871.89	0.079
872.07	0.079
872.25	0.079
872.43	0.078
872.61	0.078
872.79	0.079
872.97	0.079
873.15	0.079
873.33	0.080
873.51	0.080
873.69	0.080
873.87	0.080
874.05	0.080
874.23	0.080
874.41	0.080
874.59	0.081
874.77	0.080
874.95	0.079
875.13	0.080
875.31	0.080
875.49	0.080
875.67	0.079
875.85	0.079
876.03	0.080
876.21	0.080
876.39	0.080
876.57	0.080
876.75	0.080
876.93	0.080
877.11	0.080
877.29	0.080
877.47	0.080
877.65	0.080
877.82	0.081
878.00	0.081
878.18	0.081
878.36	0.081
878.54	0.081
878.72	0.081
878.90	0.081
879.08	0.081
879.26	0.081
879.44	0.082
879.62	0.081
879.80	0.081
879.98	0.081
880.16	0.081
880.34	0.081
880.52	0.081
880.70	0.081
880.88	0.081
881.06	0.081
881.24	0.081
881.42	0.081
881.59	0.081
881.77	0.081
881.95	0.081
882.13	0.081
882.31	0.081
882.49	0.081
882.67	0.081
882.85	0.081
883.03	0.081
883.21	0.081
883.39	0.081
883.57	0.082
883.75	0.082
883.92	0.082
884.10	0.082
884.28	0.082
884.46	0.082
884.64	0.082
884.82	0.082
885.00	0.082
885.18	0.082
885.36	0.082
885.54	0.082
885.71	0.082
885.89	0.082
886.07	0.082
886.25	0.082
886.43	0.082
886.61	0.082
886.79	0.082
886.97	0.082
887.15	0.082
887.32	0.082
887.50	0.083
887.68	0.083
887.86	0.083
888.04	0.083
888.22	0.083
888.40	0.083
888.57	0.084
888.75	0.083
888.93	0.083
889.11	0.083
889.29	0.083
889.47	0.083
889.65	0.083
889.82	0.083
890.00	0.084
890.18	0.084
890.36	0.084
890.54	0.084
890.72	0.084
890.90	0.084
891.07	0.084
891.25	0.084
891.43	0.083
891.61	0.083
891.79	0.083
891.97	0.083
892.14	0.083
892.32	0.083
892.50	0.083
892.68	0.083
892.86	0.083
893.03	0.083
893.21	0.084
893.39	0.084
893.57	0.084
893.75	0.084
893.93	0.084
894.10	0.084
894.28	0.085
894.46	0.085
894.64	0.085
894.82	0.085
894.99	0.085
895.17	0.085
895.35	0.085
895.53	0.085
895.71	0.085
895.88	0.085
896.06	0.085
896.24	0.085
896.42	0.085
896.59	0.085
896.77	0.085
896.95	0.085
897.13	0.085
897.31	0.085
897.48	0.085
897.66	0.085
897.84	0.085
898.02	0.085
898.19	0.085
898.37	0.085
898.55	0.085
898.73	0.085
898.91	0.085
899.08	0.085
899.26	0.085
899.44	0.085
899.62	0.086
899.79	0.086
899.97	0.086
900.15	0.086
900.33	0.086
900.50	0.086
900.68	0.086
900.86	0.086
901.04	0.086
901.21	0.086
901.39	0.086
901.57	0.086
901.74	0.086
901.92	0.086
902.10	0.086
902.28	0.086
902.45	0.086
902.63	0.086
902.81	0.086
902.99	0.087
903.16	0.087
903.34	0.087
903.52	0.087
903.69	0.087
903.87	0.087
904.05	0.087
904.22	0.088
904.40	0.088
904.58	0.088
904.76	0.088
904.93	0.088
905.11	0.088
905.29	0.088
905.46	0.087
905.64	0.087
905.82	0.088
905.99	0.087
906.17	0.087
906.35	0.087
906.53	0.087
906.70	0.087
906.88	0.088
907.06	0.088
907.23	0.088
907.41	0.088
907.59	0.088
907.76	0.088
907.94	0.088
908.12	0.088
908.29	0.089
908.47	0.088
908.65	0.089
908.82	0.089
909.00	0.089
909.18	0.089
909.35	0.089
909.53	0.089
909.71	0.089
909.88	0.090
910.06	0.089
910.23	0.089
910.41	0.090
910.59	0.089
910.76	0.089
910.94	0.089
911.12	0.089
911.29	0.089
911.47	0.089
911.65	0.089
911.82	0.089
912.00	0.089
912.17	0.089
912.35	0.090
912.53	0.090
912.70	0.090
912.88	0.090
913.06	0.091
913.23	0.091
913.41	0.090
913.58	0.091
913.76	0.091
913.94	0.091
914.11	0.091
914.29	0.091
914.46	0.091
914.64	0.091
914.82	0.091
914.99	0.091
915.17	0.091
915.34	0.091
915.52	0.092
915.70	0.092
915.87	0.092
916.05	0.093
916.22	0.092
916.40	0.092
916.57	0.093
916.75	0.093
916.93	0.093
917.10	0.093
917.28	0.093
917.45	0.093
917.63	0.093
917.80	0.093
917.98	0.093
918.16	0.094
918.33	0.094
918.51	0.095
918.68	0.095
918.86	0.095
919.03	0.095
919.21	0.095
919.39	0.095
919.56	0.096
919.74	0.096
919.91	0.096
920.09	0.096
920.26	0.096
920.44	0.096
920.61	0.096
920.79	0.097
920.96	0.097
921.14	0.097
921.31	0.097
921.49	0.097
921.67	0.098
921.84	0.098
922.02	0.098
922.19	0.098
922.37	0.098
922.54	0.099
922.72	0.099
922.89	0.099
923.07	0.100
923.24	0.100
923.42	0.100
923.59	0.100
923.77	0.100
923.94	0.101
924.12	0.101
924.29	0.102
924.47	0.102
924.64	0.102
924.82	0.102
924.99	0.103
925.17	0.103
925.34	0.103
925.52	0.104
925.69	0.104
925.87	0.105
926.04	0.105
926.22	0.105
926.39	0.106
926.57	0.106
926.74	0.106
926.91	0.107
927.09	0.107
927.26	0.106
927.44	0.107
927.61	0.107
927.79	0.107
927.96	0.108
928.14	0.108
928.31	0.108
928.49	0.108
928.66	0.109
928.84	0.110
929.01	0.109
929.18	0.110
929.36	0.111
929.53	0.111
929.71	0.111
929.88	0.112
930.06	0.112
930.23	0.113
930.41	0.113
930.58	0.114
930.75	0.114
930.93	0.115
931.10	0.115
931.28	0.115
931.45	0.115
931.63	0.116
931.80	0.116
931.97	0.117
932.15	0.117
932.32	0.118
932.50	0.118
932.67	0.118
932.84	0.119
933.02	0.120
933.19	0.120
933.37	0.120
933.54	0.121
933.71	0.121
933.89	0.122
934.06	0.122
934.24	0.123
934.41	0.123
934.58	0.124
934.76	0.124
934.93	0.125
935.11	0.125
935.28	0.125
935.45	0.126
935.63	0.126
935.80	0.127
935.98	0.127
936.15	0.127
936.32	0.128
936.50	0.128
936.67	0.129
936.84	0.129
937.02	0.130
937.19	0.131
937.36	0.131
937.54	0.131
937.71	0.132
937.89	0.132
938.06	0.133
938.23	0.133
938.41	0.134
938.58	0.135
938.75	0.135
938.93	0.136
939.10	0.136
939.27	0.136
939.45	0.137
939.62	0.138
939.79	0.139
939.97	0.139
940.14	0.139
940.31	0.140
940.49	0.141
940.66	0.141
940.83	0.142
941.01	0.143
941.18	0.143
941.35	0.144
941.53	0.144
941.70	0.145
941.87	0.145
942.05	0.146
942.22	0.146
942.39	0.148
942.57	0.148
942.74	0.149
942.91	0.149
943.08	0.150
943.26	0.150
943.43	0.151
943.60	0.151
943.78	0.152
943.95	0.153
944.12	0.153
944.29	0.154
944.47	0.154
944.64	0.155
944.81	0.157
944.99	0.158
945.16	0.158
945.33	0.159
945.50	0.160
945.68	0.161
945.85	0.161
946.02	0.163
946.20	0.164
946.37	0.165
946.54	0.166
946.71	0.167
946.89	0.167
947.06	0.167
947.23	0.168
947.40	0.169
947.58	0.169
947.75	0.171
947.92	0.171
948.09	0.172
948.27	0.173
948.44	0.174
948.61	0.175
948.78	0.176
948.96	0.178
949.13	0.178
949.30	0.179
949.47	0.180
949.65	0.181
949.82	0.183
949.99	0.183
950.16	0.186
950.33	0.187
950.51	0.188
950.68	0.189
950.85	0.190
951.02	0.191
951.20	0.193
951.37	0.194
951.54	0.195
951.71	0.196
951.88	0.197
952.06	0.198
952.23	0.199
952.40	0.200
952.57	0.201
952.74	0.203
952.92	0.203
953.09	0.205
953.26	0.206
953.43	0.207
953.60	0.208
953.77	0.209
953.95	0.210
954.12	0.212
954.29	0.213
954.46	0.215
954.63	0.217
954.81	0.217
954.98	0.218
955.15	0.220
955.32	0.222
955.49	0.222
955.66	0.224
955.84	0.225
956.01	0.225
956.18	0.227
956.35	0.229
956.52	0.229
956.69	0.230
956.87	0.231
957.04	0.231
957.21	0.234
957.38	0.233
957.55	0.235
957.72	0.236
957.89	0.237
958.07	0.237
958.24	0.240
958.41	0.241
958.58	0.241
958.75	0.242
958.92	0.243
959.09	0.244
959.26	0.245
959.44	0.245
959.61	0.245
959.78	0.246
959.95	0.247
960.12	0.247
960.29	0.250
960.46	0.249
960.63	0.249
960.81	0.249
960.98	0.250
961.15	0.251
961.32	0.251
961.49	0.251
961.66	0.252
961.83	0.253
962.00	0.253
962.17	0.253
962.34	0.253
962.52	0.254
962.69	0.255
962.86	0.254
963.03	0.254
963.20	0.255
963.37	0.255
963.54	0.256
963.71	0.255
963.88	0.256
964.05	0.257
964.22	0.258
964.39	0.257
964.56	0.258
964.74	0.259
964.91	0.259
965.08	0.260
965.25	0.260
965.42	0.260
965.59	0.261
965.76	0.260
965.93	0.261
966.10	0.259
966.27	0.260
966.44	0.260
966.61	0.261
966.78	0.260
966.95	0.259
967.12	0.260
967.29	0.262
967.46	0.261
967.63	0.260
967.80	0.261
967.97	0.261
968.14	0.261
968.32	0.261
968.49	0.261
968.66	0.261
968.83	0.262
969.00	0.262
969.17	0.262
969.34	0.263
969.51	0.264
969.68	0.263
969.85	0.264
970.02	0.264
970.19	0.263
970.36	0.264
970.53	0.264
970.70	0.262
970.87	0.262
971.04	0.262
971.21	0.262
971.38	0.262
971.55	0.263
971.72	0.263
971.89	0.264
972.06	0.263
972.23	0.263
972.40	0.263
972.57	0.262
972.74	0.262
972.91	0.263
973.07	0.263
973.24	0.262
973.41	0.262
973.58	0.261
973.75	0.274
973.92	0.261
974.09	0.262
974.26	0.261
974.43	0.261
974.60	0.262
974.77	0.263
974.94	0.262
975.11	0.263
975.28	0.264
975.45	0.263
975.62	0.264
975.79	0.265
975.96	0.264
976.13	0.263
976.30	0.264
976.47	0.262
976.64	0.263
976.80	0.263
976.97	0.263
977.14	0.262
977.31	0.262
977.48	0.262
977.65	0.262
977.82	0.261
977.99	0.263
978.16	0.262
978.33	0.262
978.50	0.262
978.67	0.262
978.83	0.262
979.00	0.262
979.17	0.261
979.34	0.260
979.51	0.260
979.68	0.261
979.85	0.260
980.02	0.261
980.19	0.258
980.36	0.260
980.52	0.261
980.69	0.259
980.86	0.259
981.03	0.259
981.20	0.258
981.37	0.259
981.54	0.259
981.71	0.258
981.88	0.259
982.04	0.258
982.21	0.257
982.38	0.259
982.55	0.258
982.72	0.257
982.89	0.258
983.06	0.256
983.22	0.256
983.39	0.256
983.56	0.256
983.73	0.255
983.90	0.254
984.07	0.256
984.24	0.254
984.40	0.254
984.57	0.253
984.74	0.255
984.91	0.256
985.08	0.254
985.25	0.252
985.41	0.253
985.58	0.253
985.75	0.255
985.92	0.253
986.09	0.252
986.26	0.252
986.42	0.251
986.59	0.250
986.76	0.251
986.93	0.251
987.10	0.251
987.27	0.249
987.43	0.247
987.60	0.249
987.77	0.249
987.94	0.248
988.11	0.249
988.27	0.249
988.44	0.248
988.61	0.247
988.78	0.245
988.95	0.246
989.11	0.248
989.28	0.246
989.45	0.245
989.62	0.245
989.79	0.245
989.95	0.244
990.12	0.245
990.29	0.245
990.46	0.244
990.62	0.242
990.79	0.243
990.96	0.243
991.13	0.243
991.30	0.242
991.46	0.241
991.63	0.239
991.80	0.238
991.97	0.238
992.13	0.239
992.30	0.239
992.47	0.238
992.64	0.238
992.80	0.238
992.97	0.238
993.14	0.236
993.31	0.233
993.47	0.236
993.64	0.234
993.81	0.234
993.98	0.234
994.14	0.233
994.31	0.231
994.48	0.232
994.64	0.232
994.81	0.231
994.98	0.232
995.15	0.229
995.31	0.230
995.48	0.229
995.65	0.232
995.82	0.229
995.98	0.229
996.15	0.231
996.32	0.232
996.48	0.231
996.65	0.230
996.82	0.227
996.99	0.228
997.15	0.227
997.32	0.228
997.49	0.226
997.65	0.227
997.82	0.226
997.99	0.223
998.15	0.224
998.32	0.225
998.49	0.224
998.65	0.224
998.82	0.224
998.99	0.222
999.15	0.223
999.32	0.221
999.49	0.221
999.65	0.221
999.82	0.218
999.99	0.218
1000.15	0.219
1000.32	0.219
1000.49	0.219
1000.65	0.217
1000.82	0.217
1000.99	0.217
1001.15	0.217
1001.32	0.216
1001.49	0.216
1001.65	0.216
1001.82	0.219
1001.99	0.215
1002.15	0.214
1002.32	0.214
1002.49	0.214
1002.65	0.213
1002.82	0.211
1002.99	0.211
1003.15	0.213
1003.32	0.212
1003.48	0.213
1003.65	0.212
1003.82	0.211
1003.98	0.209
1004.15	0.209
1004.32	0.210
1004.48	0.209
1004.65	0.210
1004.81	0.208
1004.98	0.207
1005.15	0.208
1005.31	0.207
1005.48	0.205
1005.64	0.205
1005.81	0.207
1005.98	0.204
1006.14	0.203
1006.31	0.203
1006.47	0.202
1006.64	0.200
1006.81	0.200
1006.97	0.200
1007.14	0.200
1007.30	0.201
1007.47	0.201
1007.63	0.198
1007.80	0.197
1007.97	0.197
1008.13	0.198
1008.30	0.198
1008.46	0.198
1008.63	0.197
1008.79	0.197
1008.96	0.196
1009.13	0.198
1009.29	0.195
1009.46	0.195
1009.62	0.195
1009.79	0.192
1009.95	0.192
1010.12	0.193
1010.28	0.193
1010.45	0.192
1010.62	0.192
1010.78	0.190
1010.95	0.189
1011.11	0.190
1011.28	0.189
1011.44	0.192
1011.61	0.190
1011.77	0.189
1011.94	0.189
1012.10	0.189
1012.27	0.189
1012.43	0.189
1012.60	0.188
1012.76	0.188
1012.93	0.187
1013.10	0.186
1013.26	0.184
1013.43	0.185
1013.59	0.192
1013.76	0.184
1013.92	0.183
1014.09	0.181
1014.25	0.183
1014.42	0.184
1014.58	0.184
1014.75	0.186
1014.91	0.184
1015.08	0.185
1015.24	0.182
1015.41	0.184
1015.57	0.184
1015.73	0.182
1015.90	0.181
1016.06	0.182
1016.23	0.180
1016.39	0.180
1016.56	0.181
1016.72	0.180
1016.89	0.181
1017.05	0.182
1017.22	0.178
1017.38	0.179
1017.55	0.178
1017.71	0.178
1017.88	0.178
1018.04	0.178
1018.21	0.176
1018.37	0.175
1018.53	0.175
1018.70	0.174
1018.86	0.173
1019.03	0.175
1019.19	0.173
1019.36	0.173
1019.52	0.174
1019.69	0.175
1019.85	0.174
1020.01	0.173
1020.18	0.172
1020.34	0.172
1020.51	0.171
1020.67	0.173
1020.84	0.170
1021.00	0.171
1021.16	0.168
1021.33	0.169
1021.49	0.167
1021.66	0.168
1021.82	0.166
1021.98	0.166
1022.15	0.167
1022.31	0.166
1022.48	0.166
1022.64	0.168
1022.80	0.166
1022.97	0.165
1023.13	0.165
1023.30	0.165
1023.46	0.167
1023.62	0.165
1023.79	0.166
1023.95	0.165
1024.12	0.164
1024.28	0.163
1024.44	0.164
1024.61	0.162
1024.77	0.163
1024.93	0.162
1025.10	0.163
1025.26	0.161
1025.43	0.161
1025.59	0.158
1025.75	0.162
1025.92	0.160
1026.08	0.159
1026.24	0.159
1026.41	0.160
1026.57	0.158
1026.73	0.155
1026.90	0.157
1027.06	0.155
1027.23	0.157
1027.39	0.156
1027.55	0.156
1027.72	0.155
1027.88	0.155
1028.04	0.155
1028.21	0.155
1028.37	0.150
1028.53	0.156
1028.70	0.154
1028.86	0.152
1029.02	0.152
1029.19	0.152
1029.35	0.151
1029.51	0.150
1029.67	0.149
1029.84	0.151
1030.00	0.147
1030.16	0.147
1030.33	0.149
1030.49	0.147
1030.65	0.144
1030.82	0.159
1030.98	0.146
1031.14	0.145
1031.31	0.146
1031.47	0.143
1031.63	0.145
1031.79	0.144
1031.96	0.145
1032.12	0.146
1032.28	0.144
1032.45	0.148
1032.61	0.146
1032.77	0.146
1032.93	0.144
1033.10	0.145
1033.26	0.147
1033.42	0.146
1033.58	0.146
1033.75	0.147
1033.91	0.145
1034.07	0.149
1034.24	0.146
1034.40	0.144
1034.56	0.142
1034.72	0.143
1034.89	0.143
1035.05	0.141
1035.21	0.140
1035.37	0.139
1035.54	0.141
1035.70	0.139
1035.86	0.137
1036.02	0.138
1036.19	0.137
1036.35	0.135
1036.51	0.140
1036.67	0.137
1036.83	0.136
1037.00	0.136
1037.16	0.135
1037.32	0.136
1037.48	0.135
1037.65	0.140
1037.81	0.136
1037.97	0.135
1038.13	0.136
1038.29	0.133
1038.46	0.132
1038.62	0.136
1038.78	0.132
1038.94	0.130
1039.10	0.134
1039.27	0.130
1039.43	0.132
1039.59	0.132
1039.75	0.133
1039.91	0.131
1040.08	0.132
1040.24	0.135
1040.40	0.137
1040.56	0.137
1040.72	0.131
1040.89	0.133
1041.05	0.136
1041.21	0.134
1041.37	0.131
1041.53	0.137
1041.69	0.134
1041.86	0.133
1042.02	0.129
1042.18	0.127
1042.34	0.128
1042.50	0.132
1042.66	0.128
1042.83	0.127
1042.99	0.130
1043.15	0.125
1043.31	0.125
1043.47	0.129
1043.63	0.125
1043.79	0.126
1043.96	0.128
1044.12	0.132
1044.28	0.128
1044.44	0.132
1044.60	0.127
1044.76	0.125
1044.92	0.128
1045.09	0.129
1045.25	0.128
1045.41	0.128
1045.57	0.125
1045.73	0.124
1045.89	0.125
1046.05	0.129
1046.21	0.129
1046.38	0.134
1046.54	0.128
1046.70	0.130
1046.86	0.135
>>>>>End Processed Spectral Data<<<<<
